#   1 NUMBER                 Running object number                                     
#   2 MAG_AUTO               Kron-like elliptical aperture magnitude                    [mag]
#   3 X_IMAGE                Object position along x                                    [pixel]
#   4 Y_IMAGE                Object position along y                                    [pixel]
#   5 X_WORLD                Barycenter position along world x axis                     [deg]
#   6 Y_WORLD                Barycenter position along world y axis                     [deg]
#   7 A_WORLD                Profile RMS along major axis (world units)                 [deg]
#   8 B_WORLD                Profile RMS along minor axis (world units)                 [deg]
#   9 THETA_WORLD            Position angle (CCW/world-x)                               [deg]
#  10 FWHM_WORLD             FWHM assuming a gaussian core                              [deg]
#  11 ELONGATION             A_IMAGE/B_IMAGE                                           
#  12 ELLIPTICITY            1 - B_IMAGE/A_IMAGE                                       
         1 -13.0545    247.9550     63.3096   6.6944227131e+01   1.5673904306e+01      2.94463     0.570045 -38.79  0.008413401    4.749    0.789
         2 -12.2066    240.1539     14.4735   5.5218183259e+01   2.2867281391e+01    0.9313487    0.6165661 -32.62   0.00505017    1.391    0.281
         3 -10.5266    239.2313      3.1816   5.2399115539e+01   2.4140709641e+01    0.5788178    0.3011098 -43.62  0.002351104    1.787    0.441
         4 -11.8852    244.5615     22.3655   5.6840007968e+01   2.1062407259e+01    0.7427251    0.4543515  26.94  0.003576159    2.147    0.534
         5  -9.8856     29.7906     13.1248   1.0892325633e+02   7.0130558380e+01    0.2178774     0.182322 -41.55 0.0003621953    1.226    0.184
         6  -8.0801    117.7473      8.9786   7.1822078195e+01   5.4968744622e+01    0.1787083     0.121777 -15.99 0.0002998705    1.489    0.329
         7  -9.5330      4.3763      5.9741   1.2095764413e+02   7.3288678455e+01    0.2759216    0.0864217 -60.02  0.001266668    2.517    0.603
         8  -9.9636    110.8475      5.1647   7.1864960488e+01   5.7043767109e+01    0.2488126    0.1989249  24.26  0.001344342    1.133    0.118
         9  -9.1923     16.1968      6.3559   1.1379539883e+02   7.2530164939e+01    0.1415641    0.1041771  22.15  0.000485375    1.624    0.384
        10  -9.3709     97.6589      3.7029   7.4839002618e+01   6.0273085046e+01    0.3267922    0.2654784  37.71  0.001461441    1.133    0.118
        11  -9.4625     99.6776      1.3074   7.3079416155e+01   6.0062763461e+01    0.2936119    0.2246595 -48.03 0.0006811804    1.705    0.413
        12  -8.3987     64.5219      5.0011   8.7452143849e+01   6.6782029924e+01    0.1885308    0.1174453 -26.36 0.0003210898    1.470    0.320
        13  -9.7749     50.8890      3.6645   9.2987161707e+01   6.9170350067e+01    0.2274144    0.1689062 -17.33 0.0002556434    1.129    0.114
        14  -8.3567    153.3895      3.2710   6.2243081980e+01   4.6291506885e+01    0.1920779    0.1334317 -30.22 0.0003919104    1.527    0.345
        15  -8.5463    220.0283    240.3288   1.0793066278e+02  -8.7625868532e-01    0.1700138    0.1457524 -67.97  0.001178817    2.737    0.635
        16  -9.4501    210.0428    248.4828   1.1068662174e+02  -2.5856038156e-01    0.2385854    0.1863174 -45.23  0.001794104    2.200    0.545
        17  -7.8417    201.3277    250.7190   1.1242382830e+02   7.3935670126e-01   0.09993344   0.06965264  45.64 0.0003838527    1.600    0.375
        18  -9.8841    192.8801    249.3599   1.1367419184e+02   2.0601835740e+00    0.1924586    0.1861401  46.30  0.001645225    1.614    0.381
        19  -9.6471    168.1746    249.9061   1.1794332184e+02   5.4900032244e+00    0.2144646    0.1223441  32.67 0.0003521373    1.309    0.236
        20  -9.4399    191.5966    237.3144   1.1237158358e+02   3.5184306301e+00    0.4331299    0.2530198  60.96  0.001988235    4.315    0.768
        21  -9.8328    235.3713    229.9744   1.0388815844e+02  -2.0559058809e+00    0.3394121    0.1934017 -31.90  0.002193973    2.229    0.551
        22  -8.7256    217.5190    235.4908   1.0767648057e+02  -5.0021932388e-02    0.2203971     0.125661  33.00  0.001172678    1.275    0.216
        23  -8.6430    215.0000    233.0091   1.0775299552e+02   5.6100441525e-01    0.1751898    0.1374619  -4.25   0.00104112    1.360    0.265
        24  -8.4664    240.1645    232.1570   1.0342645356e+02  -2.9271490066e+00    0.1403307    0.1110171  25.04 0.0007771133    1.357    0.263
        25  -8.1325    207.5071    231.4819   1.0882272586e+02   1.8115532804e+00    0.1174406   0.08222024  24.82 2.532676e-06    1.037    0.036
        26  -9.6946    229.1815    227.2200   1.0450723433e+02  -9.1062259008e-01    0.3543397    0.1134934 -35.02  0.001690562    3.877    0.742
        27  -9.0002    216.8143    228.2484   1.0675835969e+02   7.8241976919e-01     0.193955    0.1298411   2.18 0.0005581926    1.491    0.329
        28  -9.6445    216.8034    222.9209   1.0597304662e+02   1.3388562176e+00    0.3232439    0.2230034 -41.64   0.00197542    2.215    0.548
        29  -8.7529    198.8748    225.7178   1.0951874224e+02   3.7233547343e+00    0.2374514    0.1429706 -19.61   0.00146192    2.057    0.514
        30  -8.3552    205.7905    225.0154   1.0820005836e+02   2.7609120994e+00    0.1316487   0.08976186 -26.05 0.0008768206    1.752    0.429
        31  -9.6504    239.7345    221.3502   1.0184421708e+02  -1.8556179446e+00    0.2443177    0.2118092   9.58  0.001629283    1.448    0.309
        32 -10.2670    239.8180    215.9265   1.0097009743e+02  -1.3398646837e+00    0.2941277    0.2436811  28.52  0.002170598    1.451    0.311
        33  -8.6852    222.1819    225.7199   1.0546762286e+02   2.5480973560e-01    0.2282782    0.1246832  44.35  0.001335688    1.895    0.472
        34 -11.0925    242.7905    200.4091   9.7889068602e+01  -2.0672360708e-01     1.056055    0.3882445 -19.67    0.0045452    3.547    0.718
        35 -10.2430    237.2384    196.4536   9.8145878036e+01   1.0649701377e+00    0.7088165    0.2624352 -19.29  0.002881088    3.832    0.739
        36 -10.6795    250.1399    200.8507   9.6740507811e+01  -1.3512304029e+00    0.6898549    0.2547978 -38.07  0.003050078    4.022    0.751
        37  -9.5548    248.9550    185.3392   9.4169507183e+01   4.4757976616e-01     0.367901    0.2987787 -30.91  0.002341548    1.705    0.413
        38  -9.5973    246.7271    177.6300   9.3102657605e+01   1.6483263457e+00    0.4904479    0.3630668 -57.07  0.002536536    3.246    0.692
        39 -10.5324    247.5863    216.6413   9.9800106588e+01  -2.5259282755e+00    0.4965524    0.2597415 -27.12  0.003047923    2.109    0.526
        40 -10.5746    247.3322    207.0480   9.8261286946e+01  -1.5579005473e+00    0.3592238    0.3476841 -30.44  0.002193763    1.946    0.486
        41 -10.1248    243.4974    187.4990   9.5482258274e+01   1.0655117378e+00     0.434714     0.231809 -31.26  0.002414846    2.066    0.516
        42 -11.1853    241.5818    180.4399   9.4504728711e+01   2.1585420012e+00    0.8557475    0.3988171 -41.99  0.003838589    3.424    0.708
        43 -10.0020    218.0715    214.3482   1.0443958539e+02   2.0681002081e+00    0.4577249    0.3123897 -52.32  0.002602241    3.009    0.668
        44  -8.2412    192.8320    215.7819   1.0917027422e+02   5.8081647635e+00    0.2086211    0.1096986  12.61 0.0009590813    2.908    0.656
        45  -9.7723    232.8354    213.5103   1.0175831059e+02  -6.9691429912e-02    0.2510848    0.1615299 -28.30  0.001629611    1.830    0.454
        46 -10.6913    241.0709    208.8164   9.9599898588e+01  -8.1341826451e-01    0.4905808    0.4241182  77.58  0.003048489    2.886    0.654
        47  -9.5992    212.4546    211.1000   1.0492075141e+02   3.2954891613e+00    0.2672957    0.1349416 -27.71  0.001476918    2.299    0.565
        48  -9.1293    176.8472    211.0511   1.1144146008e+02   8.9239185603e+00    0.2031063    0.1505633 -33.67  0.001332237    1.660    0.398
        49  -9.0942    229.0175    206.8268   1.0132381681e+02   1.2100159941e+00    0.2840584    0.1432645 -36.86  0.001549345    2.553    0.608
        50  -8.5714    173.3787    204.2205   1.1110244412e+02   1.0398778882e+01    0.1471563    0.1195049 -54.19 0.0009409001    1.732    0.422
        51  -8.2604    229.4510    182.2362   9.6949436645e+01   3.9319059568e+00    0.1980443    0.1127248 -39.04  0.001036518    2.283    0.562
        52  -9.7401    231.1950    192.6613   9.8525657994e+01   2.4365799316e+00    0.4056597     0.148408 -30.48  0.001863177    2.947    0.661
        53  -8.9977    229.8529    187.1608   9.7778375274e+01   3.2854029343e+00    0.2249791     0.155015 -24.82  0.001229405    1.559    0.358
        54  -9.4524    224.4059    192.4658   9.9687757180e+01   3.5492080061e+00    0.3425873    0.1101886 -35.38  0.001447694    3.528    0.717
        55  -8.1852      1.4376    194.4619   1.4372935003e+02   3.3813917694e+01   0.09845435   0.07019051  68.75 6.037512e-05    1.009    0.009
        56  -9.4061    237.0238    187.3836   9.6568274080e+01   2.1037244578e+00    0.4003416    0.1821395 -27.72  0.002039893    2.288    0.563
        57  -9.0267    235.1866    181.1207   9.5735291085e+01   3.1195813177e+00     0.283741    0.1621923 -18.05  0.001048521    1.770    0.435
        58  -9.0938    232.8051    173.5743   9.4724779611e+01   4.4124621349e+00    0.4505212    0.1508398 -26.54  0.001789722    3.337    0.700
        59  -8.8328    223.3538    173.5173   9.6402810210e+01   6.0314958142e+00    0.2298818    0.1497219 -29.33 0.0009287811    1.652    0.394
        60 -10.5528    238.6716    160.2036   9.1057841061e+01   5.0440028723e+00    0.6390355      0.32136 -42.65  0.002877066    2.898    0.655
        61  -9.6294    247.6202    112.7105   7.9130671149e+01   9.4518312705e+00    0.2696286    0.1637378 -32.98 0.0008314002    1.607    0.378
        62 -10.7160    248.4278    120.8441   8.0889447255e+01   8.2503440972e+00    0.8230948    0.2540763 -36.78   0.00297852    3.310    0.698
        63  -9.5197    242.1892    134.0475   8.4891067928e+01   7.7214862728e+00    0.4565107     0.207576 -31.10  0.001881028    2.104    0.525
        64 -11.6536    245.5584    161.4891   9.0141875880e+01   3.7090136253e+00     1.309994     0.459287 -36.78  0.005356058    3.282    0.695
        65 -10.0026    247.1037    143.7304   8.6187094547e+01   5.6021982029e+00    0.4901411    0.2997265  17.82  0.002562342    1.609    0.379
        66  -9.8124    243.4705    140.0284   8.5992401998e+01   6.7199212070e+00    0.4938851    0.2097772 -28.43   0.00202839    2.236    0.553
        67  -9.9606    248.5475    135.2930   8.4116914869e+01   6.3954933433e+00    0.6479836    0.2237365 -38.91  0.002416562    3.467    0.712
        68  -9.7801    247.9682    129.7963   8.2991453555e+01   7.1948406726e+00    0.4361879    0.2567737 -37.72  0.001498126    1.896    0.472
        69  -9.6630    250.5428    157.8337   8.8567986764e+01   3.3009143297e+00    0.4411897    0.1359072 -27.24  0.001731295    3.195    0.687
        70  -9.8993    249.7193    150.7007   8.7230747653e+01   4.2916483402e+00    0.5157839    0.1929567 -31.92  0.002232639    2.598    0.615
        71  -8.4817    227.5312    171.4965   9.5261019240e+01   5.5662696285e+00    0.2094659    0.1130435 -40.20  0.001023681    2.393    0.582
        72  -9.1855    237.3037    169.5795   9.3163396004e+01   4.1355749976e+00    0.3308731    0.1554051 -28.30  0.001598319    2.146    0.534
        73  -8.8073    205.0272    169.3414   9.9022099761e+01   9.8169683065e+00    0.2362721    0.1709185 -61.32  0.001163019    2.669    0.625
        74  -8.9672    218.5096    167.9619   9.6214673159e+01   7.5944563621e+00    0.3023591    0.2164974 -41.56  0.001694213    1.844    0.458
        75  -8.1264    229.2843    166.6308   9.3995936586e+01   5.8734847671e+00    0.1125108    0.1056842 -52.97 0.0006412878    1.700    0.412
        76  -9.0275    199.7348    165.0701   9.9221189733e+01   1.1383397648e+01    0.2737781    0.1850523 -52.47  0.001367526    2.291    0.564
        77  -8.6724    233.7618    164.2957   9.2738342825e+01   5.3882785319e+00    0.2216334     0.145836 -33.90  0.001004218    1.737    0.424
        78  -8.5272    212.5794    163.3200   9.6405754923e+01   9.2821321906e+00    0.2357734    0.1242157 -35.04  0.001135781    2.065    0.516
        79  -8.9066    204.8181    162.0178   9.7629640985e+01   1.0885399859e+01    0.1971287    0.1616668 -61.87  0.001001311    1.996    0.499
        80  -8.1187    221.2926    161.6563   9.4450175666e+01   7.9305132268e+00    0.1147328    0.1095226 -70.20 0.0004230526    1.659    0.397
        81  -8.8443    226.6620    157.3402   9.2594354271e+01   7.5322905456e+00    0.2220608    0.1528958 -34.02  0.001202142    1.640    0.390
        82  -9.2419    197.1452    157.7547   9.8279601382e+01   1.2937499401e+01    0.2091154    0.1593748  88.74 0.0009546972    2.869    0.651
        83  -8.9465    233.1089    153.6605   9.0683034218e+01   6.8497820046e+00    0.2460783    0.2007443 -45.22  0.001121717    1.769    0.435
        84  -9.2791    228.1240    150.9802   9.1007458587e+01   8.1046793156e+00    0.4719515    0.2102719 -21.65  0.001990428    2.516    0.603
        85 -11.1547    220.6507    146.5941   9.1433179402e+01   1.0091264468e+01    0.8122563    0.6889011 -78.63  0.003807287    2.129    0.530
        86  -9.6583    235.3828    147.8673   8.9063992753e+01   7.1862337448e+00    0.3802849    0.3111783 -61.50  0.002092885    2.174    0.540
        87  -9.1286     41.1395    148.6095   1.3282658619e+02   3.9307246961e+01    0.2089193    0.1491306 -69.99 0.0005855415    1.325    0.245
        88  -8.6462    229.8963    140.9375   8.8532097643e+01   9.1162116028e+00    0.2455505    0.1737061 -27.83  0.001343021    1.428    0.300
        89  -8.5752    223.9949    140.4137   8.9476552357e+01   1.0309364727e+01    0.2245623    0.1653168 -20.54  0.001235741    1.312    0.238
        90  -9.8736    243.7597    148.5623   8.7775198830e+01   5.5950228988e+00    0.4439914    0.2434072 -26.20   0.00180835    1.742    0.426
        91 -10.0813    218.5915    138.2168   8.9982247686e+01   1.1662247839e+01    0.4963033    0.2597892 -36.72  0.002267355    2.038    0.509
        92  -9.1741    215.4751    135.4797   8.9950927194e+01   1.2667646643e+01    0.2553618    0.1316465 -25.91 0.0008509497    1.988    0.497
        93  -9.8517    220.5910    128.8021   8.7480658543e+01   1.2609215705e+01    0.2915871    0.2573886 -34.28  0.001494107    1.349    0.259
        94  -8.5491    206.2492    131.8168   9.0881624726e+01   1.5063247941e+01    0.2199617    0.1645857 -77.95 0.0009560069    2.790    0.642
        95  -7.8437    212.3062    129.6496   8.9219094269e+01   1.4156688643e+01    0.1328015    0.1158323 -65.95 0.0007042364    1.707    0.414
        96  -9.3806    240.6203    126.1553   8.3375060117e+01   9.0461327734e+00     0.323365    0.2182739 -22.86  0.001469533    1.375    0.273
        97  -8.3055    199.6620    126.3490   9.0910639371e+01   1.7264323549e+01    0.1393762    0.1193415 -77.52 0.0007046337    1.788    0.441
        98 -10.1555    217.5920    125.7932   8.7333369302e+01   1.3648138217e+01    0.3541304    0.2028509 -36.13  0.001061148    1.820    0.451
        99  -8.3881    179.3982    124.6477   9.4729248629e+01   2.1806880271e+01    0.2782378    0.1252846 -49.59  0.000959484    3.218    0.689
       100  -8.2992    235.4575    123.9523   8.3737287512e+01   1.0337829106e+01    0.1891434    0.1077643 -47.20 0.0008089775    2.553    0.608
       101  -9.3089    238.3981    119.5049   8.2209482383e+01   1.0358755624e+01    0.4174374    0.1063957 -33.74  0.001379967    3.592    0.722
       102  -8.3160    225.4593    133.4940   8.7668813357e+01   1.0985419796e+01    0.1411062    0.1193342   7.93 9.445818e-05    1.015    0.014
       103  -8.7620    242.2859    118.4290   8.1318928606e+01   9.7418573718e+00    0.3373089     0.136517 -38.88  0.001333822    2.713    0.631
       104  -8.0835     37.4469    113.5129   1.2999052684e+02   4.7337497361e+01    0.1217395    0.1041066 -83.05 0.0002257012    1.011    0.011
       105 -10.4271    249.0789     98.2742   7.5471602514e+01   1.1027703292e+01     0.524658    0.1705237 -28.14  0.001940694    2.767    0.639
       106 -10.1402    248.0100    106.7650   7.7666927722e+01   1.0144473507e+01     0.351869    0.1835941 -41.71  0.001175219    2.218    0.549
       107  -9.5330    241.4974    106.0717   7.8517720021e+01   1.1532717509e+01    0.2126815    0.1249308 -25.32 0.0007088755    1.564    0.361
       108  -9.7142    222.4101    104.7812   8.1379936200e+01   1.5682492495e+01    0.4407018    0.1678081 -38.90  0.001610204    2.758    0.637
       109 -10.2029    225.0862     99.6408   7.9628323183e+01   1.5839813742e+01    0.2551833    0.1845035 -33.42 0.0009334454    1.387    0.279
       110 -10.1030    229.8034    103.6729   7.9839015223e+01   1.4269316463e+01    0.2847395    0.1805452 -34.70  0.001051533    1.574    0.365
       111  -9.3976    224.5862     93.6525   7.8189609993e+01   1.6794023324e+01    0.2801317    0.1353451 -22.17  0.001123332    2.131    0.531
       112  -9.3341    188.5106     93.0667   8.4729689732e+01   2.5086457339e+01    0.3507759    0.1327149 -39.22   0.00119777    2.712    0.631
       113  -9.0979    218.0484     90.2930   7.8429939398e+01   1.8723796873e+01    0.2088821    0.1889051  16.19  0.000821644    1.050    0.048
       114 -10.0470    249.0000     87.9538   7.2968382400e+01   1.2366929999e+01     0.289889    0.1672155 -36.40 0.0007975746    1.684    0.406
       115  -9.0198    246.3303     85.2827   7.2690815176e+01   1.3261151788e+01    0.2203489    0.1298167 -22.85 0.0006984658    1.553    0.356
       116  -8.2940    226.0050     88.0504   7.6510226635e+01   1.7265591060e+01    0.2251202    0.1683902 -51.68 0.0007453017    1.666    0.400
       117  -8.6361    231.0242     90.9907   7.6453246096e+01   1.5760463238e+01    0.2179301    0.1734198 -56.95  0.001025195    1.651    0.394
       118  -7.9315    175.6459     88.2881   8.6118586221e+01   2.8894636276e+01    0.1510234    0.1257861 -81.96 0.0007024662    1.673    0.402
       119  -9.5187     23.1045     86.3360   1.3074780103e+02   5.4661238380e+01    0.2015575    0.1154175   3.35 0.0007634106    2.421    0.587
       120  -9.9118    249.4295     81.9123   7.1416416995e+01   1.3046066025e+01     0.422831    0.2405574 -46.98  0.001934245    2.127    0.530
       121  -9.4940      9.3294     84.0190   1.3492724708e+02   5.5997507296e+01    0.1643025    0.1252009 -74.25 0.0006534633    1.045    0.043
       122  -8.0951    230.7006     82.3377   7.4279517947e+01   1.7009405355e+01    0.1426584    0.1079103 -54.09 0.0007034506    1.660    0.398
       123  -8.5397    183.8086     77.8250   8.1396915715e+01   2.8660985810e+01    0.2075777    0.1849003 -60.60 0.0007045218    1.348    0.258
       124  -8.5297    243.2279     77.0106   7.1055874373e+01   1.4978742474e+01    0.1903543    0.1059599 -25.26 0.0008744123    1.640    0.390
       125 -10.7804    238.9389     74.2288   7.0953721238e+01   1.6266260641e+01    0.6093121    0.1727487 -27.75  0.002026519    3.200    0.688
       126  -9.4721    221.9887     71.6832   7.2818132464e+01   2.0429390877e+01    0.2727648     0.168639 -39.27  0.001252956    1.640    0.390
       127 -10.7695      8.0769     71.9789   1.3387788876e+02   5.8788672151e+01    0.3080542    0.1864387   1.13  0.001819831    2.169    0.539
       128 -10.9739    250.0107     56.7198   6.5019956171e+01   1.6022674167e+01    0.5007125    0.2550513 -19.74  0.001889557    1.922    0.480
       129  -9.9811    225.3869    248.0002   1.0809433651e+02  -2.3283298615e+00    0.3377804    0.1418576  34.29  0.002004219    1.676    0.403
       130  -8.1039    203.4876     67.0021   7.4561291263e+01   2.5488911739e+01    0.2205234    0.1121575 -48.57 0.0008099916    2.520    0.603
       131  -9.9165      7.6075     65.7784   1.3320490079e+02   6.0214980059e+01    0.1691611   0.09380161 -83.53 0.0009474477    1.660    0.398
       132 -10.7988    234.4109     61.8856   6.8367247862e+01   1.8855374788e+01    0.5313048    0.2183182 -41.02  0.001909569    2.488    0.598
       133  -8.3698    158.4685     62.9666   8.2330306637e+01   3.7290453344e+01    0.2245055    0.1251496 -52.75  0.000713403    2.518    0.603
       134  -8.6327    217.3847     58.3076   6.9847841024e+01   2.3303771070e+01    0.2696005    0.1380229 -21.70  0.000565398    1.980    0.495
       135  -8.2549     32.8297     57.8699   1.2202357380e+02   6.0472379727e+01    0.1603079    0.1366477 -85.60            0    1.303    0.233
       136 -10.7874     10.1293     58.0308   1.3106932013e+02   6.1853385262e+01    0.2936474    0.1521381  26.07  0.001663134    2.312    0.567
       137  -7.8779    211.3265     76.6726   7.5927354867e+01   2.2228542256e+01    0.1496761    0.1154507 -61.22 0.0004128059    1.700    0.412
       138 -10.0852    225.5297     52.5197   6.7068940000e+01   2.2095968742e+01    0.3441595    0.2417727  16.90  0.001669524    1.653    0.395
       139 -11.6185    246.5120     38.2793   6.0719826965e+01   1.8919652434e+01    0.9881628    0.2457713 -39.99  0.003274722    3.613    0.723
       140 -10.2915    249.5714     34.2008   5.9360799779e+01   1.8684402464e+01    0.3465417     0.127389 -20.88  0.001320702    2.769    0.639
       141  -8.9009    223.1979     67.0036   7.1363036768e+01   2.0776986560e+01    0.2378599    0.1437061 -46.79  0.001050866    1.884    0.469
       142  -8.6122    225.3288     40.6639   6.3832928216e+01   2.3578705702e+01    0.1506368    0.1013822 -56.80 0.0007051971    1.728    0.421
       143  -8.1339    228.4927     37.5076   6.2573699504e+01   2.3184890679e+01    0.1380362    0.1315756 -22.86 0.0003224149    1.005    0.005
       144 -10.6383      8.6549     32.5715   1.2661456147e+02   6.7566840798e+01     0.249598    0.1893294 -41.04  0.001109888    1.154    0.134
       145  -8.7707     54.1717     30.3489   1.0413758381e+02   6.4115364496e+01    0.2549386    0.2082178 -80.78  0.001414842    1.973    0.493
       146 -10.4253    249.7858     26.5114   5.7398259961e+01   1.9454587723e+01    0.4169014    0.2173478 -12.29  0.001885187    2.182    0.542
       147  -9.9114    176.4796    245.2596   1.1598053400e+02   4.8294699656e+00    0.3757011     0.214436 -31.59  0.002445967    2.395    0.583
       148  -9.9393    249.9884    245.2780   1.0376696499e+02  -5.3785572305e+00    0.2497308     0.149839  -5.14  0.001180663    1.609    0.379
       149 -10.8538    244.8987     27.7907   5.8196900580e+01   2.0421511630e+01    0.4071901      0.21757   3.74  0.001659306    2.874    0.652
       150 -10.5418    247.3854    226.0148   1.0131562568e+02  -3.3683423737e+00    0.3592435    0.3041702  13.00  0.002824899    1.452    0.311
       151 -10.0962      3.5836     23.7495   1.2695061056e+02   6.9663875835e+01    0.2538913    0.1484272 -68.63 0.0006732033    1.488    0.328
       152  -8.5770      1.4260     27.4869   1.2896291911e+02   6.8940652683e+01    0.1185519   0.08602712 -54.22 8.299069e-05    1.028    0.027
       153  -9.0139    136.8338     25.2217   7.3956017736e+01   4.8294854965e+01    0.2667799    0.2057415  -8.37 0.0002601689    1.332    0.249
       154  -8.5412    118.1878     24.8769   7.8524907766e+01   5.2931073738e+01    0.2086866    0.1981265 -18.63 0.0003920211    1.154    0.133
       155  -7.8008     40.4995     25.4699   1.0858321376e+02   6.6685464059e+01    0.1304311     0.105003 -29.33  3.49926e-05    1.014    0.014
       156  -8.7599     68.1110     23.3756   9.5060868549e+01   6.3339001797e+01     0.186436    0.1551844  14.27 0.0004816431    1.163    0.140
       157  -8.9349     83.5392     21.2911   8.8017148586e+01   6.0936814729e+01    0.3489434    0.2277679  56.99  0.001657558    2.055    0.513
       158 -10.7403      8.4677     26.0002   1.2502347938e+02   6.8985650720e+01    0.3600672    0.1522877 -72.36  0.001150538    2.487    0.598
       159  -7.9001     77.3538     20.2796   8.9893650064e+01   6.2250429290e+01    0.1451549   0.09761709   8.96 0.0007012488    1.654    0.395
       160  -8.7505     10.2917     19.6641   1.2220616297e+02   7.0230285292e+01    0.1060353   0.08700224  85.54 0.0001971335    1.640    0.390
       161  -9.0292     14.6521     18.0171   1.1926892558e+02   7.0329635828e+01    0.2206704   0.02278606 -45.40 0.0007049167    4.485    0.777
       162  -8.4714    155.6396     16.8338   6.6875970396e+01   4.4367900935e+01    0.2164839    0.1298761 -33.43 0.0009483536    1.733    0.423
       163  -8.3074     23.2645     15.7717   1.1365722026e+02   7.0185758627e+01    0.1659236    0.1112451 -29.12 0.0005136006    1.276    0.216
       164  -9.5064      2.5112     15.9960   1.2539534823e+02   7.1331232268e+01    0.1907997    0.1544521 -20.42 0.0004911854    1.296    0.228
       165  -8.3356     96.8743     15.1219   8.0543097500e+01   5.9083739743e+01    0.1931517    0.1470067  12.27  0.001008855    1.263    0.208
       166  -9.7226    249.0767    231.4749   1.0187949964e+02  -4.0879510676e+00    0.1885461   0.09880073  21.73 0.0007520204    1.467    0.318
       167  -7.9431     46.0467     14.0114   1.0077333537e+02   6.8162469219e+01    0.1521253    0.1228838 -18.16 0.0003155409    1.005    0.005
       168  -8.1676     34.4939     10.4669   1.0510555531e+02   7.0145365430e+01    0.1269761   0.09989098 -23.97 1.905922e-05    1.003    0.003
       169  -9.8114    248.3003    239.6595   1.0322228458e+02  -4.6893965986e+00    0.2717505    0.1336613 -21.56  0.001537067    2.224    0.550
       170  -9.2477    151.0982    249.5087   1.2083479065e+02   7.9312604980e+00     0.170658   0.07839554  38.70 0.0009515153    1.550    0.355
       171  -9.2265    187.1191    246.5151   1.1430433006e+02   3.1730228475e+00    0.1956423    0.1474137  -3.34  0.001475283    1.535    0.348
       172  -8.5821    237.4846    244.5386   1.0565504346e+02  -3.6611691534e+00    0.1475363   0.09626798 -35.88  0.001022705    2.374    0.579
       173  -9.7541    240.1813    241.0038   1.0471845916e+02  -3.7173683943e+00    0.2702168    0.2465625 -53.30  0.001910845    2.464    0.594
       174 -10.1691    163.9748    242.8236   1.1787057692e+02   6.9021425150e+00    0.2428136    0.1673761 -10.47  0.001294708    2.089    0.521
       175  -9.3983    170.6539    239.6832   1.1633216803e+02   6.3065977149e+00    0.2035921   0.07076585  32.83 0.0004855893    2.563    0.610
       176  -7.9611    218.6854    243.7071   1.0861688411e+02  -1.0090266922e+00     0.112615   0.06267147  18.59 0.0002490866    1.596    0.374
