#   1 NUMBER                 Running object number                                     
#   2 MAG_AUTO               Kron-like elliptical aperture magnitude                    [mag]
#   3 X_IMAGE                Object position along x                                    [pixel]
#   4 Y_IMAGE                Object position along y                                    [pixel]
#   5 X_WORLD                Barycenter position along world x axis                     [deg]
#   6 Y_WORLD                Barycenter position along world y axis                     [deg]
#   7 A_WORLD                Profile RMS along major axis (world units)                 [deg]
#   8 B_WORLD                Profile RMS along minor axis (world units)                 [deg]
#   9 THETA_WORLD            Position angle (CCW/world-x)                               [deg]
#  10 FWHM_WORLD             FWHM assuming a gaussian core                              [deg]
#  11 ELONGATION             A_IMAGE/B_IMAGE                                           
#  12 ELLIPTICITY            1 - B_IMAGE/A_IMAGE                                       
         1 -10.3281    233.7536     26.4628   4.1188597581e+01   2.3609786856e+01    0.4563743     0.372064  54.05  0.002753513    1.417    0.294
         2 -10.7964    133.1828     14.9008   5.1668744720e+01   4.9941826445e+01    0.5375843    0.2201065 -16.60  0.002047253    3.041    0.671
         3  -9.5575    189.5665     14.5747   4.2889442385e+01   3.5685356076e+01     0.360224     0.173938 -46.37   0.00159337    2.106    0.525
         4  -9.2992    116.3355     12.3434   5.4253790585e+01   5.4259205953e+01    0.2651988    0.1843924  22.49  0.001392255    1.501    0.334
         5 -10.9550    120.4194      8.9456   5.2049618339e+01   5.3611797805e+01    0.4678854    0.3611738  40.41  0.001583819    1.161    0.139
         6  -9.0446     57.3179      6.1460   6.9239854083e+01   6.6955274578e+01      0.18171    0.1316134  23.08  0.001130506    1.187    0.157
         7 -10.3463    190.2003      3.3968   3.9748174154e+01   3.6644832969e+01    0.4234519    0.2017858  59.67  0.001967641    1.899    0.473
         8  -8.4627    238.7896      1.5881   3.5077371451e+01   2.5281829524e+01      0.17527     0.135445  69.05 0.0003483702    1.358    0.264
         9  -9.1758    174.1578      8.0196   4.2914200434e+01   4.0250907447e+01    0.2216484    0.1444643  25.51 0.0007256158    2.018    0.505
        10  -8.8302     63.8176      1.8276   6.4583839183e+01   6.6280135148e+01    0.1557638    0.1471119   5.09  0.001081079    1.344    0.256
        11 -11.2001     10.9526    219.1472   1.2818595903e+02   2.6998300486e+01     1.064347    0.3076344 -84.92  0.004784651    3.398    0.706
        12 -11.2030    246.9160    240.1821   8.5923546757e+01  -1.0553675687e+01    0.3710203    0.2955061  14.77   0.00255986    1.191    0.160
        13 -11.1877    247.9390    228.8789   8.3842054566e+01  -9.3885231338e+00    0.4190385    0.3189035 -42.12  0.002723417    1.986    0.496
        14  -9.5990    250.0192    223.2850   8.2509967019e+01  -9.0093894295e+00    0.2484958    0.1458843  10.54 0.0009104874    1.657    0.397
        15 -14.9758     81.0195    164.4306   1.0814923738e+02   3.0525073185e+01     1.642535    0.9384422 -37.99  0.005066073    2.552    0.608
        16 -15.4609    120.8161    168.4254   9.9070381807e+01   2.3016790272e+01     1.546335    0.4948879  44.03  0.005184922    2.992    0.666
        17 -15.5477    100.6734    216.9106   1.1074630066e+02   1.6208795609e+01    0.8839598    0.3726062  49.62  0.003595089    2.139    0.532
        18 -19.0937    108.6590    193.6353   1.0599039204e+02   1.9642849260e+01     5.667192     5.272616 -59.25   0.02466955    1.204    0.169
        19 -10.0050     37.8971    151.7964   1.1716929632e+02   3.8955640764e+01    0.2847409    0.2343247 -76.65  0.001169607    1.072    0.068
        20  -9.4065      2.4730    212.6072   1.2934654136e+02   2.9058019486e+01    0.2060658    0.1497247  82.58 0.0006466622    1.088    0.081
        21  -9.4965     21.8251    150.3312   1.2096176417e+02   4.0826956125e+01    0.3839398    0.1571414 -59.70  0.001853636    2.112    0.526
        22  -9.9408      5.8557    208.8199   1.2855883324e+02   2.9502192873e+01    0.2570345    0.1823168  73.54 0.0008861629    1.038    0.037
        23 -11.0578     12.2346    207.0189   1.2730233408e+02   2.9273441213e+01    0.5032348    0.2932949  47.82   0.00249057    1.542    0.352
        24  -9.6175    200.2338    147.3021   7.6556801177e+01   1.1422329384e+01    0.3063098    0.1997534 -48.29    0.0013849    1.683    0.406
        25 -10.9021     25.2285    221.8451   1.2580970870e+02   2.5038654799e+01    0.5448555    0.4102347  -1.51  0.003439762    2.804    0.643
        26  -8.4756    249.5345    143.6030   6.6698321229e+01   2.4293381159e+00    0.2496795    0.1096317 -43.54  0.001021072    2.359    0.576
        27  -8.4345    192.5640    144.1441   7.7404023930e+01   1.3629485455e+01     0.243659    0.2034283  53.77 0.0005448029    1.319    0.242
        28  -8.6744    184.7990    221.3872   9.4262305446e+01   1.4520357043e+00    0.2312678     0.175781 -25.74  0.000971163    1.465    0.317
        29 -10.3022     26.8026    233.5591   1.2621381191e+02   2.2647896600e+01    0.3627352     0.105885  52.06  0.001327129    2.569    0.611
        30  -9.0425     24.1035    142.0734   1.1952052829e+02   4.2574071882e+01    0.2813506    0.1304911 -55.44  0.001393267    1.991    0.498
        31  -9.5346     43.1499    137.5798   1.1396484109e+02   4.1820173571e+01    0.3332446     0.173444 -74.39  0.001283038    1.766    0.434
        32  -9.8619     21.3776    220.1388   1.2639791450e+02   2.5770678739e+01    0.2689961    0.1465091  89.52  0.001514941    1.557    0.358
        33  -8.2459     34.0888    132.5354   1.1571723894e+02   4.3951374964e+01    0.1649697    0.1296657  30.67 0.0005832898    1.518    0.341
        34  -9.2853    249.5897    214.6920   8.1049822394e+01  -7.8840194106e+00    0.2287095    0.1923368  71.79  0.001348182    2.615    0.618
        35 -10.1310     57.2011    236.5986   1.2104595105e+02   1.8538700402e+01    0.3354569    0.1682523  57.72  0.001062104    1.652    0.395
        36  -9.1101    237.9005    128.6682   6.5245903414e+01   7.0654189844e+00    0.2694375    0.1874897 -38.65 0.0006346007    1.329    0.248
        37 -11.5304     24.9119    201.0448   1.2452881075e+02   2.9253945625e+01    0.5747702    0.4357126 -64.51  0.004013745    1.507    0.336
        38  -9.3313    180.5262    122.0088   7.4576369832e+01   2.0633312223e+01      0.48727    0.2768522 -58.43  0.001095083    2.495    0.599
        39 -10.0373     31.3262    122.5421   1.1508435948e+02   4.6620744330e+01    0.3551013    0.2167937 -48.67  0.001918445    1.601    0.376
        40  -9.8856     34.5533    117.6871   1.1341582726e+02   4.7500869496e+01    0.3016064    0.1743079 -62.05  0.001044514    1.417    0.294
        41  -9.0076    241.7504    120.5755   6.2738874790e+01   7.6563852796e+00    0.4465768    0.2040435 -55.18  0.001429897    4.141    0.758
        42 -10.8892    214.5754    197.6805   8.4265294100e+01   3.9987159288e-02    0.6874675    0.4432539  63.31  0.002991068    3.138    0.681
        43 -11.7729    102.3151    113.7993   9.2374283365e+01   3.9157201594e+01    0.7106336    0.5415934  70.28  0.003345107    1.656    0.396
        44 -10.8748    205.3890    199.6806   8.6419603669e+01   1.3152183266e+00    0.7118431    0.4169247  19.60  0.003370308    1.953    0.488
        45  -8.7310    205.4794    194.4508   8.5415107617e+01   2.1344820001e+00    0.2548191    0.2103004  14.09 0.0005093503    1.081    0.075
        46 -10.0413     18.3661    196.1139   1.2546969853e+02   3.0933971394e+01    0.3864114    0.1782697  87.65  0.002081728    1.967    0.492
        47  -9.8233    205.3925    110.9528   6.6710684361e+01   1.7088079536e+01     0.562184    0.3329949  42.31  0.002109917    1.806    0.446
        48 -10.8631    106.2357    107.5767   8.9647089692e+01   3.9881443310e+01    0.5203757    0.3461991 -42.96   0.00164395    1.459    0.314
        49 -11.0687    168.4198    114.1276   7.5223948782e+01   2.5008519033e+01    0.4829089    0.4078056 -84.56  0.001068849    1.465    0.317
        50 -10.8234     71.6755    108.0486   1.0022303595e+02   4.5514535183e+01    0.5546319    0.4077975   6.00   0.00197052    1.796    0.443
        51 -11.1043    109.9715    109.7159   8.9127013570e+01   3.8673669722e+01    0.5488771    0.3922246  -9.46  0.001895112    2.040    0.510
        52 -10.1650     64.7230    108.0208   1.0238603818e+02   4.6475388586e+01    0.3404254    0.2876022  40.92  0.001406189    1.317    0.241
        53  -9.7200     13.1465    195.0852   1.2641824996e+02   3.1641700324e+01    0.3051373    0.2215031  71.72   0.00134023    1.091    0.083
        54 -10.5822    190.4261    189.7465   8.7535684012e+01   5.6431509148e+00    0.7356197    0.3933105 -56.01  0.002963076    2.983    0.665
        55  -9.8661    213.2137    191.8297   8.3404110588e+01   1.1911455708e+00     0.271709      0.18096  29.21 0.0008193304    1.394    0.283
        56  -9.9202     20.8197    230.3510   1.2706504912e+02   2.3878116651e+01    0.3854666    0.1825005  55.48  0.002298822    1.631    0.387
        57 -11.1396    116.1304     94.4068   8.3137757126e+01   4.0886617848e+01    0.7534932    0.3451294  33.92  0.002604979    2.699    0.629
        58  -9.2488    237.2927    199.2887   8.0354658369e+01  -3.9559630297e+00    0.4501546    0.2345169   1.06  0.001798514    3.265    0.694
        59  -8.2958     53.0354     98.9631   1.0413010709e+02   5.0100865302e+01     0.221769    0.1470102 -32.12 0.0006848882    1.685    0.407
        60  -9.8010     13.2850    186.4663   1.2583169644e+02   3.3456014466e+01    0.2913571    0.1429495  74.48  0.001411792    1.853    0.460
        61  -9.1196    217.9535    187.4812   8.1641759290e+01   1.0490834405e+00    0.2034664    0.1240732  37.23 0.0004992748    1.561    0.359
        62  -8.8152    216.7039    232.4903   9.0017130733e+01  -5.2570052885e+00    0.2251078     0.140601  32.29 0.0006819015    1.337    0.252
        63  -7.8348    242.0420    185.4659   7.6809980077e+01  -2.7302761011e+00    0.1826292    0.1183098  32.74 0.0004573225    1.497    0.332
        64 -10.8208    247.3428    249.3873   8.7343360491e+01  -1.1619598891e+01    0.6305624    0.2276548  38.51  0.003176408    2.494    0.599
        65  -8.1137     86.1837     80.2884   8.8146245768e+01   4.9636772443e+01    0.1952353    0.1694502 -67.98 0.0006248255    1.343    0.255
        66  -9.3088    122.4670     77.3997   7.6153370674e+01   4.3073989842e+01    0.3100725    0.2106607  -5.03  0.000812815    2.150    0.535
        67  -9.6311    110.0280     76.3046   7.9392653207e+01   4.5952129306e+01     0.333963    0.2777678  54.37 0.0006514186    1.337    0.252
        68  -9.7179    234.9727     79.1599   5.3834135869e+01   1.5866220734e+01    0.3058497    0.1997961  71.31  0.001475745    1.819    0.450
        69  -9.1749     23.3724    182.5896   1.2347984387e+02   3.3353546450e+01    0.2652551    0.2027741  62.85 0.0009268115    1.189    0.159
        70  -9.1764    221.1338    179.4124   7.9414538891e+01   1.7760293679e+00    0.3885675    0.2026232 -40.01  0.001613071    1.976    0.494
        71 -10.3913    245.8395     77.3757   5.1936925615e+01   1.3789328122e+01    0.2794659    0.2397094 -55.56  0.001265182    1.105    0.095
        72  -9.0159    205.0896     70.9493   5.6234981703e+01   2.4137598107e+01    0.3410838    0.2125825 -25.54  0.001034295    1.745    0.427
        73  -7.8244    193.2320    232.6405   9.4427788124e+01  -1.5935838284e+00       0.1058   0.09703331  72.97 0.0002532055    1.580    0.367
        74  -8.3594      2.2975     72.6422   1.1641257675e+02   6.0274237696e+01    0.1150803   0.08170114  80.08 0.0007034505    1.704    0.413
        75  -9.5305    207.7589     64.7355   5.4141990813e+01   2.4476589425e+01    0.4690046    0.2799866 -33.11  0.002107244    1.635    0.388
        76  -9.8620     15.2112    177.6049   1.2481232515e+02   3.5208295062e+01    0.3018948    0.1662594 -74.57  0.001234864    1.508    0.337
        77 -10.1674    226.0001     58.9778   5.0039560960e+01   2.1004551285e+01    0.3882845    0.3106619  30.16  0.001441627    1.579    0.367
        78  -8.6663     20.7155    162.6577   1.2239272646e+02   3.8071699084e+01     0.189514    0.1279885 -80.63 0.0005707963    1.199    0.166
        79 -10.4099     19.5930    171.8416   1.2342756121e+02   3.6092903146e+01    0.6319458     0.295646  72.47  0.003154632    2.212    0.548
        80  -9.3621    221.5644     39.8902   4.5778875990e+01   2.4741619108e+01    0.2898774      0.17545 -64.33 0.0009037904    1.802    0.445
        81  -8.2295     37.8182     40.1774   9.3003540958e+01   6.4489686923e+01    0.1771323    0.1218182 -21.31 0.0004217343    1.326    0.246
        82  -9.3018    163.6054     35.2133   5.2852740661e+01   3.9913922767e+01    0.1939335    0.1427381 -10.89 0.0005071246    1.604    0.377
        83  -9.2237     19.5500    166.9637   1.2303068103e+02   3.7195887678e+01    0.2613103    0.1856619 -79.15  0.001052552    1.163    0.140
        84  -9.5708     33.5604    173.6287   1.2050404542e+02   3.4331011691e+01     0.384475    0.2610639  74.50  0.001749208    1.313    0.238
        85 -10.8637    204.2143    168.8975   8.0522299041e+01   6.6935214422e+00    0.8178157    0.5228768  -0.84  0.003543433    2.203    0.546
        86  -9.1994    214.9729     26.7403   4.3199533505e+01   2.8002928682e+01    0.1914857    0.1653537 -86.59 0.0003829834    1.069    0.065
        87 -10.0281    135.1539     28.1332   5.6007230733e+01   4.7991724618e+01    0.2194427    0.1812382  34.65 0.0003491933    1.175    0.149
        88  -9.8293    165.9917     19.1309   4.7415133785e+01   4.1207736528e+01    0.2183591    0.2022406 -30.64 0.0002918789    1.173    0.148
        89  -9.0057    175.0209    231.6846   9.7782721071e+01   1.5064176927e+00    0.1769028    0.1690503  37.31 0.0003127876    1.224    0.183
        90  -9.6554    139.6212    247.9739   1.0678653892e+02   4.7049175575e+00    0.3772799    0.2139955  27.94  0.001539101    1.921    0.480
        91  -9.2260    133.4235    248.0894   1.0796763367e+02   5.6504600023e+00    0.2401529    0.1606303  37.12 0.0006623188    1.270    0.212
        92  -9.9456     57.3238    245.6851   1.2168493890e+02   1.6885470952e+01    0.4289879    0.1894632 -66.89   0.00245265    2.405    0.584
        93  -9.4502    177.9522    226.9862   9.6494216421e+01   1.7367507073e+00    0.3461724    0.2190559 -16.94  0.001335402    2.210    0.548
        94 -10.4437    191.8636    153.1812   7.9620598821e+01   1.2045623309e+01    0.8271942    0.3056236 -43.31  0.002865809    2.758    0.637
        95 -10.6098    187.9053    152.1800   8.0229760029e+01   1.3057790199e+01    0.5610164    0.2826801 -46.51  0.001603355    2.120    0.528
        96 -10.5000     60.2049    232.0155   1.2014369554e+02   1.9008836398e+01    0.2839718    0.1458865  40.48  0.000716961    1.750    0.429
        97  -8.8537    184.7237    228.2689   9.5375340374e+01   4.2322020212e-01    0.2704426    0.2445866 -38.36  0.001818237    1.364    0.267
