#   1 NUMBER                 Running object number                                     
#   2 MAG_AUTO               Kron-like elliptical aperture magnitude                    [mag]
#   3 X_IMAGE                Object position along x                                    [pixel]
#   4 Y_IMAGE                Object position along y                                    [pixel]
#   5 X_WORLD                Barycenter position along world x axis                     [deg]
#   6 Y_WORLD                Barycenter position along world y axis                     [deg]
#   7 A_WORLD                Profile RMS along major axis (world units)                 [deg]
#   8 B_WORLD                Profile RMS along minor axis (world units)                 [deg]
#   9 THETA_WORLD            Position angle (CCW/world-x)                               [deg]
#  10 FWHM_WORLD             FWHM assuming a gaussian core                              [deg]
#  11 ELONGATION             A_IMAGE/B_IMAGE                                           
#  12 ELLIPTICITY            1 - B_IMAGE/A_IMAGE                                       
         1 -13.7178    231.6364      3.8101   4.9070202072e+01   2.7168346036e+01     1.086921    0.3646884  56.90  0.004719277    4.077    0.755
         2 -14.9596    220.5154     78.4240   6.6706201244e+01   2.0501100546e+01      2.52212    0.6027601 -48.21  0.007009191    5.868    0.830
         3 -18.4767    241.8727     47.2424   5.7736394099e+01   2.0482458259e+01     5.727231     4.296548 -32.70    0.0235617    1.257    0.204
         4 -15.1699    221.5801     22.8445   5.3844238421e+01   2.7264926223e+01      1.20676    0.6166374 -19.52  0.004483296    2.487    0.598
         5 -10.3588    182.7113     25.9785   5.7822612828e+01   3.5607013997e+01     0.765133    0.3138298 -45.54  0.003341208    2.168    0.539
         6 -10.1426    181.8427      3.6531   5.1861707162e+01   3.8096620083e+01     0.280379    0.2088368  86.40  0.001042708    1.211    0.174
         7 -11.4729    171.6355      3.7320   5.2641210676e+01   4.0562957791e+01    0.9202833    0.3948401  74.67  0.004124919    2.081    0.520
         8 -12.1987    162.9566     18.8390   5.7851346398e+01   4.1253522820e+01       1.0068    0.5177097  32.68  0.001377894    3.502    0.714
         9 -11.5887    166.9438     11.7369   5.5344985224e+01   4.0974447183e+01    0.5956236    0.5660201  32.98  0.003082996    1.313    0.238
        10 -10.4863    125.7045     14.4462   6.1285228108e+01   5.1398240602e+01    0.3443968    0.2573285  88.44  0.001292764    1.265    0.209
        11 -12.1819    119.0065      9.9075   6.0632672708e+01   5.3606356627e+01    0.7449152    0.5670919  64.87  0.002717793    1.170    0.145
        12  -9.8582     92.8170      7.8160   6.4726817084e+01   6.0666256663e+01    0.1837308    0.1769252  62.91  0.000293424    1.097    0.089
        13  -9.8313    170.0166     19.8414   5.7393208684e+01   3.9378990489e+01    0.3172415    0.2207899 -10.69  0.001512562    1.886    0.470
        14  -8.5354    153.4508    171.4892   9.9225747807e+01   1.7462148619e+01     0.141018    0.1253035  10.04 4.724833e-05    1.037    0.036
        15 -11.6356    247.9532    249.7638   9.4448702736e+01  -6.0010957906e+00    0.5940054    0.3851863  -6.15  0.003597596    1.121    0.108
        16 -10.3015    242.3806    247.1642   9.4937138322e+01  -5.2024050991e+00     0.182229    0.1212035  -9.10 0.0005989698    1.159    0.137
        17 -10.3390      5.0528    250.0297   1.4252133856e+02   2.1603428618e+01    0.5141598    0.1652261  22.41  0.002369199    3.177    0.685
        18  -9.2853    153.9510    167.9966   9.8452987973e+01   1.8034805755e+01    0.2570277    0.1999723 -60.29 0.0005335146    1.635    0.389
        19 -10.4386    200.4708    169.0981   8.9187623246e+01   1.0101000132e+01    0.2231925    0.2015532   4.47 0.0003355501    1.127    0.113
        20 -10.4406    199.8609    164.3253   8.8383212788e+01   1.0948731108e+01    0.3611843    0.2880241  80.63  0.001770416    2.345    0.574
        21 -13.2031     24.2900    162.0004   1.3371414427e+02   3.8728317002e+01    0.9094254    0.7792437  64.99  0.003791407    1.028    0.027
        22  -9.4253    204.0383    161.6159   8.7109064355e+01   1.0711148989e+01    0.3403128    0.2502607 -69.92  0.001716001    2.632    0.620
        23 -10.2970    157.7358    161.0165   9.6242662392e+01   1.8688382348e+01    0.3929084    0.2534112 -39.28  0.001373372    1.591    0.371
        24  -9.5183    188.5238    157.5611   8.9162949948e+01   1.3917601994e+01    0.2557031    0.2029091 -88.23 0.0008624976    2.248    0.555
        25  -8.9821    146.2856    156.9843   9.8073818042e+01   2.1544763814e+01    0.1928236    0.1820476 -13.16 0.0002043249    1.070    0.066
        26  -8.8348     91.2267    157.2336   1.1276234978e+02   3.1246139801e+01    0.2040824    0.1643717  66.26 0.0005875459    1.347    0.258
        27  -9.2774    248.1361    195.8005   8.6132486471e+01  -2.9358563285e-02    0.1586093    0.1017697  -6.45 0.0009042957    1.344    0.256
        28  -8.7212     86.0125    156.2650   1.1413455720e+02   3.2318345772e+01    0.2029908    0.1778399  34.82  0.000280958    1.083    0.076
        29  -9.6109    155.8956    153.9094   9.5222073719e+01   2.0379806772e+01      0.25223    0.1931444  56.73 0.0005050743    1.561    0.359
        30  -9.0226    152.3217    150.6938   9.5372952620e+01   2.1669735809e+01    0.2234862    0.1844046 -60.97 0.0004517926    1.453    0.312
        31 -10.7954    149.5230    147.4771   9.5346987193e+01   2.2834302806e+01    0.3726614    0.2687271 -57.74  0.001539478    1.655    0.396
        32  -8.6082    198.4953    153.4475   8.6481860690e+01   1.2915543258e+01    0.1329118    0.1143567  -6.07 2.928273e-05    1.049    0.047
        33  -9.7870    190.4708    149.3653   8.7126383412e+01   1.4960791881e+01    0.3577908     0.231161 -66.38  0.001516512    3.079    0.675
        34  -8.6509    220.2869    151.9827   8.2489214725e+01   9.6328964186e+00    0.1685044    0.1323519 -23.50 0.0002070991    1.098    0.089
        35 -11.8215     50.8115    150.0097   1.2414317975e+02   3.8901545977e+01    0.4147277    0.3636717  28.14 0.0009154452    1.168    0.144
        36 -13.9324     62.9924    144.3782   1.1937682673e+02   3.8728557149e+01       1.9356     1.424356   1.93  0.004297014    1.740    0.425
        37  -9.9332    176.4169    149.1406   8.9824278140e+01   1.7502470648e+01    0.2606763    0.2002051  49.76  0.001399119    1.459    0.315
        38 -10.0329    136.9340    141.8510   9.7190842254e+01   2.6411497199e+01    0.2769863    0.2410316 -11.23 0.0008907198    1.241    0.194
        39 -10.3372    133.6648    145.6096   9.8822820906e+01   2.6250577060e+01    0.8213275    0.2450983 -53.58  0.002283446    4.594    0.782
        40 -10.1198    132.6754    137.4214   9.7298837894e+01   2.8185363976e+01    0.3942773    0.2045521 -45.76  0.001092787    1.994    0.498
        41 -10.8787    141.9591    146.7316   9.6996475834e+01   2.4428526365e+01    0.4443564    0.3355578 -15.98  0.002162131    1.584    0.369
        42 -12.1463    188.6792    138.7666   8.5228082551e+01   1.7079962321e+01    0.6231794    0.3901676  36.81  0.002082077    1.665    0.399
        43  -9.1567    192.1104    143.9652   8.5696028275e+01   1.5580871947e+01    0.1999394    0.1872154 -17.68 0.0004727528    1.090    0.083
        44 -10.0201    162.3339    138.6490   9.0530251697e+01   2.2086960663e+01    0.2551723    0.1703555 -51.28 0.0006669951    1.661    0.398
        45 -11.0616    210.4735    135.5875   8.0745851641e+01   1.3736922178e+01    0.4367463    0.3872776 -84.67   0.00211913    1.560    0.359
        46 -10.4656    200.9084    134.5096   8.2119143408e+01   1.5581045115e+01    0.2291279    0.2096222 -59.05 0.0007168858    1.303    0.233
        47 -12.5423    160.1485    128.9785   8.8819118725e+01   2.4371241158e+01    0.9876709    0.5528983  28.24  0.003970815    2.332    0.571
        48 -13.5916    184.6591    121.7176   8.2184421012e+01   2.0783864330e+01     1.235998    0.9913228  76.87   0.00660215    1.652    0.395
        49 -11.7162    134.7856    110.1637   9.0189799668e+01   3.3511462516e+01     1.192269    0.2443203 -43.80  0.002973548    4.964    0.799
        50 -10.6708    133.1860    100.3757   8.7985330393e+01   3.5879070201e+01    0.3933721    0.2952524 -85.51  0.001199274    1.826    0.452
        51  -8.9360    200.0515    188.2905   9.2779030621e+01   7.2247531518e+00    0.1741577    0.1384237  19.65 0.0004889154    1.162    0.140
        52  -9.5065    243.6351    186.5203   8.5229892017e+01   1.6554239587e+00    0.1938157    0.1527649 -40.77 0.0006674306    1.678    0.404
        53 -10.5322    244.1752    181.8295   8.4336765270e+01   2.1861647917e+00    0.2766122    0.1947015  38.95  0.001561059    1.770    0.435
        54 -11.8796    203.5018    126.7106   7.9996456211e+01   1.6378527017e+01    0.5323316    0.3227305 -53.99  0.002538754    2.064    0.516
        55 -11.4032    205.8665    122.8446   7.8764306252e+01   1.6568118873e+01     0.334729    0.3101703  30.08  0.002134702    1.168    0.144
        56 -10.2035    231.1318    181.3519   8.6248016021e+01   3.9150721959e+00      0.20819    0.1466959 -30.18 0.0003902636    1.315    0.240
        57  -9.1130    191.4578    181.7782   9.3220869073e+01   9.4976368829e+00    0.2138444    0.1190327 -42.98 0.0008536832    1.933    0.483
        58 -11.3800    190.6320    131.7015   8.3330693539e+01   1.7923581340e+01    0.4197932    0.2514844  54.45  0.001640356    1.999    0.500
        59 -10.5083    154.2105    125.7503   8.9388479443e+01   2.6213019815e+01     0.317719    0.2111171 -47.26  0.001227428    1.549    0.355
        60  -9.6445    143.3044    122.8249   9.1247056815e+01   2.9072251753e+01    0.3136477    0.1765322  57.05  0.001236166    2.160    0.537
        61 -11.3545    163.0437    120.9124   8.6293833598e+01   2.5314108144e+01    0.3618907    0.3312952 -64.24 0.0004470104    1.199    0.166
        62 -12.3613    167.4216    114.4121   8.3809813970e+01   2.5610031283e+01    0.8870067    0.5339395  43.95   0.00339976    1.706    0.414
        63 -11.5384    136.8343    128.2475   9.4140785092e+01   2.9292293156e+01    0.7431798    0.3989103 -54.32  0.002941726    2.164    0.538
        64 -12.0072    126.2839    110.6256   9.2533674658e+01   3.5270292317e+01    0.7489598    0.5064148 -53.89  0.003239837    1.593    0.372
        65 -12.3614    122.6509    102.6366   9.1391946242e+01   3.7772930894e+01    0.6808409    0.5548458  67.99  0.003288894    1.360    0.265
        66  -9.3589    197.2034    180.0388   9.1824578883e+01   8.8989615497e+00     0.259866    0.1637605 -14.48  0.001385224    1.718    0.418
        67  -9.9392    135.0186    119.9927   9.2616255217e+01   3.1407718438e+01    0.3389754    0.2127656 -48.75 0.0009941651    1.655    0.396
        68 -10.9728    118.2473    109.5206   9.4465401925e+01   3.7245032323e+01    0.2926445    0.2186961 -47.45 0.0007085659    1.376    0.273
        69 -12.3402    117.0189     91.6761   8.9867243992e+01   4.1352111786e+01    0.8996451    0.7734357  -7.72  0.004438216    1.389    0.280
        70 -10.2224    145.5101    104.5591   8.6103587489e+01   3.2263756776e+01    0.2641064    0.2505619  40.60 0.0005598798    1.057    0.054
        71  -9.5456    163.6076    102.8624   8.1702219230e+01   2.8554139694e+01    0.2355473    0.1946677  37.24 0.0003518877    1.278    0.218
        72 -11.0956    154.0830    100.3229   8.3048897007e+01   3.1150887718e+01    0.5099728    0.3259677  39.98  0.002279829    1.680    0.405
        73 -11.8457    167.8030     94.9800   7.8830584448e+01   2.9035050557e+01     0.652535    0.6191574 -14.55  0.001973802    1.107    0.096
        74 -10.4060    174.3257     90.9435   7.6564099252e+01   2.8273636841e+01    0.2542262    0.2187104  60.56 0.0002922104    1.208    0.172
        75 -10.6542    138.5993     95.3272   8.5246924885e+01   3.5649148746e+01    0.3782759    0.3278299  73.61 0.0007864495    1.235    0.191
        76 -10.9853    151.4808     92.0617   8.1388914946e+01   3.3287612666e+01    0.3068082    0.2670096 -46.26 0.0004678133    1.141    0.124
        77  -9.9712    126.4737    116.0174   9.3863518032e+01   3.4070335780e+01    0.2772804    0.2242282 -67.54 0.0006363643    1.426    0.299
        78  -9.6523    107.0768     82.7316   9.0089002576e+01   4.5481178795e+01     0.219427    0.1961402  47.11   0.00035599    1.085    0.078
        79  -9.6827    126.6983     75.8078   8.2437575782e+01   4.2219769673e+01    0.2894059    0.1876768 -44.92  0.001065508    1.580    0.367
        80  -9.7212    125.4549     69.5289   8.0755479856e+01   4.3676276520e+01     0.319613    0.1510432 -39.02  0.001207538    2.174    0.540
        81 -10.0191    130.9962     66.2237   7.8343578093e+01   4.2888351334e+01    0.2693094    0.2247663 -41.20 0.0008721079    1.234    0.190
        82 -11.7459      7.1901    149.8997   1.3814004738e+02   4.3142317612e+01    0.7431459    0.3608996  20.12  0.003515942    2.139    0.533
        83 -10.4384    121.5418     60.9110   7.8886484828e+01   4.6163878292e+01    0.3320518     0.242163  42.39  0.001563533    1.422    0.297
        84 -10.1006    154.5055     57.7504   7.0860342107e+01   3.8377035553e+01     0.341496    0.2087954 -62.60  0.001476769    1.946    0.486
        85 -10.9380    104.5058     50.9575   7.9899899346e+01   5.2087404535e+01    0.3027266    0.2815029 -70.75  0.001140694    1.136    0.119
        86 -11.8463    122.1699     38.6388   7.0880003709e+01   4.9460705811e+01    0.5155242    0.4987434  -4.91  0.002919605    1.166    0.143
        87 -11.1925    110.7347     39.6152   7.3901527576e+01   5.2279190401e+01    0.4110289    0.2148785 -41.43  0.001721646    2.013    0.503
        88  -8.8188    165.5574     40.5051   6.3964611207e+01   3.8044775872e+01     0.246912    0.1294407  84.41 0.0007316396    2.257    0.557
        89  -9.1637    177.5885     34.5072   6.0720392136e+01   3.5840324184e+01    0.3750063    0.2491658   8.15  0.001607607    2.536    0.606
        90  -9.4851    159.6182     36.1052   6.3480328679e+01   4.0100054922e+01    0.2446151    0.1801025 -87.10 0.0006223776    1.344    0.256
        91 -12.6535     12.4055    172.1934   1.3786880331e+02   3.7272221130e+01     1.066391    0.6709026  63.07  0.005895908    1.410    0.291
        92 -10.5324    223.2061    191.9529   8.9383460066e+01   3.5242810106e+00    0.1874382    0.1458991  13.05 0.0003650867    1.165    0.141
        93 -10.2421    176.9511     25.5837   5.8301459647e+01   3.7042222125e+01    0.4391382    0.3119898 -78.02  0.001366037    1.330    0.248
        94 -10.6182    112.6167     29.6160   6.9568896429e+01   5.3144799630e+01    0.2476792    0.2383828  13.60  0.000680415    1.164    0.141
        95 -10.1374    135.8825    232.8219   1.1266790958e+02   9.3694086646e+00    0.2013958     0.178583  -4.49 0.0003710486    1.216    0.177
        96  -9.1283    245.0996    203.9465   8.7931540573e+01  -6.6477959320e-01    0.1561507    0.1266984 -15.12 0.0006648814    1.283    0.221
        97 -14.8007    209.9662     76.0460   6.7441840336e+01   2.2941957860e+01      1.59508     0.788879 -45.84  0.005732968    1.841    0.457
        98 -10.2233    192.3094    193.9337   9.5206575430e+01   7.4927428795e+00    0.7616208     0.397841 -59.05  0.002446583    6.837    0.854
        99 -11.2631    198.1443    174.3688   9.0605112320e+01   9.6369680222e+00    0.4345453    0.2455795  54.55  0.001954089    3.006    0.667
       100 -10.6186    241.8086    173.8825   8.3284296529e+01   3.5165203990e+00    0.3009009    0.2427232   4.48 0.0008910511    1.149    0.130
       101  -8.9284     86.8641    171.6794   1.1631672550e+02   2.8555362777e+01     0.198852    0.1641126  39.74 0.0004917607    1.092    0.084
       102 -10.0127    249.1559    176.4611   8.2670790422e+01   2.2544695389e+00    0.2215333    0.1740856  10.18 0.0007880916    1.224    0.183
       103 -10.3539    202.2511    176.4070   9.0233815582e+01   8.6976842716e+00    0.2640954    0.1614599  37.23  0.001236947    1.662    0.398
