#   1 NUMBER                 Running object number                                     
#   2 MAG_AUTO               Kron-like elliptical aperture magnitude                    [mag]
#   3 X_IMAGE                Object position along x                                    [pixel]
#   4 Y_IMAGE                Object position along y                                    [pixel]
#   5 X_WORLD                Barycenter position along world x axis                     [deg]
#   6 Y_WORLD                Barycenter position along world y axis                     [deg]
#   7 A_WORLD                Profile RMS along major axis (world units)                 [deg]
#   8 B_WORLD                Profile RMS along minor axis (world units)                 [deg]
#   9 THETA_WORLD            Position angle (CCW/world-x)                               [deg]
#  10 FWHM_WORLD             FWHM assuming a gaussian core                              [deg]
#  11 ELONGATION             A_IMAGE/B_IMAGE                                           
#  12 ELLIPTICITY            1 - B_IMAGE/A_IMAGE                                       
         1 -15.0350    166.5709     46.2094   7.1661631631e+01   3.7845692751e+01     1.497575     1.177776  -7.76   0.00407792    1.357    0.263
         2 -15.2599    185.0233     12.9878   5.7395794493e+01   3.7065957378e+01     2.480278     1.548126  66.76  0.007552609    1.571    0.363
         3 -10.7338    163.5344    247.9847   1.1316250704e+02   7.7399611491e+00    0.1172271    0.1047336 -46.67  0.001028425    1.584    0.369
         4 -19.9019     70.5546    165.9598   1.2077117847e+02   3.3348971046e+01     14.03532     6.141977 -70.76   0.07366232    2.325    0.570
         5 -13.6211    148.9023    179.6750   1.0717200154e+02   1.9009394814e+01    0.6366324    0.3939777  44.31  0.002126671    1.371    0.271
         6 -14.5818    142.0571    170.8844   1.0714928042e+02   2.1594261917e+01    0.8956323     0.527652  61.83  0.002750595    1.951    0.487
         7 -13.8247    138.1049    172.2441   1.0812357720e+02   2.2049371903e+01    0.6786131    0.4175074  72.67  0.003381093    2.356    0.575
         8 -10.0966    120.7308    196.9424   1.1466901992e+02   2.0882935218e+01    0.1465966    0.1154015  59.46 0.0004178069    1.066    0.062
         9 -10.6599    113.0399    195.8383   1.1593525211e+02   2.2216074153e+01    0.2957566    0.2188799  -6.00  0.001672757    2.944    0.660
        10 -10.5659    160.1676    236.0804   1.1242181581e+02   9.5673901190e+00    0.1529704    0.1160662  36.42 0.0004833869    1.185    0.156
        11 -11.9579     36.3049    186.4945   1.2901250961e+02   3.3534335621e+01    0.2169781    0.1921473  17.17 0.0005884776    1.839    0.456
        12 -10.5972    135.4672    240.6479   1.1678643295e+02   1.2633550226e+01    0.1735638    0.1027593  38.34 0.0008793634    1.471    0.320
        13 -10.8163    134.8391    236.6145   1.1649857643e+02   1.3223242233e+01    0.1450383   0.09234282  51.68  0.001045579    1.188    0.158
        14 -10.7781    107.5430    183.7387   1.1555161788e+02   2.5020539022e+01    0.2587818    0.1344952  42.99 0.0009287152    1.689    0.408
        15 -11.8268    185.5066    169.0234   9.8628094708e+01   1.4024826628e+01     0.332425    0.2586383 -49.52  0.001117385    1.594    0.373
        16 -13.2003    189.2896    178.5091   9.9580517973e+01   1.2020108999e+01    0.4405751    0.3323947  56.33  0.001268402    1.421    0.296
        17 -11.8963    188.3912    174.1858   9.9005212950e+01   1.2771823302e+01    0.2876452    0.2450537 -69.19   0.00118317    1.628    0.386
        18 -11.6144    225.3176    176.6292   9.3063221493e+01   5.7840306160e+00    0.1970033    0.1466986 -37.00  0.001227757    1.666    0.400
        19 -11.8127    203.4494    174.2052   9.6342716673e+01   1.0015838538e+01    0.3812656    0.1917455 -52.25  0.001633935    3.610    0.723
        20 -12.3504    195.4128    172.8106   9.7510972894e+01   1.1671043829e+01    0.3637407    0.2888562 -60.70  0.001738661    1.804    0.446
        21 -10.8025     11.7815    174.0245   1.3267657376e+02   3.8057006810e+01    0.1297883   0.09976067 -83.68 0.0003857472    1.295    0.228
        22 -11.3736    207.7046    171.6451   9.5145705923e+01   9.5656641498e+00    0.3176839    0.1929779 -50.89   0.00122308    2.485    0.598
        23  99.0000     13.6453    239.6497   1.3511258475e+02   2.7316557915e+01    0.1993686   0.06346153 -89.47  0.001230608    3.109    0.678
        24 -10.2798    151.9144    238.0493   1.1393789942e+02   1.0561698865e+01     0.191751   0.09457621  30.03   0.00103637    2.621    0.618
        25 -11.6666    229.9957    166.5815   9.0437664021e+01   6.1143649562e+00    0.3083633    0.1451014 -47.08  0.001272384    3.790    0.736
        26 -11.8748    218.1709    220.1935   1.0121832609e+02   2.3188399417e+00    0.2480419    0.1489038 -43.35   0.00136292    2.479    0.597
        27  -9.9477     11.3420    166.2769   1.3234170346e+02   3.9502370675e+01   0.08614886    0.0710893 -61.35 0.0007003283    1.622    0.383
        28 -11.4804     23.2175    218.8845   1.3291243120e+02   2.9498809366e+01    0.2274531     0.116419 -69.98  0.001704156    2.116    0.527
        29 -10.4887     18.3844    220.9299   1.3373513710e+02   2.9644022108e+01    0.1148688   0.06946128 -88.81  0.000952005    1.455    0.313
        30 -12.2632    188.8106    154.3785   9.5315570688e+01   1.5513918203e+01    0.5153755    0.3847219  41.56  0.002432959    1.184    0.156
        31  -9.9594    177.8692    156.1259   9.7706285565e+01   1.7371350273e+01    0.1730843    0.1400037  24.57 0.0002529233    1.241    0.194
        32 -10.7963    119.4844    212.4262   1.1659845756e+02   1.8734123963e+01    0.1115233   0.08441934  54.88 7.936219e-05    1.023    0.023
        33 -12.5612    164.5468    152.8687   9.9676352684e+01   2.0443523710e+01    0.3295738    0.2832722  52.28   0.00132112    1.104    0.095
        34 -11.4412    174.4212    148.7150   9.6953366599e+01   1.9195753022e+01    0.2909721    0.2526294  84.90  0.001143468    1.432    0.302
        35 -10.9175      1.6286    140.0208   1.3274324708e+02   4.5235846214e+01    0.1504725    0.1014456  80.45 0.0004494931    1.109    0.098
        36 -12.5795      6.3151    138.8651   1.3169469619e+02   4.5120427065e+01    0.3836536    0.3077415 -78.09  0.002958206    1.263    0.208
        37 -12.0038     11.2919    137.9871   1.3058213545e+02   4.4914572285e+01    0.2317207    0.1540745  31.58  0.001468014    1.845    0.458
        38 -12.7163    160.4902    127.6816   9.5445366819e+01   2.5503079284e+01    0.4509332    0.3458835 -68.78  0.002338641    1.671    0.401
        39 -12.3298    208.0927    210.3427   1.0139533515e+02   4.9398463730e+00    0.1926566    0.1752836 -25.65  0.001489246    1.433    0.302
        40 -12.7286      2.9129    127.0199   1.3163580756e+02   4.7717516785e+01    0.4317403    0.1936241 -83.87  0.002617446    1.754    0.430
        41 -10.7132     16.3248    209.1852   1.3356632558e+02   3.1676347937e+01     0.107379   0.06076738 -61.75 0.0007809536    2.328    0.570
        42 -12.7701      7.0950    120.3723   1.3019729215e+02   4.8773379837e+01    0.2898123     0.176827 -88.51  0.001133969    1.273    0.215
        43 -11.0056    231.2674    113.7120   7.8970363892e+01   1.2536739512e+01    0.2571847    0.2128567  20.91 0.0007685191    1.118    0.106
        44 -10.8991    168.1360    113.1227   9.0530294628e+01   2.6427781079e+01    0.3673847    0.2505714 -83.03  0.001427083    2.675    0.626
        45 -12.9912     11.6289    205.9792   1.3417391984e+02   3.2618483678e+01    0.2913206    0.1703428  40.80  0.002023803    1.709    0.415
        46 -10.1466    142.9653    208.4892   1.1210666656e+02   1.5728237276e+01    0.1744447    0.0892528  46.87  0.001004613    1.539    0.350
        47 -10.9265    205.3838    110.1116   8.2544716620e+01   1.8675250736e+01    0.3172938    0.2051685  43.98  0.000939968    1.474    0.322
        48 -11.1829    113.2724    207.7542   1.1718502943e+02   2.0335144232e+01     0.156544    0.1228227  77.16 0.0006311205    1.265    0.210
        49 -12.8977    105.7707    203.1727   1.1802738028e+02   2.2121319168e+01    0.5198771     0.299892  64.08  0.003204186    1.708    0.415
        50 -12.8881    103.7745    196.3019   1.1766590177e+02   2.3498773032e+01    0.4489631    0.2388662  72.40  0.002363109    2.517    0.603
        51 -11.1851      9.2249    102.0531   1.2805325488e+02   5.2432695535e+01    0.2385438    0.1792907  73.11  0.001022328    1.240    0.194
        52 -11.4346    125.3046    237.2268   1.1806835724e+02   1.4502538890e+01    0.1351845    0.1100685 -84.46 0.0005944362    1.489    0.328
        53 -10.7710    146.1001     82.1046   8.7293690329e+01   3.6846022458e+01    0.2248347    0.1999979  10.65 0.0003913198    1.213    0.176
        54 -12.6866    152.3806    194.3899   1.0863421595e+02   1.6214284677e+01    0.6722506    0.5797843  29.61  0.004780846    1.230    0.187
        55 -14.4447    154.5480     60.4072   7.8802106144e+01   3.8648706278e+01     1.270811     1.131076  21.90 0.0009561151    1.147    0.128
        56 -11.1733    108.3900    249.3916   1.2171409241e+02   1.5261722922e+01   0.09650738    0.0695167  51.08 0.0002972494    1.089    0.082
        57 -13.2449    171.1946     38.0637   6.8063253202e+01   3.7787028799e+01    0.4528001    0.4423044 -33.50 0.0008539095    1.063    0.059
        58 -13.2322    153.7197    184.8764   1.0704338330e+02   1.7389938232e+01    0.4524193    0.2994616  47.84  0.001779838    1.267    0.211
        59 -10.9480     13.4998     59.9647   1.2114285134e+02   6.1165953276e+01    0.1789783    0.1448623  69.26 0.0004358266    1.405    0.288
        60 -13.8482    140.4568    163.3188   1.0627227167e+02   2.3134874066e+01     0.836082    0.4018593  62.24 0.0005496004    3.223    0.690
