#   1 NUMBER                 Running object number                                     
#   2 MAG_AUTO               Kron-like elliptical aperture magnitude                    [mag]
#   3 X_IMAGE                Object position along x                                    [pixel]
#   4 Y_IMAGE                Object position along y                                    [pixel]
#   5 X_WORLD                Barycenter position along world x axis                     [deg]
#   6 Y_WORLD                Barycenter position along world y axis                     [deg]
#   7 A_WORLD                Profile RMS along major axis (world units)                 [deg]
#   8 B_WORLD                Profile RMS along minor axis (world units)                 [deg]
#   9 THETA_WORLD            Position angle (CCW/world-x)                               [deg]
#  10 FWHM_WORLD             FWHM assuming a gaussian core                              [deg]
#  11 ELONGATION             A_IMAGE/B_IMAGE                                           
#  12 ELLIPTICITY            1 - B_IMAGE/A_IMAGE                                       
         1 -15.5944      6.3178     69.2918   1.1701905404e+02   6.0439400857e+01     2.126255    0.9938148 -66.01   0.00918726    1.622    0.384
         2 -12.7841    120.0656     26.4592   6.3268610714e+01   5.1954503111e+01    0.9998725    0.5926763  21.63   0.00433871    2.096    0.523
         3 -14.7453    119.7233     54.6554   7.3925129693e+01   4.7840895439e+01     0.996259    0.8367566  29.16  0.001659087    1.193    0.162
         4 -13.0053    139.1022     22.2268   5.7416097608e+01   4.7856704203e+01    0.7895319    0.3700596  55.94  0.001927469    1.928    0.481
         5 -14.8838    119.7656     38.0975   6.7824827932e+01   5.0451448801e+01     1.925642    0.7288544  47.08  0.007089896    2.509    0.601
         6 -14.6950    166.6872     30.2073   5.5024686227e+01   3.9850766737e+01     1.214863     1.083588  77.27  0.004169906    1.126    0.112
         7 -15.5824    212.1149     41.0002   5.1400186056e+01   2.6709433681e+01     2.855822     1.492669  67.57   0.01228181    1.956    0.489
         8 -13.7288    188.7070     25.6777   5.0194564033e+01   3.4657040071e+01     1.778276    0.6521317 -54.42  0.005193722    4.504    0.778
         9 -14.1240    190.1472     16.2691   4.7214214862e+01   3.5348093890e+01     2.068759     1.084355 -74.48   0.00811931    2.666    0.625
        10 -14.6922     42.1329      6.5757   8.0105578528e+01   6.9068092160e+01     1.572693    0.9311641  -2.05  0.008814555    1.794    0.443
        11 -13.4524      2.9424     10.5267   1.0174103755e+02   7.2318072091e+01    0.7082158    0.2683692 -51.62  0.003779906    2.144    0.534
        12 -12.9047      7.8427      2.6399   9.5395116169e+01   7.3266857205e+01    0.5173118     0.373819  28.94  0.002693226    1.854    0.461
        13 -15.0912      8.6237     29.2649   1.0595332076e+02   6.8592793531e+01      1.05241    0.7117206  14.98  0.007214412    1.757    0.431
        14 -15.3056     13.7735     19.6487   9.9910087065e+01   7.0006784181e+01     1.022678    0.8152166 -29.15  0.007562707    1.106    0.096
        15 -14.5490     23.6462     13.9737   9.2533462409e+01   7.0123105442e+01    0.7188131     0.423431  24.58  0.002954642    1.871    0.465
        16 -13.6183    215.1254      9.9345   4.2658952492e+01   2.9675158350e+01     1.072303    0.5305239  48.29  0.002414534    2.315    0.568
        17 -12.9353     71.9189     16.6137   7.3247656442e+01   6.3129567039e+01      0.72947    0.3454257 -23.05   0.00232427    2.097    0.523
        18 -14.8085    147.3524     30.4022   5.8680277656e+01   4.4800085669e+01     1.590207    0.8731228  59.03  0.004976524    1.737    0.424
        19 -12.0102     46.3558     21.1745   8.5395105569e+01   6.6414924787e+01    0.3651097     0.263646 -29.21  0.001580326    1.189    0.159
        20 -15.5148     97.9656     12.5816   6.3261441881e+01   5.8508314222e+01     1.713084    0.7799608  49.51  0.003529604    1.992    0.498
        21 -11.4169     60.2233     17.2580   7.7890713980e+01   6.4992456593e+01    0.2908684    0.1682274 -28.73  0.001131617    1.553    0.356
        22 -11.5021    153.1401      8.5278   5.0016973165e+01   4.5718118061e+01    0.2499233    0.2381209 -26.88 0.0006577152    1.137    0.121
        23 -11.2441     59.5702      6.6530   7.2930870499e+01   6.6450197464e+01    0.3101764    0.2331779  62.44  0.001792799    2.191    0.543
        24 -12.9182    223.7825     20.9785   4.4664357919e+01   2.6316669134e+01     1.198204    0.5171762  49.87  0.004351235    2.654    0.623
        25 -11.0145     68.3119      4.6590   6.8726023276e+01   6.5177749534e+01     0.272026    0.1373717 -37.22  0.001333265    2.283    0.562
        26 -11.8894    232.5949      2.2553   3.9178740580e+01   2.6234689195e+01    0.3528554    0.2354949  53.66  0.001882455    1.676    0.403
        27 -11.2503    119.6693      3.6981   5.4317841396e+01   5.4449689277e+01    0.3119946    0.1804111  64.92 0.0009423313    1.713    0.416
        28 -12.2172    116.5875      1.5141   5.4078366242e+01   5.5361649726e+01    0.4472075     0.258398  79.05 0.0005779613    2.290    0.563
        29 -12.0999     78.2083      2.3456   6.4313634541e+01   6.3571918966e+01    0.3292893    0.2587485  27.84  0.001349482    1.104    0.094
        30 -11.1325     83.0146      1.2307   6.2318948571e+01   6.2730796194e+01    0.2733733    0.1164096  54.34  0.001072152    2.283    0.562
        31 -11.1288    183.6209      2.9024   4.4061824413e+01   3.8366224121e+01    0.2834141    0.1858427 -57.86   0.00142842    1.627    0.385
        32 -12.1460     61.8624      2.0321   6.9696655720e+01   6.6582407647e+01    0.3423924    0.1996955  45.29   0.00136323    1.749    0.428
        33 -11.4208    112.1381      1.9408   5.5208983073e+01   5.6363278833e+01    0.2695784    0.2394618  62.88  0.001101478    1.208    0.172
        34 -14.1868    218.5242     15.2002   4.3699653396e+01   2.8265337834e+01     1.113474    0.6790692  32.02  0.005117198    2.368    0.578
        35 -10.9048     28.3082      1.6391   8.3982087076e+01   7.1450890939e+01    0.1917329    0.1262309  10.29  0.001081196    1.426    0.299
        36 -10.8841     54.0147      1.3590   7.2337874352e+01   6.7948772449e+01    0.1619169    0.1031265  35.76 0.0009614041    1.507    0.336
        37 -11.7108    244.3947    147.1913   7.3285545187e+01   2.7905944181e+00    0.2018375    0.1179824 -39.61 0.0009591564    1.719    0.418
        38 -13.1575     57.5168    246.9262   1.2441401596e+02   1.7783762071e+01     0.864406    0.3387838  36.61  0.004565269    2.743    0.635
        39 -11.9666     40.6180    243.7984   1.2693603577e+02   2.0326950778e+01    0.3359639    0.1858495 -87.33  0.002329828    1.651    0.394
        40 -13.5970     27.8650    245.9941   1.2905116135e+02   2.1380436376e+01    0.6522753    0.2976766  79.15  0.004162564    1.948    0.487
        41 -11.7792      2.9185    249.8614   1.3292807423e+02   2.3281175777e+01    0.2767933    0.1272456  49.86  0.001699894    1.631    0.387
        42 -13.8091      8.9845    245.6368   1.3188317655e+02   2.3389624631e+01    0.6853166    0.3166355  59.45  0.003086195    1.516    0.340
        43 -11.9177     77.3389    156.9742   1.1138000261e+02   3.3014757776e+01    0.3950711    0.2786104  37.24  0.001438442    1.554    0.357
        44 -10.4299     38.4132    145.7783   1.1917102386e+02   4.0385049188e+01    0.1727093   0.09547257 -62.19 0.0004830305    1.576    0.366
        45 -11.2798    148.8114    140.9686   9.1142119523e+01   2.3862284874e+01     0.253461    0.1801356 -76.74  0.001090487    1.991    0.498
        46 -10.8918     88.4732    140.4722   1.0590998655e+02   3.5157428910e+01    0.1400883    0.1275613 -80.19 6.780619e-05    1.012    0.012
        47 -12.4867     44.5433    134.3874   1.1617648540e+02   4.2382298635e+01    0.6448228    0.3844723 -74.42  0.003492731    1.458    0.314
        48 -10.7308     81.0613    135.9748   1.0699531070e+02   3.7339973564e+01    0.1980969    0.1774147 -73.38   0.00116682    1.029    0.028
        49 -12.6903    245.5134    134.2945   7.0174809912e+01   4.5721081643e+00    0.3721088    0.2714375 -54.20  0.001896521    1.768    0.434
        50 -10.5736     62.9589    134.4697   1.1143978964e+02   4.0197716132e+01    0.1917693   0.09567385  58.06 0.0008095396    2.534    0.605
        51 -10.4166     11.1557    134.3610   1.2445485352e+02   4.5406794179e+01    0.1431771   0.09639936  50.66 0.0005219083    1.594    0.373
        52 -13.0334    222.5569    127.8666   7.2613269466e+01   1.0313662457e+01    0.3464627    0.2908641 -72.62  0.001786656    1.592    0.372
        53 -11.1324     25.4914    127.0935   1.2009132958e+02   4.5922834416e+01    0.2133782    0.1773076 -70.13 0.0007799448    1.124    0.110
        54 -13.0174     28.3550    122.4625   1.1874523934e+02   4.6749731649e+01    0.4990317    0.2729548 -64.26  0.002758155    1.463    0.316
        55 -12.5635    133.7301    102.7976   8.5336531271e+01   3.5297888013e+01     1.384313    0.3950948  51.14  0.003690985    4.382    0.772
        56 -13.0716    120.7276    102.1048   8.8579269064e+01   3.8183915672e+01    0.7197631    0.3830019  41.14   0.00289793    1.980    0.495
        57 -12.2512     77.1108    117.2346   1.0442014535e+02   4.2344970874e+01     1.044338    0.4448025 -67.35  0.003759259    2.927    0.658
        58 -13.3017     86.0421    113.5957   1.0111694664e+02   4.1847020872e+01     1.561359     0.967091 -30.08  0.006008596    2.237    0.553
        59 -13.8000    105.7794    121.9271   9.7579407802e+01   3.6568327886e+01     1.508334      1.00524  42.47  0.007152875    1.569    0.363
        60 -14.7513    106.6401    105.7777   9.3425874939e+01   4.0112036698e+01     1.683937     1.443196 -18.53  0.007265746    1.324    0.244
        61 -10.7974     59.7170    125.4021   1.1077714616e+02   4.2749657093e+01    0.1671477    0.1336234  14.87 0.0009519766    1.652    0.395
        62 -12.5693    181.1721    121.1250   7.9064632532e+01   2.0781911808e+01     0.382627    0.2871137  58.02  0.001473587    1.459    0.315
        63 -12.1723      5.2488    119.1435   1.2437133688e+02   4.9262398543e+01    0.5831363    0.4807995 -56.46  0.004270111    1.306    0.235
        64 -14.4988     17.9744    111.1245   1.2002862560e+02   5.0221621862e+01     1.091014    0.8938392 -18.09  0.006771063    1.632    0.387
        65 -13.4851    171.1999    242.9691   1.0426261962e+02   1.6469907499e+00    0.7286691    0.4067883  35.80  0.004211771    1.492    0.330
        66 -13.5011      6.0014     43.9251   1.1148784408e+02   6.5847224905e+01    0.7990674    0.4295008  24.27  0.004848984    2.327    0.570
        67 -13.7633      2.2494     97.1612   1.2264139831e+02   5.4423186887e+01     1.238334    0.3688165 -76.55  0.005111681    2.973    0.664
        68 -14.9510     24.6576     94.8489   1.1560117571e+02   5.3477819511e+01     1.847651     1.184199 -10.93   0.01034897    2.277    0.561
        69 -11.5023     44.8899    110.6708   1.1234234152e+02   4.7932340430e+01      0.47437    0.3176871 -55.75  0.002688477    1.291    0.225
        70 -12.6804     33.1588    111.1024   1.1577098585e+02   4.8976967547e+01    0.4023975    0.2172716 -83.15  0.001986058    1.961    0.490
        71 -12.2506    176.4509    110.8721   7.7412131762e+01   2.3877399083e+01    0.3822635    0.3395543 -11.44  0.001924857    1.178    0.151
        72 -11.2364    121.4190    112.0834   9.1027647493e+01   3.5832820394e+01    0.2746452    0.2046695  53.22 0.0009126167    1.434    0.303
        73 -11.2216     62.0296    110.5115   1.0734835545e+02   4.5989324998e+01     0.270557    0.1961943 -71.49  0.001472705    1.302    0.232
        74 -11.9248    222.5274    109.9541   6.8202570085e+01   1.3369893342e+01    0.2332045    0.2070274  44.21 0.0009629016    1.193    0.162
        75 -11.1272     64.6694    102.2843   1.0482934141e+02   4.7587169579e+01    0.2351437    0.1944983  10.56 0.0005468669    1.499    0.333
        76 -12.0790     61.9049     98.7153   1.0487302233e+02   4.8777524606e+01    0.4723928    0.3532415  69.51  0.001834847    1.675    0.403
        77 -13.0355     52.4389     98.0455   1.0763817740e+02   5.0074732995e+01    0.8101375    0.5125228   0.83  0.003883685    2.538    0.606
        78 -12.2634     49.1672     94.2893   1.0785268068e+02   5.1315278873e+01     0.370815    0.2821922  87.39  0.001297449    1.542    0.352
        79 -11.5625    161.8354     97.7430   7.7064846752e+01   2.9921186251e+01    0.3570822    0.3119822 -23.19  0.001767224    1.170    0.145
        80 -12.6805    137.3828     95.5387   8.2354384784e+01   3.6027926492e+01    0.4187286    0.3769349 -89.08  0.001295814    1.271    0.213
        81 -12.0588    125.3643     92.6833   8.4676836516e+01   3.9249767959e+01    0.3933508     0.299282 -86.02  0.001745145    1.876    0.467
        82 -11.7257     43.2890     91.4325   1.0910195870e+02   5.2598218252e+01    0.4068798    0.2036296 -70.76  0.001420443    2.089    0.521
        83 -12.0736     89.7557     88.1680   9.3614914862e+01   4.7070092654e+01    0.4844104    0.3688615  47.61  0.001979091    1.469    0.319
        84 -12.9657    149.8470     85.0393   7.6166047698e+01   3.5267556613e+01    0.8150016    0.3866615  36.02  0.002752303    2.729    0.634
        85 -14.3604    164.3005     71.2457   6.8649039758e+01   3.4282132808e+01     1.690441    0.6133188  46.28  0.005446943    2.844    0.648
        86 -13.0674    160.0310     68.0397   6.8574328323e+01   3.5909490731e+01    0.8000943    0.4325085 -46.99  0.002194569    2.008    0.502
        87 -13.8825    161.0816     80.4711   7.2178689193e+01   3.3417902238e+01    0.8693162    0.6464933  21.08  0.002673827    1.648    0.393
        88 -15.1354    169.4329     77.3614   6.9418103405e+01   3.1914862244e+01     1.955655     1.054431  61.16  0.007161968    2.097    0.523
        89 -12.1318    127.0323     86.0759   8.2271942623e+01   4.0268695462e+01    0.5109088    0.4402654 -21.41  0.002516229    1.195    0.163
        90 -12.7382    132.0400     85.8155   8.0867480720e+01   3.9219547387e+01    0.4078734    0.3389442 -42.80  0.001297134    1.177    0.151
        91 -13.0980    135.4462     79.9800   7.8191879624e+01   3.9615311702e+01    0.7934321    0.5364231  47.30  0.002510063    1.510    0.338
        92 -13.6707    188.4980     84.2856   6.7577058947e+01   2.5925881582e+01    0.8584715    0.4169097  43.37   0.00238536    2.245    0.555
        93 -11.5291     34.4853     86.5926   1.1092404365e+02   5.4554388201e+01    0.2299363    0.1809546 -46.92   0.00064357    1.159    0.137
        94 -13.6988    237.5283     80.3052   5.8283575898e+01   1.4823182406e+01    0.5500947    0.4165497  80.41  0.002411527    1.605    0.377
        95 -13.6410     58.4616     64.1888   9.6877558492e+01   5.6922155890e+01     1.514988    0.8508135 -23.69  0.003545446    2.378    0.580
        96 -13.1143     90.8565     57.3920   8.3490353023e+01   5.3227944486e+01    0.7395312    0.4982944 -55.02  0.002814658    1.798    0.444
        97 -13.5125     72.9587     75.0597   9.5176287318e+01   5.2604577460e+01     1.268341    0.7383796   7.12   0.00498667    3.183    0.686
        98 -13.2600     87.5890     65.2323   8.7252232784e+01   5.2291937174e+01    0.6499166    0.4497098 -26.42  0.001945889    1.486    0.327
        99 -12.9132     54.8207     82.1685   1.0318542944e+02   5.3448595202e+01    0.5802634    0.3593928 -43.57  0.002340489    1.447    0.309
       100 -13.8257     61.0800     75.3025   9.9242730437e+01   5.4200053231e+01    0.6952832    0.4356555 -38.83  0.001038236    1.487    0.328
       101 -14.6577    198.5354     69.8474   6.1613800694e+01   2.5860490451e+01     1.160892     0.845205  28.27  0.003014958    1.667    0.400
       102 -14.4749    214.1205     79.2184   6.1590906768e+01   2.0485224891e+01     1.139197    0.7205245  82.68  0.004664759    2.307    0.567
       103 -13.5489    217.1221     73.9389   5.9683504457e+01   2.0609234949e+01    0.7439933    0.4701439 -87.72  0.002958711    2.440    0.590
       104 -10.8066     90.2988     81.4371   9.1503437299e+01   4.8450152377e+01     0.292666    0.2030186 -61.88  0.001385858    1.651    0.394
       105 -11.3064     93.9768     79.1056   8.9664840151e+01   4.8304950722e+01    0.4348653    0.2045117  47.89  0.001704482    2.487    0.598
       106 -12.0993    114.0810     80.0480   8.3997104999e+01   4.4246649071e+01    0.4350381    0.3500159 -52.76  0.001148833    1.292    0.226
       107 -10.5328     32.7367     81.0040   1.1031695714e+02   5.5982069258e+01    0.1837889    0.1353988 -60.36 0.0007743396    1.110    0.099
       108 -11.5251     42.5297     77.1426   1.0609020250e+02   5.5929704461e+01    0.2537222    0.2373144   5.00  0.001587457    1.255    0.203
       109 -13.5073    133.3627     67.0458   7.4573518604e+01   4.2544877406e+01     1.060088    0.7651684   2.86  0.003911123    1.819    0.450
       110 -12.1400    240.5206     70.8662   5.5479053847e+01   1.5585806005e+01    0.2905903    0.1942137 -88.23  0.001344317    2.026    0.506
       111 -11.0930    100.6229     70.0309   8.4752114208e+01   4.8948396582e+01    0.2463915    0.2124317  66.21 0.0006661022    1.429    0.300
       112 -11.6263    100.1624     65.1533   8.3264512374e+01   4.9997712268e+01    0.4063205     0.313825 -39.20  0.001386454    1.225    0.184
       113 -12.4228     38.8259     68.1543   1.0510738786e+02   5.8282845930e+01    0.6794187    0.3444495  24.99  0.003430281    2.377    0.579
       114 -14.4684    178.0679     57.8105   6.1730843910e+01   3.3004748354e+01     1.000191    0.8062543 -45.01  0.002447215    1.251    0.201
       115 -13.9445    101.1412     49.3893   7.7347520552e+01   5.2688178895e+01    0.9055646    0.7459269  69.04  0.002307225    1.613    0.380
       116 -14.5536     94.5826    236.6167   1.1728361188e+02   1.4548858919e+01     1.177586    0.6190894  70.15  0.005928795    2.223    0.550
       117 -12.8735    135.4801     50.6981   6.8471031471e+01   4.4842245954e+01    0.6145135    0.3951443  27.47  0.002638791    1.869    0.465
       118 -12.2703    147.3558    239.0236   1.0804684563e+02   6.0493419406e+00    0.2164738      0.14243  57.62  0.000932808    1.503    0.335
       119 -13.5100      9.1126    210.8563   1.3028665547e+02   2.9553207105e+01     1.008918    0.4908346  59.33  0.006667232    1.606    0.377
       120 -11.6629     24.7034    217.2174   1.2799856145e+02   2.6814605957e+01    0.4723966    0.2928364 -89.26  0.003367511    1.321    0.243
       121 -13.0811    131.9690     32.7010   6.2816314029e+01   4.8319953999e+01    0.6013316     0.451666 -18.20  0.002081527    1.372    0.271
       122 -13.6453     25.6373    227.5491   1.2843229338e+02   2.4822467890e+01    0.5767344    0.3057383 -65.91  0.003828421    2.056    0.514
       123 -12.4533     79.5094     60.9769   8.8485711917e+01   5.4502278435e+01    0.4704925    0.4209837   4.28  0.002177214    1.137    0.121
       124 -13.1207     82.0315     54.6858   8.5430024868e+01   5.5295006317e+01    0.7694544    0.5427105  16.72  0.003633482    1.638    0.389
       125 -10.6646     38.9348     60.2645   1.0288720912e+02   5.9966541384e+01    0.2484328    0.1577242 -82.22  0.001167074    2.701    0.630
       126 -11.9092     24.3402     59.4590   1.0821144326e+02   6.1417219079e+01    0.3952443    0.2010639 -57.96  0.002119654    1.570    0.363
       127 -11.9028    248.2041     55.2110   5.0614662259e+01   1.6120633258e+01    0.3680403    0.2923918 -44.44  0.001634918    1.117    0.105
       128 -12.5621    248.1826     49.7284   4.9272585815e+01   1.6884498058e+01    0.5101019    0.3761077  30.66  0.002676871    1.803    0.445
       129 -13.2415     65.9306     48.8217   8.8958909994e+01   5.8954252785e+01    0.4957292      0.47809 -55.49  0.003175626    1.307    0.235
       130 -10.9983     23.8062     49.7878   1.0575951194e+02   6.3485342625e+01    0.3382958    0.1796421 -15.10  0.001300726    2.549    0.608
       131 -11.2030     26.8929     46.2814   1.0343575566e+02   6.3948952511e+01    0.2526507      0.24502  61.19  0.001773905    1.400    0.285
       132 -10.2711     33.1003     49.4872   1.0191013542e+02   6.2754836959e+01    0.1473289    0.1200491   9.64 0.0009648047    1.395    0.283
       133 -13.2779    157.6676     43.6655   6.1151723815e+01   4.0382736792e+01    0.8869836    0.5845867  29.34  0.003894768    1.803    0.445
       134 -12.9439     20.7183    225.2154   1.2911071334e+02   2.5756921556e+01     0.384486     0.309156  53.49  0.002404806    1.401    0.286
       135 -12.6487     57.1908    203.2704   1.2109859310e+02   2.5786504603e+01    0.7808663    0.2902139 -73.38  0.003676625    2.696    0.629
       136 -13.5226     66.5421    223.2131   1.2109467129e+02   2.0776575763e+01    0.6742301    0.5191481  43.57  0.004766569    1.400    0.286
       137 -11.5691     55.6007     41.0607   8.9950856169e+01   6.1838508790e+01    0.2053437    0.1761048   4.60 0.0002933798    1.181    0.153
       138 -11.5022    104.5649     36.7801   7.1481116193e+01   5.3998624267e+01    0.3828214    0.1692986 -27.40  0.001504404    2.349    0.574
       139 -11.3963    104.9948     31.4690   6.9238354188e+01   5.4671660257e+01    0.3799081    0.2762208 -44.09  0.001952915    1.580    0.367
       140 -12.6210     76.0081     37.4807   8.0921609670e+01   5.9356723186e+01    0.3330252    0.2480778  34.09 0.0008432569    1.394    0.283
       141 -11.7559     69.6345     36.5345   8.2825172233e+01   6.0564147857e+01    0.3685527    0.2197239  28.34  0.001221924    1.805    0.446
       142 -12.7273    241.4794     35.8886   4.6592766729e+01   2.0258879687e+01    0.5834897    0.2950255  71.74  0.002148726    2.106    0.525
       143 -14.0779     62.7691    214.5149   1.2103987188e+02   2.2890795080e+01     0.882656    0.4403226  49.06  0.005090622    1.674    0.403
       144 -12.3278     29.5307     32.1845   9.7429170157e+01   6.6431186966e+01    0.6213737    0.3312533   2.46  0.001916594    2.577    0.612
       145 -13.2412     94.6816    218.9717   1.1550026159e+02   1.7629934867e+01    0.3847082    0.2598498  56.26  0.001746188    1.229    0.186
       146 -11.2538     85.5079    216.0005   1.1692572703e+02   1.9514330442e+01    0.2493608     0.133911  55.45  0.001385082    1.613    0.380
       147 -11.4116    185.5937    213.8128   9.7314369699e+01   3.3922852338e+00    0.1628662    0.1238528 -54.60 0.0009542787    1.739    0.425
       148 -10.8882    157.3358    213.6714   1.0271922416e+02   8.3486914706e+00    0.1299513   0.09379783  68.35 0.0007051955    1.726    0.421
       149 -10.8064    136.5265    211.0843   1.0642047363e+02   1.2370843724e+01    0.1732186    0.1277412 -57.39 0.0009180855    1.561    0.359
       150 -12.2792     45.9939     34.0119   9.1053969104e+01   6.4327394107e+01    0.4655834    0.2914103 -28.13  0.002631788    1.411    0.291
       151 -10.1405     89.3041     30.2903   7.3471131915e+01   5.8046691855e+01    0.1396285      0.12628  -3.04 0.0001622877    1.074    0.069
       152 -11.3510     91.5126     33.3046   7.4023696769e+01   5.7174691426e+01    0.3417298    0.2291079  10.03  0.001118496    1.733    0.423
       153 -12.1709     45.4353    209.1712   1.2379130761e+02   2.6052998768e+01     0.309088    0.1509946  86.33  0.001690393    2.068    0.517
       154 -11.6163     58.6327     35.3992   8.6521424878e+01   6.2418990395e+01    0.5034618    0.2620761  28.60  0.002460488    2.139    0.532
       155 -11.1176     80.5018    208.5012   1.1711390842e+02   2.1650692791e+01      0.22394   0.08447748  49.52  0.001030604    2.290    0.563
       156 -12.8318     56.5172     27.5203   8.4030064923e+01   6.4023538468e+01    0.5968449     0.307503  41.72  0.001956049    2.252    0.556
       157 -12.9397     67.8506     24.5400   7.8348350890e+01   6.2731782994e+01    0.6722058    0.3706249  38.01  0.003269438    1.851    0.460
       158 -10.9656    150.3982    206.8871   1.0306105160e+02   1.0703027396e+01    0.2760876    0.1563237  30.24  0.001318037    1.982    0.495
       159 -10.9251     97.9254     27.1329   6.9503042134e+01   5.6756218324e+01    0.1983151    0.1958104 -61.58  0.001218942    1.276    0.216
       160 -12.9273     40.6116    195.3324   1.2359827219e+02   2.9358049210e+01    0.3981472    0.1690753 -87.79  0.001929988    2.510    0.602
       161 -10.6094     53.6361     20.0758   8.1841817626e+01   6.5581511457e+01    0.3145115    0.1492962  22.68   0.00139814    2.732    0.634
       162 -12.6176     16.7831    195.7516   1.2808881595e+02   3.1755619772e+01      0.60384    0.2348047 -66.57  0.002813647    2.334    0.572
       163 -13.5956     18.2703    161.3507   1.2529765621e+02   3.8816773763e+01     1.057013    0.6024746  53.47  0.006530594    1.682    0.406
       164 -12.1597    169.6688     43.5115   5.8799591640e+01   3.7309744116e+01    0.3821416    0.2448973  54.71   0.00140249    1.502    0.334
       165 -13.4724     30.0125    169.3068   1.2350297136e+02   3.5972996406e+01    0.6364429    0.3891466 -50.17  0.001749152    2.056    0.514
       166 -15.3886      9.0787    179.8415   1.2851611675e+02   3.5690786168e+01     1.790428     1.079163 -78.67   0.01212199    1.346    0.257
       167 -13.1263     22.3392    181.2701   1.2604537407e+02   3.4177966909e+01    0.4751259    0.3217395 -78.92  0.002187555    1.253    0.202
       168 -11.6753    163.7374    195.1251   9.8490662726e+01   1.0345552273e+01    0.2973604    0.2008647  84.22  0.001316746    2.758    0.637
       169 -12.1118    201.0938    191.7597   9.0495550686e+01   3.9888936213e+00    0.3281599    0.2748618   7.51  0.001819845    1.150    0.131
       170 -11.7184     49.0455    181.4533   1.2067315155e+02   3.1275695739e+01    0.3522984    0.2231689 -56.99  0.002090854    1.746    0.427
       171 -12.0006    198.5431    181.7023   8.9065479329e+01   6.0735510156e+00    0.2783701    0.2455383  24.62  0.001270163    1.027    0.026
       172 -10.0647    218.3472    176.6876   8.4274124232e+01   3.1367358121e+00    0.1270508    0.1121531  87.45 0.0007046332    1.714    0.417
       173 -12.1275    124.6008    167.8084   1.0214516458e+02   2.2876259410e+01     0.462415    0.2780811 -56.14  0.002191765    1.732    0.423
       174 -12.7563     74.0388    153.3131   1.1162025307e+02   3.4319208548e+01    0.5476181    0.4431353  30.64  0.002869519    1.487    0.328
       175 -10.6684     56.0123    156.1841   1.1629967725e+02   3.6020923762e+01    0.1873112    0.1213664 -54.34  0.000892174    1.603    0.376
       176 -11.3410     85.8477    152.7744   1.0868351640e+02   3.2718947068e+01    0.3549781     0.180798 -54.38  0.001617942    1.897    0.473
       177 -11.5459    103.1561    150.1774   1.0402376460e+02   3.0528194917e+01    0.3839827     0.256942 -36.62  0.001814776    1.908    0.476
       178 -11.6293      6.3953    147.7140   1.2674296494e+02   4.2781883291e+01    0.3490097    0.2051793  88.89  0.002193319    1.366    0.268
