#   1 NUMBER                 Running object number                                     
#   2 MAG_AUTO               Kron-like elliptical aperture magnitude                    [mag]
#   3 X_IMAGE                Object position along x                                    [pixel]
#   4 Y_IMAGE                Object position along y                                    [pixel]
#   5 X_WORLD                Barycenter position along world x axis                     [deg]
#   6 Y_WORLD                Barycenter position along world y axis                     [deg]
#   7 A_WORLD                Profile RMS along major axis (world units)                 [deg]
#   8 B_WORLD                Profile RMS along minor axis (world units)                 [deg]
#   9 THETA_WORLD            Position angle (CCW/world-x)                               [deg]
#  10 FWHM_WORLD             FWHM assuming a gaussian core                              [deg]
#  11 ELONGATION             A_IMAGE/B_IMAGE                                           
#  12 ELLIPTICITY            1 - B_IMAGE/A_IMAGE                                       
         1 -15.2722    243.1536    142.8435   5.7944527091e+01   5.1373128849e+00     14.95498      8.79011 -56.75   0.07210241    2.135    0.532
         2 -14.2813    238.9852     33.5295   3.5761532617e+01   2.2969185587e+01     1.804581     1.337705 -37.07  0.006495801    1.457    0.314
         3 -14.8145    246.6271     70.9389   4.2649187466e+01   1.6239259499e+01     4.057463    0.8915257  51.22  0.009351894    6.380    0.843
         4 -13.8845    234.1980     64.6721   4.2725610668e+01   1.9642869376e+01     1.966333     1.281695 -69.04   0.00783274    1.557    0.358
         5 -14.5633    248.1785     43.2560   3.6902595356e+01   1.9863001627e+01     3.299566     1.369852 -54.03    0.0159947    2.145    0.534
         6  -8.1309    204.8822      9.3562   3.3626630924e+01   3.3108035567e+01    0.2586414    0.1812418  41.54  0.001513419    2.019    0.505
         7  -8.0232    225.6795      7.7199   3.1594735285e+01   2.8771575704e+01    0.1510196    0.1442654 -57.44 0.0006985527    1.382    0.277
         8  -8.2302    250.0627      4.9153   2.9413580683e+01   2.4141047126e+01    0.1724116    0.1246984 -69.90 0.0005389883    1.031    0.030
         9  -8.2505    238.9868      3.8432   2.9906620548e+01   2.6446511869e+01    0.1588812    0.1316397  81.72 0.0006281975    1.303    0.232
        10  -7.8455    166.3135      3.9144   3.6185032720e+01   4.2535367198e+01    0.1562945    0.1449746  86.07 0.0003774395    1.149    0.130
        11  -9.0882    137.4758    138.3095   7.8210981214e+01   2.6830950371e+01    0.3903719    0.1532616 -50.96  0.001300945    2.641    0.621
        12  -8.3974    196.5693    250.2585   8.6000944171e+01  -5.2172406383e+00    0.2008339    0.1382295  28.99 0.0004282322    1.247    0.198
        13 -10.0340    142.7720    136.3415   7.6428407516e+01   2.6179980732e+01    0.6017161    0.2513699 -53.11  0.002030414    2.661    0.624
        14  -8.2608    183.3587    227.1431   8.4978751986e+01   3.1910643188e-01    0.2100397    0.1549111  20.68 0.0003439587    1.240    0.194
        15  -9.0889    176.5599    171.1520   7.6184136758e+01   1.1925199633e+01    0.3062431    0.2287682 -42.60 0.0007532966    1.331    0.249
        16  -8.1125    185.8769    218.1404   8.2971851152e+01   1.4506645424e+00    0.1780137    0.1394853   3.80 0.0002811864    1.270    0.213
        17  -9.9508    152.6602    212.0588   8.8992664491e+01   8.0254955026e+00    0.2557486    0.2451489 -56.99 0.0004094781    1.179    0.152
        18  -7.0028     88.2715    133.2981   9.0664251292e+01   3.7353638288e+01    0.1474161    0.1154988 -25.43 0.0002514602    1.525    0.344
        19 -10.0605    160.1981    130.4620   7.0882983803e+01   2.3778446785e+01    0.4157098    0.4001286 -48.35  0.001269799    1.022    0.022
        20 -10.9960    170.8166    123.0290   6.6745063445e+01   2.3040002576e+01    0.6797125    0.3664485  58.87  0.002638262    2.267    0.559
        21  -9.4649    198.0515    128.7358   6.2591654396e+01   1.6134009081e+01    0.3221171    0.1875392 -49.90  0.001422012    1.722    0.419
        22 -10.1341    186.3346    129.0473   6.4939444085e+01   1.8504967758e+01    0.2721653    0.2445859 -52.64  0.001473878    1.092    0.084
        23  -9.4087    188.2375    155.4131   7.0428927789e+01   1.2854292863e+01    0.4651207    0.2992128  63.33  0.002006378    2.218    0.549
        24  -8.4340    191.8200    153.1652   6.9217609620e+01   1.2604457716e+01    0.2591014    0.2265267  18.85 0.0005617084    1.206    0.171
        25  -9.6561    136.3680    127.0667   7.5838785265e+01   2.9601212837e+01    0.3560188    0.2674218 -51.63  0.001096155    1.338    0.253
        26 -11.3959     12.6189    149.8068   1.1547404794e+02   4.2417084041e+01      1.09859    0.4482731  88.38  0.004326486    3.010    0.668
        27  -7.8809     19.6355    127.3244   1.1076212113e+02   4.7386188329e+01    0.1377491   0.08867524  66.05 0.0007039396    1.792    0.442
        28  -9.6044    188.0290    123.2866   6.3264109673e+01   1.9284504339e+01    0.4495302    0.2860621 -76.91  0.001717527    2.802    0.643
        29  -7.5323     95.2786    124.6492   8.6653642555e+01   3.8244260251e+01    0.1544113    0.1193665  85.46 0.0007010058    1.645    0.392
        30  -8.6720    212.0596    123.0015   5.8780945892e+01   1.4376147187e+01    0.2095714    0.1920576 -51.80 0.0003610245    1.046    0.044
        31  -9.1612    141.2156    122.9198   7.3600742118e+01   2.9492152687e+01    0.3430894    0.2203483  61.39 0.0009427755    1.898    0.473
        32 -10.6337    133.4085    121.2287   7.5168042053e+01   3.1530943879e+01    0.6007489    0.3988549  47.94  0.001621777    1.524    0.344
        33  -9.6363    134.9877    117.1609   7.3740963365e+01   3.2094239140e+01     0.448206    0.2578263  58.36  0.001740761    2.114    0.527
        34 -11.6881     17.7964    148.1666   1.1387653490e+02   4.2399757307e+01    0.9527171    0.5597208  84.27  0.004880959    1.746    0.427
        35  -8.3471    182.0591    120.0110   6.3679413836e+01   2.1209321803e+01    0.2387614    0.1783459 -73.07 0.0005933113    1.680    0.405
        36  -9.0455    156.8132    119.9684   6.9122567432e+01   2.6738205037e+01    0.2987151    0.2084411  79.90  0.001232645    2.106    0.525
        37  -7.8236    162.4647    118.4509   6.7464253315e+01   2.5812135637e+01    0.1530459    0.1465531 -76.22 7.270925e-05    1.053    0.051
        38  -9.2132    140.4490    117.8188   7.2521887047e+01   3.0773062181e+01    0.2711989    0.2300323 -58.94  0.001343258    1.216    0.177
        39  -9.3675    168.1584    116.9084   6.5832453582e+01   2.4872632425e+01     0.239687    0.2104251 -84.06  0.001001448    1.256    0.204
        40  -9.8585    175.1073    113.6080   6.3553562528e+01   2.3999749362e+01    0.4281202    0.3335298  16.17  0.002028898    1.701    0.412
        41  -8.1897    157.5573    113.7928   6.7413507049e+01   2.7863456584e+01    0.3426968    0.1381552 -51.18  0.001123568    2.814    0.645
        42  -8.4803    146.8561    115.0801   7.0253241281e+01   2.9963047496e+01    0.2436258    0.2111906 -81.87 0.0009880103    1.294    0.227
        43  -8.8385    175.3442    197.5053   8.1533541445e+01   6.9451910544e+00    0.2474881     0.214163   1.99 0.0002928874    1.145    0.126
        44  -8.9124    133.2431    148.8304   8.1641460209e+01   2.5274285828e+01    0.4292514    0.2761072 -53.92  0.001873516    1.594    0.373
        45  -7.5867     73.5608    111.7181   9.0383381310e+01   4.4968253814e+01    0.1899251    0.1390882 -65.63 0.0004371099    1.434    0.302
        46  -9.2998    182.9873    108.6284   6.0754686562e+01   2.3227885225e+01    0.4084813    0.1978687 -42.02  0.001627953    1.981    0.495
        47  -8.3333    151.3550    110.0816   6.7906317502e+01   3.0015578268e+01    0.2207806    0.1890538 -47.64 0.0004143793    1.158    0.136
        48  -9.2767    132.2878    141.7144   8.0310580321e+01   2.7106455436e+01    0.6004607    0.2941187 -60.40  0.002088796    2.651    0.623
        49  -8.1352    134.7726    155.7237   8.2729916551e+01   2.3386356846e+01    0.3033485    0.2115847 -62.81  0.001034268    1.610    0.379
        50  -8.7196    108.6932     99.8417   7.6380342681e+01   4.1392794914e+01    0.2457044    0.1893554 -28.87 0.0008259958    1.427    0.299
        51  -9.3326    112.9948     96.2861   7.4153775128e+01   4.1274399795e+01    0.3742994    0.3209165  86.93  0.001841456    1.392    0.282
        52 -13.4069    245.3887     64.3781   4.1437045114e+01   1.7451554207e+01    0.6975646     0.459765 -68.44  0.001784828    1.485    0.327
        53 -10.3681     91.5426     93.0724   7.9725894974e+01   4.6182737545e+01    0.2512408    0.2225588  32.71  0.000166837    1.140    0.123
        54  -8.9311    143.4815    148.1732   7.8934672193e+01   2.3373191320e+01    0.3749116    0.1523682 -51.36  0.001280091    2.576    0.612
        55  -8.7461    115.9020     90.8145   7.1783885601e+01   4.1803573261e+01    0.2338548    0.2103626   8.51  0.000640993    1.210    0.174
        56 -10.1856     68.8388    145.1417   9.8730746815e+01   3.7418892782e+01    0.8354135    0.5469676 -74.26   0.00331633    1.609    0.378
        57  -9.1871    129.4610     87.8518   6.7284886964e+01   3.9437738361e+01    0.3269201    0.1944897  34.51  0.001338902    1.970    0.492
        58  -8.2755    137.2301     80.7760   6.3316921070e+01   3.9023727019e+01    0.2049084     0.178961  16.22 0.0007634629    1.316    0.240
        59 -10.6572     44.6402    141.7874   1.0530999265e+02   4.1361239174e+01    0.4237819    0.3356932  -5.45 0.0007522193    1.620    0.383
        60  -7.9892    149.8266     79.6241   6.0077812743e+01   3.6302046054e+01    0.2137697    0.1393492  65.05 0.0007256339    1.672    0.402
        61  -8.8625    157.8763     75.3059   5.7162394899e+01   3.5165586837e+01    0.2470094     0.195262 -53.78 0.0007146501    1.290    0.225
        62  -7.5691    113.5746     76.4667   6.8201442763e+01   4.5123330528e+01    0.1470811     0.139964  13.37 0.0001748894    1.060    0.057
        63 -12.6293     55.8358    138.2632   1.0138433717e+02   4.0902751539e+01     1.939845     1.290511  -2.79  0.008386938    2.259    0.557
        64 -11.1808    168.6465     68.6601   5.3252855487e+01   3.3725378338e+01    0.6908756     0.486727  66.27   0.00334146    1.414    0.293
        65  -8.0881    150.0233     71.4884   5.7744042801e+01   3.7684277950e+01    0.2365824    0.1416446  57.13  0.001044374    1.632    0.387
        66  -7.6701    128.1863     69.1888   6.2118699678e+01   4.3185421761e+01     0.201622    0.1727156 -78.56  0.000561423    1.343    0.255
        67  -7.9395    138.9845     67.7499   5.9108091961e+01   4.0925702220e+01    0.1961007    0.1210466  53.95 0.0004698859    1.553    0.356
        68  -8.1110    150.4832     64.9874   5.5794666161e+01   3.8660480991e+01    0.2158727    0.1444766 -36.72 0.0007687903    1.565    0.361
        69  -9.5011    186.1236     63.1536   4.8827966714e+01   3.0472352509e+01    0.3092419    0.2155625 -42.50  0.001593622    1.411    0.291
        70  -9.9436    171.7820     64.2122   5.1497488952e+01   3.3695167765e+01    0.3934163    0.2644854 -50.79  0.001824755    1.499    0.333
        71  -9.1930    136.1251     62.9052   5.8321333351e+01   4.2402462495e+01    0.2302614    0.1982834 -82.89  0.001173136    1.286    0.222
        72  -9.5905    141.0284     57.5033   5.5610745270e+01   4.2104753539e+01    0.2704804    0.2131874  -9.15  0.001260559    1.606    0.377
        73  -9.0732    128.8153     57.1920   5.8282037989e+01   4.5026918815e+01    0.3017904    0.1941514  66.28  0.001094668    1.706    0.414
        74  -8.4488    177.8168    147.1211   7.0804326401e+01   1.6601427008e+01    0.2838466    0.1790976 -41.54 0.0004058767    1.546    0.353
        75  -8.6426    148.0000     51.9586   5.2526428714e+01   4.1276646812e+01    0.2241607   0.08147603 -34.22 0.0008006414    2.930    0.659
        76  -9.0495    150.2836     47.4122   5.0755331698e+01   4.1382405232e+01    0.2370313    0.1781154 -17.36 0.0007305192    1.654    0.395
        77  -9.9029    181.7806    144.4668   6.9376226472e+01   1.6341136725e+01    0.3633259    0.2949304  45.18 0.0002695863    1.277    0.217
        78  -8.6457    132.0378     45.3381   5.3844809346e+01   4.6033957422e+01    0.2012443      0.17021  60.39  0.000561273    1.097    0.089
        79  -7.4890    161.8551     44.6369   4.7887619167e+01   3.8976170354e+01    0.1871341    0.1230769  75.20 0.0003300965    1.533    0.348
        80  -8.8419    154.1593     43.1303   4.8802703071e+01   4.1039565924e+01    0.2043912    0.1818486  43.49 0.0004325765    1.208    0.172
        81  -8.1650    204.6856     42.2140   4.1157340345e+01   2.9215630278e+01    0.2153326    0.1438638 -58.33  0.001177198    1.399    0.285
        82 -10.0613    187.0656    140.2915   6.7352589784e+01   1.6109872587e+01    0.5814585    0.2429713 -35.46  0.000537443    2.693    0.629
        83  -9.4301    183.6792     33.7053   4.1718631520e+01   3.5186665178e+01    0.3161831    0.2336906 -16.28  0.001229061    1.821    0.451
        84  -8.8347    193.3429     33.7737   4.0515186301e+01   3.2916530004e+01    0.2121964    0.2041495 -77.28 0.0005215449    1.199    0.166
        85  -7.7922    195.1316     25.6554   3.8354616998e+01   3.3496641796e+01    0.1713153    0.1395154  84.43  0.000314957    1.087    0.080
        86  -7.2853    154.2948     20.7012   4.2359155071e+01   4.3733877073e+01    0.1325836   0.09227353 -72.61  0.000207431    1.569    0.362
        87  -7.5082    161.4142    195.7865   8.4251816930e+01   9.7209666422e+00    0.2012706    0.1310382 -35.04 0.0009552132    1.677    0.404
        88  -8.8334    191.9493    192.4477   7.7128959869e+01   5.0357138300e+00    0.2856165    0.1721925 -59.35   0.00125166    2.450    0.592
        89  -8.9083    215.7661    226.9631   7.8635962925e+01  -4.4651696514e+00    0.2023083     0.158012  22.84  0.000333513    1.185    0.156
        90  -7.7468    174.6371    140.1624   6.9925789241e+01   1.8690444928e+01    0.2199803    0.1374698 -34.88 0.0009477351    1.681    0.405
