#   1 NUMBER                 Running object number                                     
#   2 MAG_AUTO               Kron-like elliptical aperture magnitude                    [mag]
#   3 X_IMAGE                Object position along x                                    [pixel]
#   4 Y_IMAGE                Object position along y                                    [pixel]
#   5 X_WORLD                Barycenter position along world x axis                     [deg]
#   6 Y_WORLD                Barycenter position along world y axis                     [deg]
#   7 A_WORLD                Profile RMS along major axis (world units)                 [deg]
#   8 B_WORLD                Profile RMS along minor axis (world units)                 [deg]
#   9 THETA_WORLD            Position angle (CCW/world-x)                               [deg]
#  10 FWHM_WORLD             FWHM assuming a gaussian core                              [deg]
#  11 ELONGATION             A_IMAGE/B_IMAGE                                           
#  12 ELLIPTICITY            1 - B_IMAGE/A_IMAGE                                       
         1 -12.0766    118.3105     49.8122   7.1388244477e+01   4.9123305871e+01     1.909441     1.143547 -54.18  0.007831484    2.102    0.524
         2 -12.3997     28.8033     24.9716   9.4178695103e+01   6.9104881306e+01     1.626725     1.086014 -36.76  0.009596777    1.205    0.170
         3 -11.1934      6.8773     57.5671   1.1471323783e+02   6.3884153225e+01     1.299448    0.6180058 -78.12  0.006468916    2.089    0.521
         4 -11.7877     74.7203     47.4700   8.4106973115e+01   5.8445745397e+01     2.183577     1.089342 -36.60   0.00936428    1.885    0.469
         5 -13.1203     14.7792    101.4162   1.1918607615e+02   5.3095821822e+01     3.344586     1.094626 -55.85   0.01478956    2.493    0.599
         6 -12.4969     34.9777     69.2817   1.0633492125e+02   5.9058141441e+01     1.914943     1.025462 -34.67  0.009175239    2.170    0.539
         7 -12.4123     90.3154     28.4511   7.0695706775e+01   5.8721456518e+01     2.604549     1.040781 -24.47  0.006612877    2.925    0.658
         8 -10.9490     72.4540     19.5360   7.2482782014e+01   6.3556228266e+01     1.494881    0.6318797  43.38  0.006407897    2.403    0.584
         9 -13.1552    101.9476      7.4540   5.7691754471e+01   5.8751940985e+01       2.8883    0.5327831  58.84  0.002236183    4.433    0.774
        10 -13.0302     55.1746     65.6132   9.7710133518e+01   5.7602772555e+01     2.671561     1.658338 -55.10   0.01141665    1.419    0.295
        11 -13.3112     91.2992     56.7343   8.1978560478e+01   5.3613798788e+01     2.574318     1.317483  30.44 0.0008816468    2.659    0.624
        12 -12.4592     58.9785      4.9761   6.9778827342e+01   6.7926465744e+01       1.0041    0.5302729  28.85   0.00239446    2.048    0.512
        13 -11.1126     50.5944     24.8064   8.3828011335e+01   6.6397332645e+01    0.6443114    0.4137479  13.79 0.0009702378    1.877    0.467
        14 -11.6694     43.3222     14.7834   8.2042923147e+01   6.9078883752e+01     1.606997     1.025531 -45.06  0.008985252    1.697    0.411
        15 -11.7607     14.9034     35.7239   1.0528914512e+02   6.8180466665e+01     1.182925    0.5263364 -50.60   0.00619327    1.661    0.398
        16 -12.2814     24.5546      6.0982   8.6833340966e+01   7.2834137333e+01    0.7746093    0.5859284  28.00  0.001687088    1.540    0.351
        17 -11.7863    111.2526     31.8564   6.6135421641e+01   5.3598908243e+01     1.476997    0.6215014  43.62  0.002279759    2.463    0.594
        18 -12.7633    113.8487     20.9805   6.0866969733e+01   5.4435795165e+01     1.326508    0.9029577   7.06  0.004539806    1.706    0.414
        19 -13.3028     69.9363     31.0498   7.8906627410e+01   6.2232207171e+01     2.122048    0.7211484  46.25  0.007907164    3.291    0.696
        20 -12.0992     18.7731     13.8603   9.4282795077e+01   7.2129382116e+01    0.5696958    0.5286887  87.74  0.001262463    1.691    0.409
        21 -13.3890      3.6194     15.0526   1.0363190712e+02   7.3086709203e+01     1.421814    0.4320554 -45.72  0.002670681    2.259    0.557
        22 -11.7094      2.0876      2.4747   9.8620431874e+01   7.5495452269e+01    0.3216776    0.1819098 -49.65  0.001904612    1.481    0.325
        23 -11.0239    164.5061      5.2683   4.5733360723e+01   4.3076001047e+01     1.014441    0.6122958  54.83  0.004827917    1.580    0.367
        24 -11.6401    159.7850     20.0842   5.1561112014e+01   4.2817225704e+01     1.006534    0.6589203  23.18  0.002716745    1.903    0.474
        25 -11.2707    150.2763     14.9531   5.1220417734e+01   4.5883888902e+01    0.9669974    0.8115901  46.58  0.002897981    1.169    0.145
        26  -9.6402    167.6066     12.8150   4.7907551329e+01   4.1524747270e+01    0.5790639    0.2788661  79.45  0.002279137    2.330    0.571
        27  -9.5589    173.3702     10.2934   4.6316318383e+01   4.0253251214e+01    0.3585932    0.2466246  20.25   0.00110716    1.802    0.445
        28 -11.9840      8.4620     26.3388   1.0531737052e+02   7.0554810840e+01    0.7510851    0.4624344  -6.60  0.003216722    1.924    0.480
        29 -10.9997    213.9504      4.9062   4.0555718930e+01   3.0325602040e+01     1.099216    0.4090001  73.80  0.004376686    2.630    0.620
        30 -10.4348    203.8799     26.6112   4.7743358283e+01   3.0503704457e+01    0.9954869    0.3890005 -30.22  0.003840664    2.315    0.568
        31 -10.2563    204.1879     17.3584   4.5000740442e+01   3.1484622546e+01    0.8089126    0.4047936  26.58  0.002808155    3.790    0.736
        32 -11.0236    215.3281     23.3037   4.5547191925e+01   2.8010638881e+01      1.16233    0.6841726  -1.68  0.004948962    2.476    0.596
        33 -10.5326    210.8063     17.5893   4.4392056777e+01   2.9785881185e+01     0.392823    0.2801379  61.78  0.001049865    1.445    0.308
        34 -10.1159    226.7081      6.9068   4.0072350919e+01   2.7013882247e+01    0.5129723    0.3247222  14.23  0.002010575    2.431    0.589
        35 -10.3226    221.5962     12.0323   4.1854397018e+01   2.7716708733e+01    0.4338486    0.2979396 -67.84  0.001270869    1.430    0.301
        36 -10.7167    214.3223     11.8615   4.2448753769e+01   2.9524857716e+01    0.5627667    0.3364427  77.58  0.001283663    1.686    0.407
        37 -10.8549    245.1940     18.8637   4.1687606684e+01   2.1419875478e+01    0.7510328    0.2898935  72.39  0.003173418    2.749    0.636
        38  -9.3328    238.9931     15.0071   4.1205302489e+01   2.3264088596e+01    0.3113115    0.1824227 -61.73 0.0004919611    1.680    0.405
        39 -10.3996    243.4352     12.6524   4.0275799949e+01   2.2501575092e+01    0.3518457    0.2687617 -21.77 0.0006099155    1.371    0.270
        40 -10.0936    243.9684      4.9194   3.8330056441e+01   2.3192420478e+01    0.3911284    0.1982658 -29.02 0.0009838075    1.788    0.441
        41 -11.2970    237.0400     30.2820   4.5298076986e+01   2.1961482252e+01    0.7862551    0.5839236  -6.50  0.004212544    1.617    0.381
        42  -9.8799    175.8756     20.4297   4.9334352788e+01   3.8517494544e+01     0.662539    0.4345112 -68.64  0.003040562    1.757    0.431
        43 -11.1685    179.4373     27.4067   5.1117274117e+01   3.6761321395e+01    0.7017814    0.4834658  49.14  0.003371156    1.501    0.334
        44 -12.2092    129.1049     21.4042   5.7612086114e+01   5.0631025453e+01     1.263915    0.8861072  16.69  0.004455864    1.644    0.392
        45 -10.2068    230.8314     18.9234   4.2891778149e+01   2.4742291699e+01    0.4463823    0.3834499 -35.98  0.001723761    1.120    0.107
        46  -8.9028    183.8363     14.4377   4.6384478542e+01   3.7070913212e+01    0.3506011     0.173269  53.34  0.001478226    2.017    0.504
        47  -9.7502    232.5618     10.7080   4.0607886689e+01   2.5227435265e+01    0.2928753     0.209444 -65.19  0.001111148    1.312    0.238
        48  -9.3394    234.0428      7.1479   3.9581566008e+01   2.5250718366e+01    0.2308764    0.2108333   6.10 0.0005894303    1.338    0.252
        49  -9.9169    200.4352      8.9488   4.2920049964e+01   3.3328089294e+01    0.7485754    0.3497687 -24.76   0.00321256    2.120    0.528
        50  -9.7902    199.2651      4.0000   4.1580737363e+01   3.4112335662e+01    0.3955769    0.2708093 -89.26  0.002049386    1.450    0.310
        51  -8.5564     82.4966      3.0145   6.0693723408e+01   6.3528258135e+01    0.2630763    0.1904642  44.05  0.001483192    1.302    0.232
        52 -10.2197     78.0229      8.9416   6.5166994971e+01   6.3826766942e+01    0.3562567    0.2614602  45.69  0.001014217    1.364    0.267
        53  -9.0408     77.3846      4.7305   6.3153527607e+01   6.4421170915e+01    0.2551841    0.1823874   8.61 0.0007292518    1.360    0.265
        54  -9.8734    182.3112      5.4532   4.3713912578e+01   3.8367020055e+01    0.6470906    0.4109989 -77.78  0.003084096    1.710    0.415
        55  -9.4897    249.7388      7.3894   3.8547396267e+01   2.1643386693e+01     0.291519     0.193551 -64.08  0.001659615    1.389    0.280
        56  -8.8330    139.2446      8.3991   5.0551332177e+01   4.9421166601e+01    0.2106253     0.178547  75.55  0.001153197    1.191    0.161
        57 -11.2794    139.0273      2.5052   4.8296056981e+01   5.0008386997e+01    0.3957314    0.3200004 -20.70 0.0003609361    1.291    0.225
        58  -8.3947    238.3380      7.3112   3.9311538978e+01   2.4234380148e+01    0.1265238   0.09730227  35.73 0.0007045193    1.689    0.408
        59  -8.8268    190.7748      7.5874   4.3481858332e+01   3.5953837305e+01    0.2540994    0.1225632  66.74 0.0006938056    1.952    0.488
        60  -8.3091    189.4737      4.5056   4.2673118102e+01   3.6587778269e+01    0.2078825    0.1167982 -38.33  0.000816295    1.690    0.408
        61  -8.8902     71.7336      5.3120   6.5314265799e+01   6.5494589925e+01     0.199389    0.1921991 -60.78 0.0006147628    1.381    0.276
        62  -9.3237     67.9700      4.6889   6.6271945288e+01   6.6295798650e+01    0.4187278     0.198106  27.57  0.001602514    2.594    0.615
        63  -9.2638    248.2016      1.6588   3.7269103141e+01   2.2571833018e+01    0.2437342    0.1706699  89.94  0.001436854    1.425    0.298
        64 -10.3716     38.0245    143.2849   1.1790207194e+02   4.1101036904e+01    0.3122481    0.2631942 -25.00 0.0008448372    1.730    0.422
        65  -9.7132    235.9919    249.4573   9.2876737123e+01  -6.9315450883e+00    0.2704216    0.1302811  40.41  0.001673571    1.831    0.454
        66  -9.0162    161.7944    250.3860   1.0515834027e+02   3.4889796484e+00    0.1639767   0.08212255  34.25 0.0009504306    1.683    0.406
        67  -9.8463    151.7495    249.9426   1.0681395156e+02   5.0163315178e+00    0.2734612    0.1397763  50.08  0.001306214    1.746    0.427
        68  -9.3935    124.8356    249.7148   1.1138500621e+02   8.9461875099e+00    0.1749336    0.1166299  32.11  0.001072969    1.497    0.332
        69 -11.3804     18.0336    146.1350   1.2304031619e+02   4.2364244944e+01    0.5636897     0.273843  79.09  0.001604329    1.980    0.495
        70 -10.5331     23.6820    146.9022   1.2176453645e+02   4.1683905557e+01     0.302503    0.1976379  80.53  0.001859323    1.301    0.232
        71  -9.6243     66.1457    147.9376   1.1150778774e+02   3.6655311713e+01    0.2662882    0.2266174 -44.56  0.001614056    1.447    0.309
        72 -10.0215     70.4748    142.6292   1.0964240641e+02   3.7296812412e+01    0.2601917    0.2094603  76.78 0.0006648571    1.166    0.143
        73  -9.0151     80.0359    141.0206   1.0695351900e+02   3.6295053365e+01    0.2068977    0.1856357 -86.90 0.0005257328    1.028    0.027
        74  -9.0690    182.9957    250.0000   1.0154340797e+02   4.3676223153e-01    0.1896563   0.04869055  40.60 0.0008058847    2.966    0.663
        75 -12.5771     12.3514    127.4787   1.2277342010e+02   4.7120823848e+01    0.7435813    0.3540354  84.98  0.003767912    1.999    0.500
        76 -13.4256     40.5403    123.3502   1.1472254578e+02   4.5546890976e+01     2.323483     1.518012  61.35  0.004999596    1.596    0.373
        77 -12.1765     81.9013     75.3084   9.1351715855e+01   5.1417575397e+01    0.6707433    0.4646803  62.92 0.0001740527    1.946    0.486
        78  -9.9955    107.4344    248.1280   1.1421059727e+02   1.1626297246e+01    0.2291786    0.1557884  73.66   0.00159516    1.582    0.368
        79  -8.8369     30.7211    247.6342   1.2686618839e+02   2.1217411987e+01    0.1599642    0.1029199 -75.75  0.001246104    1.712    0.416
        80  -9.7173      3.2949    246.8928   1.3106075165e+02   2.4088523813e+01    0.1919202    0.1177613 -71.91  0.001247809    1.932    0.482
        81 -11.5420     21.7244     55.9657   1.0818361174e+02   6.3261575384e+01      1.42884    0.6355906 -44.08  0.006979642    1.973    0.493
        82  -9.1740     58.4857    246.9791   1.2235709664e+02   1.8170483309e+01    0.1493249   0.06548496  74.83 0.0008104789    2.632    0.620
        83 -10.0993    142.0896    243.7556   1.0778962479e+02   7.2638798261e+00    0.2846791     0.199153  24.10  0.001191971    1.605    0.377
        84 -12.2942     25.1065     67.8665   1.0975615296e+02   6.0268425716e+01     0.792901    0.2770171 -40.71  0.002040092    3.305    0.697
        85  -9.5329     91.4019    245.2220   1.1670339250e+02   1.4254729565e+01    0.1371887   0.09211434  86.96 0.0009522359    1.637    0.389
        86  -8.7522    194.3296    244.3286   9.8915035241e+01  -5.6632905755e-01    0.1144545   0.07182028  16.12 0.0004198643    1.711    0.415
        87  -9.0505    211.3620    239.4516   9.5408267729e+01  -2.5023443596e+00    0.1957438   0.09009235 -19.08 0.0009429884    3.460    0.711
        88 -10.5392     14.7622    237.1257   1.2894974515e+02   2.4589102504e+01    0.2694111    0.1593806  85.23 0.0006709051    1.398    0.285
        89  -8.8524     54.8572    237.6442   1.2238249923e+02   2.0124112045e+01    0.2021345   0.09206533  32.41  0.001101831    2.634    0.620
        90  -9.4321    190.5150    236.0026   9.8431726221e+01   9.7726040955e-01    0.1293691    0.1017791 -79.03  0.000528194    2.435    0.589
        91 -12.0393     40.1116     50.5751   9.8854660092e+01   6.2722169141e+01       1.3446    0.7935395   1.36  0.006376287    2.600    0.615
        92 -11.6764     32.9496     42.6683   9.9236000908e+01   6.5158761295e+01    0.7692271    0.5319677  23.49  0.004569692    1.703    0.413
        93  -9.4174    184.0114    236.2456   9.9582198167e+01   1.9310815584e+00    0.1598257   0.07805379  39.23 0.0008911203    1.615    0.381
        94  -8.6467     20.5821    232.2998   1.2781077866e+02   2.4824185228e+01    0.1214653   0.08006119 -81.40 0.0008733654    1.509    0.337
        95  -9.3388     12.7292    231.7505   1.2906491929e+02   2.5700659041e+01     0.222923   0.09784616  56.81  0.001485339    1.601    0.375
        96  -8.5142    226.9631    231.5526   9.1680513308e+01  -3.8985536556e+00    0.1680016   0.08761965  34.63 0.0004525113    1.539    0.350
        97  -9.1275    218.9866    230.6769   9.2858552290e+01  -2.6478146414e+00     0.215646    0.1253928  46.59  0.001286184    1.871    0.465
        98  -9.6804    135.8540    230.0607   1.0734076895e+02   1.0173397046e+01    0.2295795    0.1324522 -45.14  0.001349521    2.239    0.553
        99 -12.8040     54.3737     38.2676   8.8244499542e+01   6.3420850699e+01     1.299599    0.6886633  32.77  0.006293737    2.139    0.532
       100  -9.1728    202.2581    228.9918   9.5422321167e+01   4.2486465942e-02    0.1906891     0.131641  32.84 0.0003432595    1.155    0.134
       101  -8.8207     50.2556    227.4151   1.2252147288e+02   2.2414940099e+01    0.1529588   0.07455653  50.18 0.0007001241    1.559    0.359
       102  -8.9641    112.3206    225.5767   1.1114774826e+02   1.4422366812e+01     0.229568   0.08794071  44.66  0.001120329    2.068    0.516
       103  -9.0265     41.4609    220.8188   1.2365197145e+02   2.4601828558e+01     0.163776    0.1374136 -30.09  0.001171806    2.223    0.550
       104  -9.3035    236.8958    135.8450   7.1863721059e+01   6.8620871799e+00    0.2211564    0.1728036   5.33  0.001239609    1.265    0.209
       105  -9.8122     61.0296    134.4929   1.1083841779e+02   4.0477916845e+01    0.1887526    0.1304484  38.81  0.000691073    1.574    0.365
       106  -8.3777      1.6828    133.2998   1.2595351773e+02   4.6554719766e+01    0.1211312   0.06762444  68.84 0.0007020666    1.616    0.381
       107 -10.0638     72.9120    129.7226   1.0689183904e+02   3.9994991033e+01    0.3106665    0.1903798 -54.39 0.0006261024    1.560    0.359
       108 -10.9035     62.0497    112.5010   1.0678471536e+02   4.5624647397e+01    0.6016383     0.507468  76.08  0.002998374    1.206    0.171
       109 -11.4325     66.9475    124.5991   1.0761517577e+02   4.2052614407e+01     1.311083     0.274552 -54.19  0.004054163    3.984    0.749
       110 -11.4819     60.1612    121.3358   1.0893392870e+02   4.3737289563e+01    0.8678403    0.4529833  89.37  0.003424491    2.873    0.652
       111  -9.4043     74.6382    107.2668   1.0199726176e+02   4.5120906521e+01    0.3270916    0.2422494  26.92  0.001169558    1.641    0.391
       112 -11.0990     68.9520    106.0569   1.0343036459e+02   4.6237484913e+01    0.8994871    0.3896485 -38.50  0.003055395    3.667    0.727
       113 -10.8528     77.0416    102.0212   1.0009083694e+02   4.6011535885e+01    0.5842654    0.3470854  33.88  0.002021621    1.933    0.483
       114 -10.2409     79.9590    129.0223   1.0487362499e+02   3.9124564799e+01    0.2045024    0.1818165 -82.14  0.001192048    1.007    0.007
       115 -10.3795     56.2581    126.1163   1.1081105000e+02   4.3080635692e+01       0.3857    0.2474703 -65.35  0.001316673    1.361    0.265
       116  -8.6743     81.1876    124.7979   1.0374344815e+02   3.9939462730e+01    0.1857026     0.163803 -38.80 0.0008690351    1.308    0.235
       117  -9.2176     75.3495    124.9857   1.0537506574e+02   4.0770465808e+01    0.2697695      0.17596  58.01 0.0008196228    1.666    0.400
       118 -10.3520     90.9764    121.4117   1.0038875322e+02   3.9179064709e+01    0.4541261    0.3289568 -57.71  0.001197765    1.291    0.225
       119  -9.0229    106.0437    119.6953   9.5946890942e+01   3.6951772510e+01    0.2355838    0.2049815  49.70 0.0001473255    1.187    0.158
       120  -9.6754    104.5309    116.5210   9.5624453954e+01   3.7960484785e+01    0.3587047    0.2382654  73.09  0.001385305    2.089    0.521
       121  -8.6527     77.3906    120.2737   1.0390849991e+02   4.1593388480e+01     0.137514    0.1090149 -22.27 0.0006992777    1.727    0.421
       122  -8.2954    132.6152    119.2664   8.9008759835e+01   3.1850263991e+01     0.155947    0.1183835  79.92  0.000571986    1.696    0.410
       123 -12.2746    100.4316     77.9970   8.6365725646e+01   4.7447222538e+01     1.775327     1.052526  64.20  0.006918691    2.604    0.616
       124 -10.2974    107.5712    109.7727   9.3182821940e+01   3.8949188509e+01    0.8671325    0.2387673 -53.96  0.002430895    4.005    0.750
       125  -8.4694    104.2925    109.0195   9.3897403243e+01   3.9735689455e+01    0.3080534    0.2294946  75.42 0.0008193027    1.674    0.403
       126  -8.5429    142.9744    114.4924   8.5288473417e+01   3.0678572325e+01    0.2229796    0.1518515  44.28 0.0003748836    1.500    0.333
       127  -9.7187     98.7423    113.2733   9.6451307568e+01   3.9756242471e+01    0.3422318    0.3141579  21.05  0.001694086    1.263    0.208
       128  -8.8805     81.9489    114.1678   1.0136912318e+02   4.2352789880e+01    0.2953573    0.2001162  17.22  0.001358624    2.169    0.539
       129  -9.3495     90.8792    112.8243   9.8543189869e+01   4.1220352831e+01    0.2608839    0.2175939  32.70 0.0008740213    1.360    0.265
       130  -9.4787    133.6898    110.6259   8.6564323651e+01   3.3496848782e+01    0.7190784    0.3190062  39.15  0.002190443    2.554    0.608
       131  -9.5160    136.1553    107.0191   8.5001287235e+01   3.3742296176e+01    0.4359823    0.2676566  37.08 0.0008940418    1.816    0.449
       132 -10.3793    130.6637    104.6840   8.5757084367e+01   3.5425456524e+01    0.9394561    0.3681032 -32.75  0.002557208    4.390    0.772
       133  -9.9981    133.8561    102.3743   8.4321082129e+01   3.5233334910e+01    0.4624416     0.310952 -44.60  0.001056891    1.441    0.306
       134  -8.7992    121.0122    109.8280   8.9601154644e+01   3.6305307312e+01    0.2348683    0.1745393  14.56 0.0003304642    1.886    0.470
       135  -9.9637    149.0747    107.0980   8.1898110923e+01   3.0875299592e+01     0.482947    0.2805323 -38.66  0.001944721    1.716    0.417
       136  -8.4929    212.0176    108.5657   6.9481455750e+01   1.6270587877e+01    0.2054213    0.1446949  47.78 0.0003420722    1.499    0.333
       137  -9.8798    113.8372    107.3179   9.0864281768e+01   3.8300063371e+01    0.2983733    0.2159112 -44.14  0.000945293    1.352    0.260
       138 -10.1776     47.2875    106.1056   1.0999762126e+02   4.8977964392e+01    0.5257203    0.2684576  37.82  0.001296349    2.157    0.536
       139 -11.0185     51.7469     92.8562   1.0595532315e+02   5.1664027733e+01    0.9186344    0.3827333 -68.13  0.003518728    2.499    0.600
       140  -9.9157     48.9636    102.2369   1.0876081233e+02   4.9724817176e+01    0.6871989    0.2861159  46.34  0.002880836    2.783    0.641
       141 -10.6206     48.5690     98.1695   1.0808744908e+02   5.0754344934e+01    0.9934772    0.3130266  41.15  0.003763866    3.442    0.709
       142 -10.0732     55.6475     96.3661   1.0545958209e+02   5.0343852960e+01    0.4023082    0.2423717 -34.85   0.00120171    2.108    0.526
       143 -11.7772     56.9770     83.3061   1.0197232778e+02   5.3292579127e+01    0.4878872    0.3856723 -50.92 0.0005259078    1.120    0.107
       144 -10.1820     52.1588     81.7158   1.0322630583e+02   5.4270117355e+01    0.3012491    0.2227015 -63.40  0.001673291    1.196    0.164
       145 -11.0223    141.6862    102.0715   8.2297798350e+01   3.3571240769e+01    0.4228538    0.3524539   3.27 0.0008086324    1.463    0.316
       146  -9.3019    171.1942    102.5493   7.5717240093e+01   2.6696304162e+01    0.3943199    0.2640447  26.34  0.001653717    1.912    0.477
       147  -9.1009    105.4939    102.9167   9.2019787967e+01   4.0910948149e+01    0.2320154    0.1416264 -49.03 0.0006203669    1.546    0.353
       148  -9.1024     96.2022    103.1952   9.4726897171e+01   4.2555207069e+01    0.2112534    0.1923235 -34.58 0.0006614794    1.170    0.145
       149  -8.9662     39.9377    102.7717   1.1165688407e+02   5.0578131117e+01    0.1924262    0.1612422 -51.26 0.0004527591    1.228    0.185
       150  -9.0889    152.0681    101.5455   7.9682522283e+01   3.1329775077e+01    0.3183648    0.2008754 -45.24 0.0005121619    1.559    0.359
       151 -10.5717    156.4295     95.2777   7.6915458927e+01   3.1569296334e+01    0.6284472    0.4835856  38.18  0.002958467    1.381    0.276
       152 -10.3478      4.7566     99.4741   1.2198439050e+02   5.4218467254e+01    0.6183226    0.2025566 -55.45  0.002822118    2.536    0.606
       153  -9.4929      2.9873     94.5803   1.2195695695e+02   5.5474938238e+01    0.4096076    0.1094272 -59.88  0.001769659    2.626    0.619
       154  -9.9073      5.9286     86.5423   1.1999164380e+02   5.7199770118e+01    0.6404995    0.2648955 -43.21  0.003052083    2.654    0.623
       155  -9.1436      1.5363     84.4856   1.2116823318e+02   5.7926139553e+01    0.2009506    0.1278471 -88.47 0.0005399272    1.380    0.276
       156  -8.8105      4.5374     82.4614   1.1988731225e+02   5.8239133324e+01    0.2944217    0.1293347 -60.69   0.00108171    1.702    0.413
       157  -9.4197      5.3939     77.5920   1.1887433721e+02   5.9333972905e+01    0.2860936    0.1956888  50.57   0.00180116    1.745    0.427
       158 -10.0514      3.5710     73.6926   1.1891719279e+02   6.0343298074e+01     0.478385    0.2029641 -52.75  0.001989155    1.904    0.475
       159 -10.0303    110.9673    100.5626   8.9876093160e+01   4.0387588395e+01    0.2684665    0.2078167 -48.59  0.000177992    1.226    0.185
       160 -10.1280     73.6720     89.4998   9.8051232961e+01   4.9490382841e+01    0.8618314    0.3306291  43.39    0.0032035    2.911    0.657
       161  -9.3469     82.8632     84.4830   9.3756118154e+01   4.9186667547e+01    0.4889807     0.246517 -38.11   0.00194322    2.220    0.550
       162 -10.2789     87.8021     97.0356   9.5625244990e+01   4.5451204278e+01    0.5038029    0.4601134  37.75   0.00283524    1.209    0.173
       163 -10.5745     87.7328     89.7748   9.3713878333e+01   4.7146329296e+01    0.7971048    0.4534837 -38.27  0.003377059    1.902    0.474
       164  -9.4503     92.5501     88.7860   9.1967752518e+01   4.6526337725e+01    0.3519469    0.2179071 -67.76  0.000724247    2.037    0.509
       165  -9.5799     82.0620     89.5509   9.5410887156e+01   4.8151724236e+01    0.3712715    0.2572453  57.09   0.00163834    1.723    0.420
       166 -10.0676     65.3568     98.2681   1.0281478158e+02   4.8612099670e+01    0.4983721    0.2275128  34.80  0.002113204    2.473    0.596
       167 -10.5332     44.5874     93.0711   1.0833792531e+02   5.2430078377e+01    0.2646259    0.2196004  75.81 0.0002986169    1.302    0.232
       168  -9.6852     39.5322     92.4614   1.0987163478e+02   5.3110856395e+01     0.243194    0.1747941 -65.48 0.0005604798    1.151    0.132
       169 -11.4467     34.1252     91.3934   1.1144623819e+02   5.3899833733e+01    0.8062195    0.4438075   2.03  0.003601854    3.265    0.694
       170 -11.6031    119.1285     86.5993   8.3653183297e+01   4.1781391020e+01     1.179195    0.4206522  52.69  0.003629298    3.474    0.712
       171  -9.5843    125.5503     94.4380   8.4234793286e+01   3.8730082533e+01    0.2791768    0.2621279 -16.04 9.850761e-05    1.125    0.111
       172 -11.1869    121.6971     92.0294   8.4563492559e+01   4.0071525931e+01      0.83604    0.3249562  42.28  0.002440004    2.793    0.642
       173  -8.6544     94.0183     97.4726   9.3891588092e+01   4.4270596698e+01    0.2050754      0.14904  39.28 0.0003908883    1.498    0.333
       174 -10.4597     39.2514     96.8820   1.1080843254e+02   5.2073009495e+01    0.5577309    0.3350382 -11.63  0.002422338    3.030    0.670
       175 -10.0555    140.3617     95.2723   8.0707161458e+01   3.5281500760e+01    0.4054081    0.2770315  48.00 0.0007691212    1.510    0.338
       176  -9.4042    227.1896     95.3817   6.3625426062e+01   1.5053813428e+01    0.2970697      0.18071  59.86 0.0009758209    1.915    0.478
       177  -9.2100    188.9292     94.9948   7.0073110503e+01   2.3900819339e+01    0.2311558    0.2159088 -23.35  0.000360175    1.026    0.025
       178  -9.5769    150.7422     95.9536   7.8416854650e+01   3.2762312492e+01    0.4353053    0.3091224  73.42  0.001017557    1.863    0.463
       179 -10.2231    104.0073     92.2849   8.9564719028e+01   4.3604408359e+01    0.5135295    0.3333407  33.18  0.001983878    1.795    0.443
       180 -11.0751    107.2661     86.4451   8.6934240025e+01   4.4261588030e+01    0.7635793    0.5386159  12.25  0.003282467    2.127    0.530
       181  -9.0486    213.8393     89.7458   6.4258625554e+01   1.8947419336e+01    0.3011056    0.1734261 -52.61  0.001237724    2.060    0.515
       182  -8.8540    187.4918     89.8778   6.8919143476e+01   2.5147316387e+01    0.2263321    0.1468658 -35.25 0.0004245494    1.463    0.316
       183  -8.5112    194.4845     89.5310   6.7525422084e+01   2.3530976722e+01    0.1537001    0.1449528 -35.32 0.0008095008    1.028    0.028
       184 -11.4699    133.8757     80.4668   7.7881557696e+01   3.9779187701e+01      1.97478    0.8425519 -46.82  0.006860947    2.405    0.584
       185  -9.9972    150.6013     59.1004   6.6922675157e+01   3.9691510895e+01    0.4759578    0.3818978  69.13  0.002295612    1.365    0.267
       186 -10.3980    143.5868     58.2008   6.8177894845e+01   4.1599011339e+01    0.2753754    0.2630245 -22.42  0.000305562    1.023    0.023
       187 -11.1398    145.9557     85.7580   7.6546960908e+01   3.5912796344e+01     1.575377     0.843475 -20.82  0.005222963    3.011    0.668
       188 -11.3299    149.1870     53.3448   6.5262157331e+01   4.1002503346e+01    0.8278229    0.4274102  55.82   0.00327035    1.952    0.488
       189 -11.2261    150.6456     67.2820   6.9634081197e+01   3.8259023671e+01     1.199788    0.7445436 -33.27  0.005101536    1.579    0.367
       190 -10.4095    140.8091     52.0485   6.6659232501e+01   4.3321657184e+01    0.4133163    0.3799697 -78.80  0.001301568    1.196    0.164
       191 -10.0515    144.7283     48.8895   6.4665882221e+01   4.2845662536e+01    0.4949637    0.2677886  56.32 0.0008248595    1.862    0.463
       192 -11.1012    142.5803     43.3699   6.3149030648e+01   4.4242942111e+01    0.7110241    0.5567482  24.90  0.003033116    1.426    0.299
       193 -10.6892    135.8359     41.6280   6.3993474029e+01   4.6206192145e+01    0.4463984    0.3806218 -80.39  0.002268915    1.378    0.274
       194 -11.8571    146.8927     74.9476   7.2968381116e+01   3.7774212986e+01    0.3483883    0.3327874   8.81  0.001825373    1.083    0.076
       195 -11.4638    139.8432     72.7561   7.3938470272e+01   3.9882990303e+01     1.028793     0.605994 -46.55  0.001701718    1.722    0.419
       196  -9.7595    112.5028     88.0109   8.5909252505e+01   4.2861215943e+01    0.3444401    0.2047288 -31.55  0.001294063    1.972    0.493
       197 -11.1847    114.7878     95.3264   8.7384049888e+01   4.0790342906e+01    0.9551293    0.4041854  50.49   0.00336857    2.668    0.625
       198 -10.1813    160.8146     81.7247   7.1944059519e+01   3.3117521002e+01     0.486556    0.3800907  58.22  0.001472515    1.351    0.260
       199  -8.8143     75.7570     83.6931   9.5817624852e+01   5.0520257640e+01    0.2653273    0.1590146  58.83  0.001136898    2.312    0.567
       200  -8.7793    123.3420     80.1170   8.0516630191e+01   4.2225664922e+01    0.2433483    0.1843166 -21.29   0.00067129    1.507    0.337
       201 -10.1567    189.8342     77.1620   6.4843737175e+01   2.6761971550e+01    0.7804829    0.2914558  40.91  0.002324194    3.749    0.733
       202  -9.7611    214.6946     76.5138   6.0541773530e+01   2.0846682225e+01    0.4381524    0.3011246 -48.64  0.002079124    1.469    0.319
       203 -10.9928    123.2092     74.8696   7.8872762278e+01   4.3321470933e+01     1.730126    0.4323037  41.19  0.004071321    5.820    0.828
       204 -10.7316    101.2740     68.6867   8.3075538435e+01   4.9244522563e+01    0.4986613     0.431625 -54.89  0.001723148    1.180    0.153
       205 -10.7288    125.3687     68.3966   7.6151950492e+01   4.4106311403e+01    0.7094043    0.4243139 -47.53   0.00297525    1.705    0.413
       206 -10.8255    120.2268     64.4554   7.6176196740e+01   4.6031293935e+01    0.6786267     0.362979  56.40  0.002676799    2.136    0.532
       207 -10.3447    107.8893     68.1287   8.0916845642e+01   4.8000375183e+01     0.583116    0.3229562 -36.70  0.002419067    1.766    0.434
       208 -11.4373    115.3198     69.9714   7.9414315650e+01   4.6042726725e+01      0.74567    0.5762783  55.09  0.003340683    1.411    0.291
       209 -10.6060    111.8519     63.8115   7.8280272761e+01   4.8010005868e+01     0.402346    0.3105704 -28.36 0.0008776773    1.293    0.226
       210  -9.7721    163.5464     74.8870   6.9263061473e+01   3.3693197341e+01    0.4856564    0.3588511  67.64 0.0004407598    1.530    0.347
       211 -10.7178    153.7554     45.0641   6.1439458772e+01   4.1124319502e+01     1.110822    0.6429008 -55.78  0.004382881    2.174    0.540
       212  -9.7583    155.9805     31.4669   5.6227676194e+01   4.2443214776e+01      0.47851    0.2557631 -12.99  0.001121656    2.345    0.574
       213 -10.3696    155.4650     39.0536   5.9002641462e+01   4.1552784149e+01      0.97717    0.5052601 -70.10  0.002907862    4.254    0.765
       214 -10.2754    148.1061     34.8353   5.8908406756e+01   4.4050158331e+01    0.7786738    0.2578517  60.83  0.002547764    2.963    0.662
       215  -8.7715     34.2973    219.3479   1.2482907686e+02   2.5663621178e+01    0.1345542    0.1213458 -51.45 0.0008689244    1.769    0.435
       216  -9.6586     27.2443    212.4993   1.2569415516e+02   2.7674377980e+01     0.226137    0.1243175  51.15  0.001511385    1.441    0.306
       217  -8.8551      2.7210    213.6358   1.3002007129e+02   2.9848944816e+01   0.08994138   0.06834271 -69.21 0.0007011839    1.676    0.403
       218  -9.2782     13.5145    211.5247   1.2807259962e+02   2.9232826922e+01    0.2167245   0.08386589 -83.95  0.001229941    2.265    0.558
       219 -10.6781    160.7872     50.6489   6.1971205085e+01   3.8457218386e+01    0.9113721    0.4218726  74.39  0.002848746    3.519    0.716
       220 -11.7556    166.6989     68.3278   6.6563017761e+01   3.4054077505e+01    0.5077893     0.419806  87.31 0.0002446058    1.412    0.292
       221 -11.4820    164.7134     60.4090   6.4427153749e+01   3.5889787862e+01    0.8180783    0.5304347 -25.11 0.0005291356    1.605    0.377
       222  -8.7181    218.8795     74.2544   5.9297226952e+01   2.0209838137e+01    0.3017958    0.1416807 -42.98 0.0008967073    2.026    0.506
       223  -8.6355    204.5120     75.4861   6.1859812187e+01   2.3444533637e+01    0.2675415    0.1293896  46.20  0.001025754    2.266    0.559
       224  -8.3592    216.2576     71.3297   5.8884116330e+01   2.1274406775e+01    0.1454979    0.1127226   6.59 0.0002923557    1.561    0.360
       225  -9.1307    176.7419     68.7222   6.4727317907e+01   3.1449580703e+01    0.3325615    0.2426365 -57.16  0.001129616    1.523    0.343
       226  -9.1098    180.2112     68.6095   6.4045820057e+01   3.0591980887e+01    0.3314297    0.1535356  56.36   0.00122902    2.209    0.547
       227  -8.6139    238.2256     65.7849   5.4423486342e+01   1.7015695100e+01    0.1946229    0.1609914   5.29 0.0009780828    1.395    0.283
       228  -8.3682     93.6697     65.7438   8.4427762555e+01   5.1343666877e+01    0.1444979    0.1139398  -0.08 0.0002285155    1.560    0.359
       229 -10.5516    131.4612     62.0520   7.2411827213e+01   4.3871348229e+01    0.8860669    0.4391495  68.31  0.002290681    3.469    0.712
       230  -8.8370    137.6528     59.2721   6.9932290972e+01   4.2875127078e+01    0.3418052    0.2198161  36.31  0.001101949    1.763    0.433
       231  -9.5570    207.0137     60.6770   5.7258328762e+01   2.5119495336e+01    0.3306928    0.2051677 -31.23 0.0007943882    1.504    0.335
       232 -10.2963    201.7251     48.4683   5.4471584176e+01   2.8210518692e+01     1.606125    0.4693855  66.95  0.004073882    4.081    0.755
       233  -8.8030    187.0238     61.8002   6.0764195556e+01   2.9963951829e+01    0.2909369    0.2168286 -70.78 0.0004469046    1.608    0.378
       234  -9.7381    179.2898     44.7498   5.6734079667e+01   3.4514523885e+01    0.3420232    0.2799883   0.48 0.0006849506    1.397    0.284
       235 -10.3409    172.2742     47.5089   5.8810634875e+01   3.5946010117e+01    0.4659478     0.371117  56.94   0.00144586    1.272    0.214
       236 -11.1431    185.0291     55.9310   5.9303025968e+01   3.1381155559e+01    0.4143326    0.3659361  33.32 0.0002973331    1.224    0.183
       237 -11.2844    183.4760     51.7951   5.8276108526e+01   3.2403236930e+01    0.7179248    0.2871532  50.90 0.0005291572    2.538    0.606
       238  -9.1546    211.9386     59.7282   5.6274867606e+01   2.4050445473e+01    0.2610498    0.2046432   4.58 0.0005994099    1.538    0.350
       239  -9.4833    202.0970     58.5205   5.7368482140e+01   2.6661702477e+01    0.5326761    0.3054883  -8.09  0.002008508    2.576    0.612
       240 -10.0632    222.4910     56.6302   5.3979981915e+01   2.1948322751e+01    0.5358531    0.3679618  19.50  0.001772583    2.016    0.504
       241  -8.8079    227.0530     53.4813   5.2546616799e+01   2.1305776190e+01    0.1926932    0.1422249  64.37 5.246601e-05    1.472    0.321
       242  -9.7705    243.7610     55.7725   5.1188388104e+01   1.7164307680e+01    0.4831634    0.2091841 -35.93  0.002054049    1.915    0.478
       243  -8.9703    248.3591     76.2063   5.5818086600e+01   1.3336052522e+01    0.2121907    0.1062603 -38.37 0.0009455898    1.711    0.415
       244  -9.3668    244.3202    204.5843   8.4438161663e+01  -3.4650821432e+00    0.1862611    0.1162949  -0.82 0.0002260215    1.587    0.370
       245  -9.9017    133.3157     54.9801   6.9464621849e+01   4.4674992159e+01    0.5851272    0.3012173 -19.98  0.002062566    2.633    0.620
       246  -9.4511    135.4817     50.5266   6.7345811639e+01   4.4892556669e+01    0.2910101    0.1458356 -35.04  0.001011741    1.918    0.479
       247  -8.2866     12.9897     56.6224   1.1198260081e+02   6.3733822600e+01    0.2700514    0.1374611  25.05  0.001465032    2.408    0.585
       248  -9.9396    233.5373     55.2129   5.2224422374e+01   1.9554661110e+01    0.3152534    0.2803741 -30.02 0.0008872371    1.069    0.065
       249 -10.2687    193.9204     54.7758   5.7513208588e+01   2.9281217804e+01    0.4852539    0.3436104  36.68  0.002248888    1.635    0.388
       250  -8.7442    211.2210     52.3166   5.4270679178e+01   2.5293949056e+01    0.3447783    0.1820759  25.09  0.001127613    3.791    0.736
       251  -8.6561    126.8481     51.1093   6.9659103591e+01   4.6892931355e+01    0.2118991    0.1996215 -57.83 0.0003719546    1.132    0.117
       252  -9.2955    224.4517     48.7655   5.1582327384e+01   2.2568494747e+01    0.3223003    0.1690435 -31.43  0.001412335    1.712    0.416
       253  -9.8336    220.0553     43.4881   5.0658045481e+01   2.4335938597e+01    0.4962938    0.2270227 -41.48  0.001607241    1.958    0.489
       254  -8.1820    175.6696    204.3130   9.6412987466e+01   7.6289448663e+00    0.1208502     0.094765  66.57 0.0007044036    1.674    0.403
       255 -10.1067    174.0417     57.3041   6.1655031617e+01   3.3995207245e+01    0.4457907    0.2648143 -20.00  0.001211792    1.915    0.478
       256  -9.9465    207.1492     45.9149   5.2978407070e+01   2.7198492356e+01    0.3239916    0.2451371  75.63 0.0006605583    1.415    0.293
       257  -8.9869    124.3111     35.5287   6.4334883732e+01   4.9956754248e+01    0.3180811    0.2567429 -39.60  0.001029676    1.261    0.207
       258  -9.8797    130.6639     41.0856   6.4978121776e+01   4.7573762417e+01    0.6507124    0.2667918 -27.06  0.002279062    2.585    0.613
       259  -9.3234    127.0692     39.7517   6.5320229197e+01   4.8658427488e+01    0.3372801    0.2401924  11.48  0.001035643    1.741    0.426
       260  -8.7041    249.0118     44.9317   4.7882620689e+01   1.7427542317e+01     0.209416    0.1607083  18.78  0.001130228    1.710    0.415
       261 -10.6045    226.4393     28.9259   4.5968058584e+01   2.4630304815e+01    0.5962563    0.3811633 -49.74  0.003002678    1.447    0.309
       262 -10.0600    233.1008    199.2484   8.5336863927e+01  -1.1286282488e+00     0.330046    0.2895588  89.17  0.002094817    2.195    0.544
       263  -9.1989     27.3785    193.7594   1.2455478598e+02   3.1271438007e+01    0.1997316    0.1236765 -75.57  0.001144359    1.504    0.335
       264  -9.4438     33.0006    191.5161   1.2330880153e+02   3.1131182925e+01    0.2085069    0.1084679 -46.48   0.00102785    3.453    0.710
       265  -9.6536     11.0330    192.2004   1.2758375353e+02   3.3173008894e+01    0.2335738    0.1396431  41.32  0.001593129    1.656    0.396
       266  -8.6681    215.8229    189.2138   8.6486375444e+01   2.9748814708e+00    0.1811125    0.1302639  12.68 0.0008807296    1.344    0.256
       267  -9.2447      1.4934    188.5022   1.2919810843e+02   3.4748074085e+01    0.2114663   0.08250072 -82.05  0.001183362    2.083    0.520
       268  -8.9239    244.9823    187.4947   8.1233417400e+01  -1.5546537044e+00     0.172889    0.1075998  36.45 0.0004638245    1.522    0.343
       269  -9.9772     11.5818    184.8385   1.2708737486e+02   3.4599653114e+01    0.2027503    0.1435104 -69.66 0.0008008815    1.517    0.341
       270 -10.1191    214.4206     41.0637   5.0658907499e+01   2.6038179378e+01    0.5634535    0.3115725 -15.21  0.000893401    2.186    0.543
       271 -11.0034    218.3521     35.0817   4.8516538007e+01   2.5838900555e+01     1.108417    0.4246228  72.84  0.004008604    3.031    0.670
       272  -8.7238    224.6862     41.9722   4.9699474747e+01   2.3415848651e+01    0.2528412    0.1892155  37.02  0.001296218    1.612    0.380
       273 -10.5529    177.7928     51.4901   5.9137684516e+01   3.3919640055e+01    0.5387731    0.4710673  -8.06  0.001294388    1.224    0.183
       274  -8.5800    250.0308     40.4728   4.6666139519e+01   1.7767985869e+01    0.1839785    0.1326882  71.26  0.001015607    1.547    0.354
       275  -9.3525    235.7615     39.2703   4.7771906263e+01   2.1146835894e+01    0.2439117    0.2055852 -31.69 0.0005364759    1.118    0.105
       276  -9.1695    191.0909     39.9717   5.3425583139e+01   3.2103689191e+01    0.2623523     0.203554   5.97  0.000542821    1.564    0.361
       277 -10.8409    193.1522     32.2728   5.0773006791e+01   3.2570646485e+01    0.5078561    0.3823813   7.25   0.00247781    1.650    0.394
       278 -10.3138    180.8985     38.2383   5.4393567856e+01   3.4993208785e+01    0.4916175    0.3878492 -61.02  0.001827923    1.330    0.248
       279  -9.0695    183.4500     33.5034   5.2501076091e+01   3.4945543638e+01     0.335395    0.1934936  42.96  0.001243634    1.959    0.489
       280  -9.0096    173.8276     39.0958   5.5790401356e+01   3.6732675120e+01    0.3301415    0.2245266  39.11  0.001496387    1.641    0.391
       281  -9.1472    198.0674     37.1988   5.1615664695e+01   3.0670867614e+01    0.2224871    0.1969189  31.53 0.0006555599    1.264    0.209
       282  -8.5146    159.1763     35.9269   5.7224693123e+01   4.1013756558e+01    0.2011546    0.1853011 -36.65  0.000426072    1.078    0.072
       283 -10.6361    135.9602     33.9047   6.1052851608e+01   4.7290966015e+01    0.6093219    0.3741285   7.84  0.002418601    2.370    0.578
       284  -8.5286    139.9807     26.9399   5.7566725601e+01   4.7184111422e+01    0.2160168    0.1899307   7.47 0.0003203089    1.182    0.154
       285  -9.4465    202.3869     34.5746   5.0272748606e+01   2.9903322203e+01     0.256814    0.1932925 -68.66  0.001130535    1.402    0.287
       286  -8.0607    130.2998     35.3170   6.2849971821e+01   4.8512815025e+01    0.1553907    0.1119735  21.29 0.0007020358    1.616    0.381
       287 -10.3194      1.7713    179.0120   1.2869858896e+02   3.6637552688e+01    0.4965815    0.1206549 -84.37  0.002049024    3.689    0.729
       288  -8.8340     18.1511    182.2483   1.2564101217e+02   3.4519827981e+01    0.1648682   0.09633088  66.36 0.0006234433    1.378    0.274
       289  -8.8602     36.9635    179.4864   1.2160198811e+02   3.3181861254e+01    0.1684932    0.1009328  44.22   0.00102363    1.580    0.367
       290  -8.7903     79.7346    176.8543   1.1214030448e+02   2.8362234571e+01    0.1963602    0.1533525 -53.28  0.001186499    1.506    0.336
       291 -10.0458    246.2030     33.5803   4.5292546413e+01   1.9470309963e+01    0.5317913    0.2316045  63.69  0.001601881    2.441    0.590
       292  -8.8675      7.5291    174.6098   1.2732288834e+02   3.7062566265e+01    0.2183877   0.08728826 -81.92  0.001170764    2.037    0.509
       293  -9.3474    242.4646     25.0163   4.3458551249e+01   2.1336577156e+01    0.3236393    0.1511207 -36.95  0.001430703    1.775    0.437
       294  -8.8789    177.4122     14.7184   4.7262905837e+01   3.8733144232e+01    0.4061299    0.1292211  73.50  0.001291932    3.445    0.710
       295  -9.8398    172.9215     31.3943   5.3389613961e+01   3.7986041800e+01    0.4612193    0.2852654  33.27  0.001965772    1.994    0.499
       296  -9.1724    188.8151     19.8535   4.7485777174e+01   3.5178047142e+01    0.3151489    0.2135061  32.36 0.0007875173    1.804    0.446
       297 -10.4862    167.9788     24.2152   5.1733354974e+01   4.0172150007e+01    0.6395786    0.2417049  51.17  0.002120805    2.587    0.613
       298  -9.0801    245.8474    171.0979   7.7919409901e+01   3.6955206453e-01    0.1845361    0.1676607 -13.81  0.001238628    1.283    0.220
       299 -10.4855     33.1364    165.2710   1.2123260301e+02   3.6644139527e+01    0.2735566     0.190478  53.72 0.0006632128    1.334    0.251
       300 -10.2802    185.6693     24.6835   4.9397432839e+01   3.5447489515e+01    0.5588427     0.226512 -38.95  0.002133384    2.283    0.562
       301  -9.7731     18.4161    165.3685   1.2445975236e+02   3.8062576872e+01    0.2416261    0.1581778  74.68  0.001574122    1.231    0.188
       302  -8.6344    198.5474     31.9931   4.9988553828e+01   3.1212265625e+01    0.2184889    0.1387127 -27.77 0.0005801268    1.536    0.349
       303  -9.1141    146.8642     29.1169   5.7051176718e+01   4.5127836916e+01    0.3724867    0.3073389 -82.98  0.001661206    1.376    0.273
       304  -9.7577    147.8867     23.9021   5.4934388343e+01   4.5505875070e+01    0.3520825     0.215411  55.42  0.001075861    1.562    0.360
       305 -10.0147    249.2094     25.5383   4.3021901018e+01   1.9756425190e+01    0.3378875    0.2671301  32.88  0.001641997    1.641    0.391
       306  -9.1827    136.3297     25.3126   5.7670984078e+01   4.8323310208e+01    0.2812724    0.1709075  -8.69 0.0006930064    1.961    0.490
       307  -9.7904     11.0994    164.7223   1.2598516328e+02   3.8851816716e+01    0.2850009     0.118282  41.53   0.00135522    2.214    0.548
       308  -9.1207    198.8654     16.2708   4.5244930017e+01   3.2965507867e+01    0.2579848    0.1789953  53.12  0.001296991    1.514    0.340
       309  -8.5709     85.5547     16.0000   6.6340659245e+01   6.1424342036e+01    0.2857822    0.1808261  73.31  0.001280137    2.523    0.604
       310  -9.9396      2.6387    161.1535   1.2756843068e+02   4.0314272973e+01    0.3129444     0.153755 -71.11  0.001863165    1.742    0.426
       311  -9.0182     67.4917     13.0562   7.0975876657e+01   6.5367035152e+01    0.2078999    0.1905465  67.94  0.001295822    1.489    0.329
       312  -9.4494      1.4340    156.7883   1.2757126709e+02   4.1349763472e+01    0.2247472    0.1148455 -71.96  0.001352151    1.650    0.394
       313 -10.1236     18.3203    158.9295   1.2400488338e+02   3.9477732465e+01    0.1875536    0.1645306  53.92 0.0006103978    1.332    0.249
       314  -8.4726      9.1124    158.8367   1.2602864388e+02   4.0294358040e+01    0.1491037    0.1138379 -69.98 0.0004755922    1.364    0.267
       315 -11.4461     13.7851    151.2945   1.2444699639e+02   4.1567471697e+01    0.6349899    0.3408999  87.43  0.002721005    1.551    0.355
       316  -9.9337      3.8878    136.6894   1.2567024044e+02   4.5630342659e+01    0.4094664    0.2493663 -44.26  0.002385478    2.191    0.544
       317  -9.4841      8.1057    151.1143   1.2572728272e+02   4.2074126882e+01    0.3325173    0.1444923 -77.28 0.0004024474    1.816    0.449
       318 -10.3102      5.4727    147.0869   1.2604704564e+02   4.3174890499e+01    0.2320257    0.2053465 -89.98  0.001201994    1.254    0.203
       319 -10.9316      6.0955    142.6787   1.2558745206e+02   4.4114714111e+01    0.4093575    0.3285257 -79.91   0.00203094    1.184    0.155
       320 -10.3396     46.6505    144.3806   1.1588541755e+02   3.9899987032e+01    0.5445901     0.401141  57.71  0.003318625    1.313    0.238
       321 -10.5961     22.1567    136.8434   1.2118035491e+02   4.4134597797e+01    0.5752925    0.4240298 -46.15  0.003642789    1.692    0.409
       322  -9.4692     31.4422    134.4096   1.1855964041e+02   4.3841049515e+01    0.2078105    0.1863188 -81.08  0.000453723    1.183    0.155
       323 -10.1985     35.8926    151.7615   1.1932801988e+02   3.9376139898e+01    0.2864682    0.1789892  58.07 0.0004298869    1.499    0.333
       324 -10.5953     30.7026    151.3929   1.2051976232e+02   3.9989369689e+01    0.2753353     0.176863 -63.12  0.001002967    1.510    0.338
       325 -11.7416     29.7689    144.3028   1.2004423409e+02   4.1702283298e+01     0.778331    0.3850461 -54.66  0.004003564    2.134    0.531
       326  -9.4513     27.0929    140.1381   1.2027937273e+02   4.2920394429e+01      0.38512     0.142137 -56.78  0.001734107    2.604    0.616
       327 -10.5140     40.0952    146.4807   1.1775085850e+02   4.0140590343e+01    0.3224112     0.235382  45.82 0.0007773766    1.428    0.300
