#   1 NUMBER                 Running object number                                     
#   2 MAG_AUTO               Kron-like elliptical aperture magnitude                    [mag]
#   3 X_IMAGE                Object position along x                                    [pixel]
#   4 Y_IMAGE                Object position along y                                    [pixel]
#   5 X_WORLD                Barycenter position along world x axis                     [deg]
#   6 Y_WORLD                Barycenter position along world y axis                     [deg]
#   7 A_WORLD                Profile RMS along major axis (world units)                 [deg]
#   8 B_WORLD                Profile RMS along minor axis (world units)                 [deg]
#   9 THETA_WORLD            Position angle (CCW/world-x)                               [deg]
#  10 FWHM_WORLD             FWHM assuming a gaussian core                              [deg]
#  11 ELONGATION             A_IMAGE/B_IMAGE                                           
#  12 ELLIPTICITY            1 - B_IMAGE/A_IMAGE                                       
         1  -9.0579    123.4465     40.2231   1.9319406191e+01   4.9552597014e+01    0.2847528    0.2174584  31.57 0.0004165851    1.576    0.365
         2  -9.4657     97.6355     12.2818   1.3889106040e+01   5.9572225506e+01    0.3177351     0.205854  -4.61  0.001358937    1.950    0.487
         3 -10.4142     41.0873     13.7968   3.5304684264e+01   7.1548437365e+01     0.242522    0.1882889  22.62 0.0002345187    1.206    0.171
         4  -8.3384     80.1675     12.1628   1.8439442460e+01   6.3761334607e+01    0.1803083    0.1564308 -67.74 0.0005428328    1.353    0.261
         5  -8.3011     64.6584      9.2881   2.2035062126e+01   6.7537506539e+01     0.124935     0.102403 -76.46 0.0003043995    1.645    0.392
         6  -8.2321     97.8607      4.8264   1.0477560369e+01   6.0231999892e+01    0.1759678    0.1489649 -72.40 0.0003883027    1.275    0.216
         7  -8.4144     65.1328      4.8691   1.9368128636e+01   6.7897646392e+01    0.1766161    0.1338895  27.93 0.0002653134    1.281    0.219
         8  -7.8316     52.0218      3.0470   2.3309641153e+01   7.0834719565e+01    0.1479864    0.1292718  23.03 -0.001877172    1.016    0.016
         9  -8.9995      2.7081      2.9265   5.5943020010e+01   7.8245652122e+01    0.1947802    0.1361327  -4.10  0.000646388    1.324    0.245
        10  -9.6178     67.5397      1.3752   1.6580476233e+01   6.7696710891e+01    0.2291067    0.1121731  59.98 0.0003008642    1.864    0.463
        11 -10.8507     73.4672    244.6664   7.5702471605e+01   1.3454778879e+01    0.3059442    0.2224799  33.63 0.0006133206    1.251    0.201
        12  -9.5992    213.6871    250.3044   4.8927890700e+01  -5.5017918292e+00    0.2879305    0.1045051  29.24  0.001451172    2.377    0.579
        13  -9.5161    205.0284    249.6941   5.0339317656e+01  -4.4303375163e+00    0.2174907    0.1779406  31.52  0.001635852    1.479    0.324
        14  -9.2823    157.6459    221.4359   5.5297813389e+01   5.8888973450e+00     0.237612    0.1997214  15.15 0.0008151414    1.064    0.060
        15 -10.6823    169.7509    224.9180   5.3365317141e+01   3.5911567378e+00    0.5436918    0.4178765  25.84  0.003494852    1.122    0.109
        16 -11.3865    174.0846    245.0538   5.5341849828e+01  -1.3320382404e-04    0.8794768    0.5513327 -57.67  0.005099982    2.557    0.609
        17 -11.5381    166.8207    248.0335   5.7113946907e+01   5.1865040879e-01    0.8782007    0.3155461  37.07  0.004203838    2.331    0.571
        18 -11.1609    161.9269    231.3083   5.5831888244e+01   3.6788764568e+00     1.110668    0.3160169  38.98  0.004398379    3.083    0.676
        19 -11.3171    162.3704    225.7067   5.4953079488e+01   4.5087011570e+00    0.5471253    0.3266473  20.73  0.002504679    1.660    0.397
        20 -10.8292     54.1556    248.8338   7.9968066905e+01   1.5045866536e+01     0.457554    0.3317341  -1.46   0.00239831    2.322    0.569
        21 -10.1715     12.9687    250.0802   8.8163025254e+01   1.9282740454e+01    0.2971097    0.1410504  43.25   0.00182257    1.506    0.336
        22 -11.2072     18.9702    247.6659   8.6919920387e+01   1.9132691525e+01    0.5950287    0.2492436  53.43  0.003386365    1.721    0.419
        23 -11.0988      8.5541    242.0360   8.8753817317e+01   2.1231545846e+01    0.5566856    0.2793464  58.32  0.003444241    1.461    0.315
        24  -9.9429      4.0243    249.0821   8.9830372091e+01   2.0330130270e+01    0.2760518    0.1383666  48.72 0.0007544691    1.382    0.276
        25  -9.8156      1.9759    244.9560   9.0107113710e+01   2.1295582408e+01     0.262183    0.1530124  73.76  0.001156319    1.398    0.285
        26 -10.1835    239.6841    242.6307   4.3525463366e+01  -7.4522950187e+00    0.3450507    0.1557833   7.64  0.001645677    3.103    0.678
        27 -10.9430    236.7452    239.9166   4.3593094360e+01  -6.8261807828e+00    0.4724117    0.2573028  -0.78  0.002323006    1.892    0.471
        28 -10.8668     98.1902    241.6108   7.0252364272e+01   1.0785540874e+01    0.4553752    0.2296613  30.21  0.001035248    1.767    0.434
        29  -9.3950    250.4383    241.7031   4.1703956923e+01  -8.4587222811e+00    0.1841456    0.1147396 -23.52 0.0006612656    1.391    0.281
        30  -9.8940    248.7735    237.6022   4.1346696645e+01  -7.8300614747e+00    0.2048505    0.1658144   8.16  0.001568939    1.338    0.252
        31  -8.8296    221.2923    239.9919   4.6151499639e+01  -5.1172473683e+00    0.1741066    0.1303275  22.23 0.0006309227    1.286    0.223
        32 -10.5822    107.7908    238.1260   6.7873352841e+01   1.0103004215e+01    0.3768612    0.2975589 -71.11  0.002455189    1.541    0.351
        33 -10.1596    231.1223    234.4850   4.3689993592e+01  -5.5598944352e+00    0.2674341    0.1988963 -12.31 0.0007969246    1.142    0.124
        34  -9.2018     15.1305    237.2498   8.7285604451e+01   2.1519284496e+01    0.3671668   0.02905482  33.31  0.001309572    4.443    0.775
        35  -9.9796    114.8623    220.8671   6.4374819215e+01   1.2277398720e+01    0.2821663    0.2490675 -85.58   0.00111308    1.314    0.239
        36 -11.9617     89.6131    230.5148   7.1008528185e+01   1.3996466309e+01     1.306273    0.8437441 -76.49  0.007472401    1.852    0.460
        37  -9.6513    104.8670    226.0667   6.7192357365e+01   1.2727417655e+01    0.2585914    0.2044978 -73.14 0.0009841392    1.485    0.327
        38 -10.1643    108.4932    222.5016   6.5982314912e+01   1.2889450483e+01    0.3951898    0.2860574   9.28  0.001616712    1.739    0.425
        39 -11.8919     98.6820    225.5503   6.8500533391e+01   1.3698951008e+01    0.6849302       0.5599 -88.66  0.001641559    1.393    0.282
        40 -10.3331     99.9813    217.4658   6.7306370548e+01   1.5102557618e+01    0.3608902    0.1961908  48.03 0.0008528292    1.673    0.402
        41 -10.6634    238.1783    230.5112   4.1935294705e+01  -5.8657762895e+00    0.3433274    0.2302488  -0.78  0.001592592    1.219    0.180
        42 -10.4897    242.7365    225.4024   4.0412035638e+01  -5.7508819077e+00    0.3621373    0.1729508 -31.03   0.00194373    1.861    0.463
        43 -11.4330     95.8082    218.0467   6.8319995638e+01   1.5583860936e+01     0.584271    0.3343198  49.93  0.001635581    1.605    0.377
        44  -9.8983    117.6641    227.6029   6.4576962633e+01   1.0615537123e+01    0.3731352    0.2205858  43.99  0.001126248    1.485    0.327
        45  -9.6335    184.6818    226.6798   5.0729450154e+01   1.2599461635e+00    0.2561107    0.2457422 -52.98  0.001848691    1.481    0.325
        46  -9.5850    181.4669    226.5006   5.1316202856e+01   1.7233884911e+00     0.242994    0.1905054  24.46 0.0008279278    1.129    0.114
        47  -9.3290     82.8613    227.0618   7.2159921209e+01   1.5581014344e+01    0.2564541    0.1994236  15.36  0.001250324    1.541    0.351
        48 -11.6937    126.4933    221.3111   6.1877113446e+01   1.0487467627e+01    0.8152131    0.4954523 -69.71  0.003006024    2.310    0.567
        49  -8.4924     73.1122    224.3725   7.4080741580e+01   1.7415205113e+01    0.1805539    0.1336768  44.98 0.0005335662    1.115    0.103
        50  -9.0583     66.7086    223.6496   7.5450165538e+01   1.8393918078e+01    0.2059678    0.1454905 -61.15 0.0008269001    1.650    0.394
        51  -9.0270    144.8651    227.7977   5.8825211998e+01   6.6660562672e+00    0.1887302     0.151694  13.81 0.0005704755    1.199    0.166
        52  -9.2614    219.2284    219.2144   4.3306381310e+01  -2.1846159748e+00    0.2847253    0.1898284 -10.93  0.001827757    1.375    0.273
        53  -8.7841    213.4829    220.5473   4.4516125054e+01  -1.6439709776e+00    0.2813196    0.1258871  38.43  0.001453832    2.315    0.568
        54 -10.0259    132.8853    220.8137   6.0426321505e+01   9.6354044580e+00    0.3436995    0.2373711 -76.96  0.001839682    2.141    0.533
        55  -9.7515    131.0422    214.7126   6.0000462777e+01   1.1035361901e+01     0.315915    0.2644053 -76.37  0.001115409    1.481    0.325
        56  -9.2547    128.0268    211.7214   6.0254584703e+01   1.2059706147e+01    0.2321722    0.1793283  58.96 0.0004088287    1.432    0.302
        57  -8.7352    149.3864    219.7438   5.6767153355e+01   7.3862686947e+00    0.2187523    0.1763695 -42.60  0.000790621    1.396    0.284
        58  -9.1631    151.9399    215.9897   5.5688004650e+01   7.6604412386e+00    0.2974802    0.1896422  14.17  0.001100779    1.802    0.445
        59  -9.7967     75.3623    218.6379   7.3042670924e+01   1.8292353969e+01    0.3332056    0.3136099  76.79  0.001402218    1.176    0.150
        60  -9.5700     61.3120    218.3798   7.6224599841e+01   2.0177400645e+01    0.4561468    0.1675796 -50.90  0.001782708    3.861    0.741
        61  -9.7766     63.6609    213.1246   7.5230808496e+01   2.0997132530e+01    0.4527949    0.2164583  51.96  0.001843778    1.859    0.462
        62  -9.8723    190.4346    216.0637   4.8001559976e+01   2.0716988370e+00    0.4182487    0.2850082 -20.45  0.002101631    1.482    0.325
        63 -10.4333     84.6527    214.7102   7.0513995075e+01   1.7839871035e+01    0.5702586    0.2740454 -66.36  0.002690716    2.325    0.570
        64  -9.3816    176.1777    216.1847   5.0776807531e+01   4.0686008475e+00    0.2481637    0.1573805 -34.50  0.001404816    1.651    0.394
        65  -8.3873    143.6129    216.8084   5.7570103158e+01   8.7606549505e+00    0.1583298    0.1267809 -64.68 0.0007164235    1.576    0.366
        66  -9.0990     23.7990    216.5939   8.4544093467e+01   2.4887167734e+01    0.4515956   0.08515038  35.49  0.001757095    3.266    0.694
        67 -10.2204    170.6900    215.2581   5.1725405634e+01   5.0138817806e+00    0.2621559    0.2205821  14.42 0.0006902979    1.028    0.027
        68 -10.0593    113.4948    212.5434   6.3634975589e+01   1.4097110521e+01    0.6135517    0.4135833  -8.88  0.002930473    2.419    0.587
        69  -9.8133    121.7545    222.6006   6.3074895415e+01   1.0944477094e+01    0.3182999    0.2270875  48.47  0.001486359    1.330    0.248
        70 -10.0446     17.8365    214.7241   8.5766569214e+01   2.5894256925e+01    0.2415456     0.155879 -67.58  0.001457792    1.732    0.423
        71  -8.7239    228.3405    214.1209   4.0937960251e+01  -2.6255697002e+00    0.1907662    0.1336301  10.03 0.0006501374    1.255    0.203
        72  -9.2614    202.5244    211.5314   4.5020974037e+01   1.0908981914e+00    0.3739285    0.1571006 -39.29  0.001809241    2.372    0.578
        73 -10.2291     77.6630    211.1556   7.1771071659e+01   1.9556460987e+01    0.3244322    0.2989022  43.33  0.001983539    1.151    0.131
        74 -10.6544    212.0027    207.9690   4.2725852850e+01   3.3488671455e-01    0.5379286     0.396803 -18.57  0.003503365    1.209    0.173
        75  -8.9980    212.0494    203.4594   4.1956486488e+01   9.9331496287e-01    0.3028858     0.165282  20.81  0.001103249    1.954    0.488
        76  -8.8784    237.8507    210.3086   3.8751990802e+01  -3.2730231795e+00    0.1602478    0.1397865  25.44  0.001187972    1.495    0.331
        77 -11.8678     14.4826    197.5994   8.5696156426e+01   3.0035535306e+01     1.149915    0.3370876 -60.31  0.002033254    3.820    0.738
        78 -10.8519     20.0388    182.0956   8.3456566787e+01   3.3165569265e+01    0.5469556    0.4263772 -72.53  0.003351957    1.330    0.248
        79 -10.1575     11.4187    187.4911   8.5915008422e+01   3.2675654889e+01    0.2586723    0.2130414  43.60 0.0005365228    1.257    0.204
        80 -11.6285     12.3697    180.0069   8.5276474452e+01   3.4383153794e+01    0.8839571    0.5165411 -58.47  0.004697842    1.924    0.480
        81 -11.1722      5.3322    176.6544   8.6881917436e+01   3.5798517775e+01    0.5602615    0.3800642 -77.32   0.00211947    1.380    0.275
        82 -11.6735      3.7359    169.4556   8.6932612545e+01   3.7688234706e+01    0.3665578    0.2626816 -85.74 0.0002333998    1.218    0.179
        83  -8.5207    224.5206    205.6615   4.0171280946e+01  -9.8069821030e-01    0.1479507     0.103789 -38.35 0.0009331641    1.533    0.348
        84  -8.3884     98.7648    206.1599   6.6237855143e+01   1.7603168986e+01    0.2379712    0.1242491  65.44 0.0009488405    2.845    0.649
        85  -9.4016    129.4100    201.3763   5.8458215687e+01   1.3869248858e+01    0.5180797    0.3108695  67.61  0.002177168    2.816    0.645
        86  -9.7680    126.5390    196.7701   5.8427591809e+01   1.5259010653e+01    0.3629236     0.270479   7.73  0.001176245    1.652    0.395
        87  -9.1657    124.6863    192.6853   5.8236186096e+01   1.6404958928e+01     0.303735    0.1915207 -51.64  0.001497802    1.708    0.414
        88  -9.8312    166.9298    199.0594   4.9894162903e+01   8.3604463203e+00    0.3264107    0.2515014  -9.05 0.0008358657    1.396    0.284
        89 -10.0657    171.4661    201.0363   4.9288966137e+01   7.3069364118e+00    0.3469542    0.2863131 -68.31  0.001245004    1.699    0.412
        90 -11.3378    178.3184    196.6099   4.7152721532e+01   7.0167594714e+00    0.8128104     0.480584 -30.22  0.002687661    1.816    0.449
        91 -11.1878    172.9471    195.5313   4.8056517281e+01   8.0434705680e+00    0.7068036    0.2865644 -43.82  0.001713259    2.537    0.606
        92  -9.3633     60.9131    200.4812   7.4720925967e+01   2.4152488284e+01    0.5004627    0.1349868  40.39  0.001861593    2.815    0.645
        93  -8.6365    212.7937    198.8562   4.1033394101e+01   1.5805736336e+00    0.1868826     0.138733  -9.30 0.0005223194    1.221    0.181
        94  -8.3462    101.2700    199.6861   6.4816523168e+01   1.8607519719e+01    0.1875754    0.1252223  25.51  0.000265635    1.582    0.368
        95  -9.4025    105.2411    197.5674   6.3579031425e+01   1.8455286035e+01    0.2669152    0.2250918 -18.51  0.000944522    1.489    0.328
        96  -8.4590    144.7578    198.2237   5.4519505463e+01   1.2039576454e+01     0.190651    0.1540921  -1.17   0.00106792    1.381    0.276
        97  -9.3141    112.3881    197.7922   6.1902123033e+01   1.7293818934e+01    0.5212689    0.2116447  54.72  0.001719709    3.782    0.736
        98  -8.9675    113.0267    194.2792   6.1246400263e+01   1.7942163499e+01    0.2248484    0.2035308 -31.88 0.0003427189    1.260    0.207
        99  -9.3425     51.2837    197.9827   7.6849126213e+01   2.5941453414e+01    0.3504753   0.09446533  35.59   0.00130711    2.897    0.655
       100  -9.1497      1.3409    197.1072   8.8726018380e+01   3.1323517636e+01    0.2819184   0.08693988  84.85  0.001107181    3.130    0.681
       101  -7.5459     38.6562    196.7020   7.9837906924e+01   2.7731076055e+01    0.1200412    0.1002187 -35.11 0.0003717389    1.671    0.402
       102  -8.7634     40.2936    193.3511   7.9174926911e+01   2.8328585919e+01     0.232654     0.112128 -43.52   0.00092347    3.457    0.711
       103  -8.4872    131.5957    194.8153   5.6957164112e+01   1.4842286450e+01    0.1833096    0.1347016 -70.33 0.0009460723    1.686    0.407
       104  -8.6252     66.8106    195.2482   7.2742238004e+01   2.4574108946e+01    0.2373536    0.1396878  54.93  0.001166377    1.572    0.364
       105 -10.9550    176.1441    185.1735   4.5576430777e+01   9.3899496690e+00    0.5415064    0.4544916 -62.19  0.002069614    1.519    0.342
       106  -8.2684     55.6856    194.3297   7.5426279434e+01   2.6241041714e+01    0.1476824   0.08482608  61.93 0.0007044805    1.676    0.403
       107 -10.5568     90.1134    173.6650   6.3993225375e+01   2.6296586256e+01    0.7780486    0.5174534 -52.00  0.002551824    1.612    0.380
       108  -9.8790    104.0042    189.2701   6.2718839466e+01   2.0469811694e+01    0.3180283    0.2304157  40.35 0.0008706339    1.261    0.207
       109 -11.7796     97.8495    188.3770   6.4122081549e+01   2.1636583469e+01    0.6557117    0.4311411  72.89   0.00175549    1.880    0.468
       110  -8.7491     60.7170    192.1550   7.3950136072e+01   2.6103341946e+01    0.2504168    0.1557812  47.06  0.001285275    1.405    0.288
       111  -8.0791    116.9719    191.0356   5.9818816039e+01   1.8006666229e+01    0.1658519    0.1508833  43.86 0.0003772354    1.009    0.009
       112  -8.7636    185.8618    189.8719   4.4473544667e+01   7.0067615241e+00    0.2520367    0.2106258  33.85  0.001064061    1.235    0.190
       113  -9.5282    183.2871    185.4559   4.4186919401e+01   8.1850093453e+00    0.2909894     0.191966 -53.95  0.001488578    1.874    0.466
       114 -10.8730     93.8058    181.8332   6.4221499679e+01   2.3775163186e+01    0.5335793    0.3419892 -35.76  0.001962633    2.142    0.533
       115  -9.5238    203.9798    187.8373   4.0666207550e+01   4.5742536149e+00    0.2924723    0.2606631  74.35   0.00173216    1.736    0.424
       116  -8.4127    199.2942    185.4001   4.1089204294e+01   5.6838378124e+00    0.2658414     0.122388  37.63   0.00122698    2.193    0.544
       117  -8.0602    138.5815    189.5166   5.4499310306e+01   1.4774406956e+01    0.1367428    0.1286418  34.77 0.0002008091    1.032    0.031
       118  -8.5370    155.2274    187.4524   5.0414527388e+01   1.2413826404e+01    0.2423767    0.1667456 -29.67  0.001180123    1.625    0.385
       119  -8.9575    250.2569    185.6440   3.2569680955e+01  -1.4626785601e+00    0.2122055    0.1225184 -39.86  0.001258529    1.695    0.410
       120  -8.0263    165.3453    186.6849   4.8097318575e+01   1.0882589161e+01    0.1331837    0.1083416  71.07 0.0007047767    1.716    0.417
       121  -9.2768    111.2211    179.5346   5.9445371537e+01   2.1494012630e+01    0.5628725    0.2028251  34.44  0.001987879    2.716    0.632
       122  -9.6288    105.3494    174.7825   6.0177997974e+01   2.3564333867e+01     0.521637    0.2970754  75.24   0.00166843    3.134    0.681
       123  -9.6332    108.6878    185.3519   6.0981360247e+01   2.0596762736e+01    0.3528373    0.2512733  75.55  0.001395743    1.735    0.424
       124  -9.0581    111.3502    184.3198   6.0163928688e+01   2.0394355118e+01    0.2466486    0.2135581  10.40 0.0006885592    1.318    0.241
       125  -9.8703    210.7323    184.0896   3.8761688028e+01   4.1727521330e+00     0.388751    0.2313724  -5.08  0.001866326    2.293    0.564
       126  -7.7678    120.0000    184.9766   5.8146880686e+01   1.8823415707e+01    0.2256746   0.08173147 -55.57 0.0008040177    2.953    0.661
       127  -9.1553    228.5155    183.7069   3.5641958661e+01   1.6802660787e+00    0.2477752    0.1745332 -14.38   0.00152429    1.291    0.225
       128  -8.6199    217.8266    182.9250   3.7302872629e+01   3.3162888356e+00    0.1986052    0.1491175  -3.02 0.0008883577    1.275    0.216
       129  -9.5641     46.1311    181.9667   7.6700702653e+01   3.0378914100e+01    0.3677911    0.2081299 -64.79  0.001206442    1.768    0.434
       130  -9.3568     46.6410    176.7920   7.6066198920e+01   3.1594294250e+01    0.6100975    0.2249333 -85.13  0.002073654    3.550    0.718
       131  -8.4117    196.8305    181.8358   4.0894648201e+01   6.6649701904e+00    0.1665655    0.1564574 -47.29 0.0006743525    1.313    0.239
       132  -9.6788    181.8627    180.2212   4.3507998409e+01   9.3513822268e+00    0.2372201    0.1799089 -48.57  0.001313857    1.447    0.309
       133 -10.5713    152.0472    174.7042   4.8831505582e+01   1.5499274015e+01    0.4689553    0.3257616 -29.48  0.001954825    1.630    0.387
       134 -10.0969    148.5255    174.5361   4.9599985106e+01   1.6152649131e+01    0.4020287    0.2743179 -55.42  0.001833272    1.607    0.378
       135  -8.8891    138.7555    179.8338   5.2812474176e+01   1.6748504665e+01    0.3491749    0.2292001  66.60   0.00153141    2.241    0.554
       136  -8.4954    240.5105    177.9212   3.2659954645e+01   8.9660859755e-01    0.1793087   0.09966229 -32.49 0.0005700369    1.516    0.340
       137  -8.3983    219.0403    177.9994   3.6179192062e+01   3.9130936876e+00    0.1711984    0.1535748 -61.90 0.0005203536    1.589    0.371
       138  -9.4176    158.1714    177.0701   4.7905181372e+01   1.3954667241e+01    0.3604585    0.2260915 -35.53  0.001721325    1.705    0.413
       139 -10.3168    204.1253    175.6460   3.8374693973e+01   6.5672710869e+00    0.4479938    0.2768459  28.59  0.002182645    1.698    0.411
       140 -10.0012     29.1170    175.1956   8.0604704184e+01   3.3954095592e+01    0.3953877    0.2394475 -78.71  0.001680196    1.517    0.341
       141  -9.6074     28.8132    170.0791   8.0273662659e+01   3.5267630010e+01    0.2150125    0.1761475  76.66 0.0007672571    1.022    0.022
       142 -10.1269    103.0321    178.7550   6.1397968526e+01   2.3020088068e+01    0.7109008    0.4383533  68.41  0.003058772    2.144    0.533
       143  -9.2446     77.5443    175.8369   6.7653121269e+01   2.7684591979e+01    0.3387173      0.19181  55.28  0.001155994    1.792    0.442
       144  -9.4861     19.3851    166.3113   8.2553418320e+01   3.7139886280e+01    0.2636127    0.1146117 -86.24 0.0006691348    2.140    0.533
       145  -9.9193     24.0163    174.3374   8.1893045692e+01   3.4683328119e+01    0.3131697    0.1666656  70.14  0.001224706    1.757    0.431
       146 -10.8725    207.5171    168.8364   3.6448110164e+01   7.1795549615e+00    0.5834156     0.314317 -45.01  0.002839173    1.876    0.467
       147  -8.3240    193.4778    172.5025   3.9763913483e+01   8.8213613803e+00    0.1368275    0.1178488  -8.57 5.828982e-05    1.075    0.070
       148  -9.3539    177.6867    168.2882   4.2071818495e+01   1.2268245704e+01    0.3760395    0.3056193  86.30  0.001966382    1.851    0.460
       149  -8.3780    135.1595    171.2171   5.2121513874e+01   1.9223560287e+01    0.2005745     0.169349  64.77  0.001056453    1.311    0.237
       150  -9.1948    121.5317    169.7481   5.5204599922e+01   2.1960758445e+01    0.3464677    0.2328195  65.44  0.001029909    1.888    0.470
       151  -8.7114     55.1891    169.4689   7.2948895955e+01   3.2369408402e+01    0.3525192    0.1590397  67.78   0.00125623    3.029    0.670
       152 -11.1956    217.7082    165.2772   3.3969323067e+01   6.1648156589e+00    0.5861806    0.3966182  16.73  0.002873321    1.696    0.410
       153  -9.5518    159.3632    164.6784   4.5269495264e+01   1.6244249879e+01    0.5362713    0.2126538 -48.91    0.0019885    2.604    0.616
       154 -10.4611    150.0292    163.8754   4.7222029289e+01   1.8115706571e+01    0.5125428    0.4116721 -23.15  0.001980977    1.380    0.275
       155  -9.0666    139.1673    165.1164   5.0016411389e+01   1.9835363898e+01    0.3506459    0.2357179  85.18  0.001412395    2.612    0.617
       156  -9.8040     99.8963    159.5582   5.9071242034e+01   2.8136230768e+01    0.3648544    0.3151245 -53.96  0.001038677    1.206    0.171
       157  -9.5902     98.2153    165.2703   6.0502218308e+01   2.7021649237e+01    0.5054738    0.2869144  69.61  0.001755773    2.677    0.626
       158  -8.8101     92.6726    160.0191   6.1137262043e+01   2.9234370831e+01    0.3054963    0.1888458  54.71  0.001016157    1.690    0.408
       159  -8.6513     31.5078    166.4422   7.9222050443e+01   3.5910785758e+01    0.1368954    0.1177121  78.16 -2.435469e-05    1.038    0.036
       160 -11.1420    250.0839    154.8267   2.6872474533e+01   2.9850071276e+00    0.7338411    0.1629002 -36.09  0.002576333    3.786    0.736
       161  -8.7134     80.5875    164.4809   6.5206671130e+01   3.0042631905e+01    0.4003769    0.2117356  77.67  0.001393966    3.135    0.681
       162  -9.5417      9.3460    162.4350   8.5039291839e+01   3.8993218768e+01    0.4604274    0.1362484 -87.83  0.001619529    3.358    0.702
       163  -9.1853     15.0017    163.2434   8.3539191894e+01   3.8311406017e+01    0.2536889    0.1973056 -11.90  0.001448142    1.839    0.456
       164  -9.6121     21.1680    160.8316   8.1643197184e+01   3.8370795479e+01    0.3733206    0.2508483 -34.64  0.001906301    2.098    0.523
       165  -9.8143     25.6666    159.9435   8.0296185907e+01   3.8170223243e+01    0.5204775     0.277604 -10.26  0.001927894    4.144    0.759
       166  -8.2714    122.9264    162.6942   5.3566251276e+01   2.3330859732e+01     0.245365    0.1256308  17.47 0.0007025811    4.442    0.775
       167  -9.5832    229.2631    160.8277   3.1187282741e+01   5.1073839271e+00    0.2473734    0.1709539  22.42  0.001067969    1.617    0.381
       168  -8.1640    177.3195    160.6669   4.0622331009e+01   1.3793086789e+01    0.1378176    0.1143458 -86.50 0.0005821236    1.696    0.411
       169 -10.1453    219.2433    158.8848   3.2445073766e+01   6.9765739124e+00    0.3428143    0.2172866  61.55  0.001639523    2.724    0.633
       170 -10.2601    143.2210    158.4514   4.7738680736e+01   2.0546051741e+01    0.6648655    0.2517226  47.19  0.002247234    2.872    0.652
       171  -9.2777    167.2845    157.7944   4.2145744827e+01   1.6190720895e+01    0.2980269    0.2565358 -83.01  0.001592433    1.476    0.323
       172  -8.8096    127.9174    156.9414   5.1196092167e+01   2.3744316375e+01    0.3784378    0.2128621 -51.76  0.001597833    1.800    0.445
       173  -9.3368    105.4076    157.5806   5.7218902172e+01   2.7668139584e+01    0.3521529    0.2457473  68.70  0.001130526    1.711    0.416
       174  -8.9128     37.2217    164.3573   7.7428539970e+01   3.5829191054e+01    0.2905495    0.1658044  57.67  0.001385968    1.653    0.395
       175  -8.7830    225.0464    157.5058   3.1211223024e+01   6.2884899678e+00    0.1746217    0.1262964  37.55  0.000519301    1.551    0.355
       176  -9.9763    208.3630    156.7408   3.3886770343e+01   9.1126188634e+00    0.4655717     0.242048  36.61  0.001583982    2.117    0.528
       177 -11.4342    206.0146    150.0854   3.2930614043e+01   1.0675526140e+01    0.6094496    0.5158318 -58.54  0.003559876    1.404    0.288
       178  -9.2662    200.2125    166.8890   3.7398431900e+01   8.6992987045e+00    0.2211189    0.1801505  15.49 0.0003640915    1.242    0.195
       179  -9.7452    157.7754    155.1848   4.3698239341e+01   1.8505958668e+01     0.372512    0.1980384 -55.80  0.001422919    2.196    0.545
       180  -9.2116     49.7524    155.1237   7.2780672289e+01   3.6760831892e+01     0.421573    0.2150771  62.94  0.001443283    2.207    0.547
       181 -10.1177    134.3911    153.5775   4.8899202756e+01   2.3298882468e+01    0.5741563    0.3719597  70.10  0.001749767    2.344    0.573
       182  -8.8692    119.5305    154.6933   5.2911366402e+01   2.5822072413e+01    0.3078781    0.2072377  85.42  0.001253643    2.238    0.553
       183  -9.7113     81.6706    153.6551   6.3187344438e+01   3.2624653259e+01    0.5060158    0.3100417 -78.63  0.001896352    1.846    0.458
       184 -10.0243     68.4719    153.4729   6.7015255657e+01   3.4673795418e+01    0.5610389    0.3333407 -87.76  0.002264207    1.966    0.491
       185  -8.4104      6.0000    155.0034   8.5511523964e+01   4.1143668296e+01    0.2184407   0.06422354 -80.69 0.0007278754    2.916    0.657
       186  -8.7993    100.0174    153.7594   5.7998945887e+01   2.9549235480e+01    0.2407264     0.197638  69.27 0.0005169458    1.261    0.207
       187  -8.3514     98.5126    150.5209   5.7820982082e+01   3.0619166929e+01    0.2877099    0.1842528  86.93   0.00114546    2.216    0.549
       188 -10.5219    223.4103    148.4324   2.9642980011e+01   8.0378467941e+00    0.4446487    0.3793401  -4.78  0.002003876    1.164    0.141
       189  -9.0929    190.0610    150.7394   3.6019284657e+01   1.3383038546e+01    0.2434464    0.2318887  82.10  0.001059097    1.265    0.210
       190  -8.7643     89.0573    151.0916   6.0616478889e+01   3.2083242485e+01    0.4677248    0.1806266  43.15  0.001646042    2.489    0.598
       191  -8.2233     22.9844    151.4877   8.0333493915e+01   4.0624586986e+01    0.1997064   0.08057268  50.44 0.0008074739    2.356    0.576
       192  -9.2062    121.2081    149.2155   5.1377764478e+01   2.6809549956e+01    0.3339266    0.2430782 -12.50  0.001434447    2.051    0.512
       193  -9.9466    115.4593    143.8539   5.1808184981e+01   2.9184470220e+01     1.388694    0.4521416  53.89  0.002825215    7.824    0.872
       194  -9.0600    106.9013    138.2994   5.3015798808e+01   3.2163050403e+01    0.3040755    0.2576085  49.49 0.0007890596    1.172    0.147
       195  -8.9197     28.0228    148.7776   7.8571299619e+01   4.0855193723e+01     0.451324    0.1791566  76.66  0.001524745    3.427    0.708
       196  -9.7846     39.5399    146.9149   7.4857247362e+01   4.0138528677e+01    0.6783292    0.2797816  67.02  0.002242664    3.515    0.716
       197  -8.8991    142.7189    147.0289   4.5485906446e+01   2.3170843042e+01    0.2755021     0.247763 -24.44  0.001449414    1.181    0.153
       198  -9.6790    158.6227    145.2437   4.1386616434e+01   2.0440061180e+01    0.6252835    0.3532128 -13.77  0.001749108    5.211    0.808
       199  -8.8870    133.7691    147.1998   4.7728431680e+01   2.4876021809e+01     0.215486    0.1845451 -10.10  0.001073167    1.386    0.278
       200  -9.1199     77.7094    146.7560   6.3187818918e+01   3.5034162365e+01    0.2687959     0.183206 -60.61  0.001048239    1.431    0.301
       201 -10.1122     57.3921    145.5213   6.9168191175e+01   3.8315771681e+01    0.8169849    0.3160434  37.09  0.002918226    2.426    0.588
       202  -8.8381    195.2579    145.3301   3.3880215491e+01   1.3446009549e+01    0.3478105    0.1434416 -47.48   0.00100949    2.501    0.600
       203 -10.0561    148.6502    144.5830   4.3539039699e+01   2.2546804896e+01    0.5081213    0.3366177 -78.99   0.00195643    2.509    0.601
       204  -9.5752    107.1432    144.9093   5.4312391912e+01   3.0475330456e+01     0.597717    0.3584836  75.92  0.002118706    2.866    0.651
       205  -8.3745     13.0774    146.0366   8.2828228845e+01   4.2910895266e+01    0.2299098    0.1261201  62.06 0.0006423737    1.716    0.417
       206 -10.7567     70.3332    142.7371   6.4739891772e+01   3.7220177646e+01    0.6324289    0.4335594 -84.80  0.002889241    1.550    0.355
       207  -8.3882    165.7355    144.1475   3.9573948242e+01   1.9276268971e+01    0.2400351    0.1642284 -89.70 0.0009406891    2.742    0.635
       208  -9.2249    137.8162    143.5955   4.5943688725e+01   2.4908485247e+01    0.3093129    0.1132175 -46.84  0.001022716    2.709    0.631
       209  -9.6117    125.2916    143.0088   4.9008217817e+01   2.7500592261e+01    0.4726093    0.3062694 -84.40  0.001669456    2.498    0.600
       210  -9.3398     88.0053    143.5539   5.9549877648e+01   3.4192294542e+01    0.3803765    0.2361513  87.80  0.001493145    2.248    0.555
       211  -8.8960      3.0349    142.5216   8.5586189221e+01   4.4570841407e+01    0.4089139    0.1239666  74.40  0.001297927    4.135    0.758
       212  -9.5833    245.1033    143.1734   2.5290612925e+01   5.4764713462e+00    0.2438814    0.1369645  21.66  0.001164159    2.763    0.638
       213  -8.9260     48.0048    139.0459   7.1174332195e+01   4.1253200752e+01    0.3141694    0.1817625 -64.39  0.001425365    1.590    0.371
       214  -9.9559     40.6319    135.5839   7.3069819962e+01   4.3054297983e+01    0.4878957    0.3979446 -15.06   0.00166016    1.607    0.378
       215  -9.4238     45.8522    134.0505   7.1148635649e+01   4.2860945373e+01    0.4430465    0.2332941  88.11  0.001163554    2.274    0.560
       216 -10.5479     42.5866    129.3080   7.1533533009e+01   4.4528704339e+01    0.4358802    0.3538123  54.03  0.001441277    1.230    0.187
       217  -9.8936    192.5227    133.5574   3.1801949785e+01   1.6159791961e+01    0.2524675    0.2223755 -69.90 0.0008606469    1.316    0.240
       218 -11.0108    197.6147    136.2823   3.1472980918e+01   1.4684908175e+01    0.5338537    0.4017502  -2.56  0.002312647    1.656    0.396
       219  -9.9670    202.9842    136.0401   3.0458527631e+01   1.3731855593e+01    0.2768481     0.240515  41.52 0.0006515575    1.280    0.219
       220  -9.7648     81.9440    137.2273   6.0177981777e+01   3.6846212775e+01    0.4532501    0.2601431 -54.01  0.001909974    1.708    0.415
       221  -9.4282     23.7843    138.5181   7.8842654241e+01   4.3982523139e+01    0.4662957    0.2103747  62.62  0.001646615    2.445    0.591
       222  -9.3956     21.8961    131.9821   7.8764157419e+01   4.5900711025e+01    0.6721125    0.2446716 -45.17  0.002317483    3.658    0.727
       223  -9.9086    234.4242    136.6646   2.5511698796e+01   8.1731293108e+00    0.3105998    0.2304002 -15.35  0.001332706    1.382    0.276
       224  -8.9122    161.4942    136.5443   3.8799519759e+01   2.1709174941e+01    0.2914852    0.2298666  30.87  0.001446071    1.382    0.276
       225  -8.3875    148.3191    137.3609   4.2006078732e+01   2.4204027296e+01    0.1593337    0.1214806  -9.24 0.0007042782    1.768    0.434
       226  -8.8204    124.2998    136.3286   4.7806842089e+01   2.9282082146e+01    0.1566516    0.1247771 -14.67 0.0004564433    1.641    0.391
       227  -9.3524     57.6475    135.6632   6.7562099152e+01   4.0919175276e+01    0.4069277    0.2128991   4.16  0.001247572    4.535    0.780
       228 -10.1915    207.4057    142.7116   3.1128765788e+01   1.1737358429e+01    0.3755889    0.2559307 -74.00  0.001664788    2.731    0.634
       229 -10.6622    243.1465    132.1436   2.3329059537e+01   7.4948295788e+00    0.4033076    0.2562933 -52.42  0.002205935    1.759    0.432
       230 -10.2021    132.3358    131.5125   4.4605817785e+01   2.8795578685e+01     0.477167    0.2911701 -60.49  0.001252582    1.833    0.454
       231  -9.3662    135.7907    124.0196   4.1935338595e+01   2.9809598109e+01    0.3025187    0.2169107  35.64  0.001356872    1.521    0.343
       232 -10.3140     99.4188    128.0067   5.2957226707e+01   3.6154257861e+01    0.9458176     0.468349 -70.56  0.003086279    3.002    0.667
       233  -9.9704    121.5273    111.8552   4.2638517656e+01   3.5678994296e+01    0.7789525    0.4002972 -49.97  0.002964929    1.906    0.475
       234 -11.0866    108.1277    113.4048   4.6870773083e+01   3.8105058285e+01      1.24959     1.005741 -39.33  0.005933728    1.321    0.243
       235  -9.7318    110.4708    125.5167   4.9147697747e+01   3.4652166000e+01    0.4721981    0.3464897  34.64  0.001507708    1.463    0.317
       236 -10.3454    109.8276    130.4932   5.0476904865e+01   3.3546524817e+01    0.6743947    0.4846414  11.97  0.002300597    2.026    0.506
       237  -9.4772    105.2220    123.5817   5.0220355097e+01   3.6162289260e+01    0.2980399    0.2755998  10.01  0.001104111    1.246    0.198
       238  -9.7952    108.7443    120.9653   4.8564426615e+01   3.6119403147e+01    0.3571172    0.2884294 -54.55 0.0008260189    1.210    0.174
       239 -10.4381    116.7593    125.0080   4.7247214512e+01   3.3519676016e+01    0.9000862    0.5222261 -39.95  0.003567916    1.922    0.480
       240 -10.1562    118.0033    118.6493   4.5350803244e+01   3.4802601858e+01    0.7312433    0.2609589 -47.35  0.002210236    2.756    0.637
       241  -9.8628     83.7667    131.8623   5.8559384939e+01   3.7946809573e+01    0.4798368    0.3152846  71.99  0.001508612    1.927    0.481
       242  -8.9999    208.8945    132.0866   2.8568918296e+01   1.3356020433e+01    0.3165648    0.1986215  61.01  0.001506833    2.178    0.541
       243  -8.5301    143.0253    131.2684   4.1870634487e+01   2.6648052556e+01    0.2296351    0.1712232 -73.18 0.0006877003    1.649    0.394
       244  -9.3316     12.9222    129.3939   8.1453458409e+01   4.7321573338e+01    0.4175298     0.192432  65.00  0.001760118    2.316    0.568
       245 -10.3730    247.2198    128.9302   2.2114060808e+01   7.3537233863e+00    0.3840558    0.3008321 -71.13  0.002339474    1.796    0.443
       246  -8.6242    168.8242    129.9976   3.5694642535e+01   2.1580696786e+01    0.2541332    0.1710017 -69.48  0.001069105    2.100    0.524
       247  -9.6936     72.9886    128.7298   6.1356721241e+01   4.0531504400e+01    0.5382296    0.2662046 -74.09  0.001936354    2.467    0.595
       248  -9.2859    152.8196    127.6531   3.8685177374e+01   2.5404267342e+01    0.6693836    0.2074509 -48.85  0.002002953    3.314    0.698
       249  -8.7006    232.9215    128.0000   2.3915943222e+01   9.8268563760e+00    0.1912704   0.07633696  49.19 0.0008116195    3.006    0.667
       250 -10.2366     59.7985    124.1151   6.4846282347e+01   4.3732592491e+01    0.7115289    0.3559302  72.05  0.002259439    3.615    0.723
       251 -10.1984     44.0775    122.6146   6.9987502986e+01   4.6170422664e+01    0.7237114    0.3545187  73.35   0.00251911    3.108    0.678
       252 -10.2963     28.6959    120.7144   7.5090625588e+01   4.8321574150e+01    0.9399458    0.4152959 -71.71  0.003894494    1.981    0.495
       253  -8.6868    219.1752    124.1743   2.5156546738e+01   1.2865717124e+01    0.1817694    0.1514541 -58.64 0.0006889252    1.314    0.239
       254  -9.8245    180.7250    121.2187   3.1190196397e+01   2.0893003166e+01    0.6018407    0.3397289 -25.38  0.002369688    2.352    0.575
       255  -8.9310     84.2539    122.3180   5.6390159258e+01   4.0358671125e+01    0.3626777    0.2105451 -22.45  0.001127597    3.848    0.740
       256 -10.0720     22.5384    110.2296   7.5882786907e+01   5.1706278032e+01    0.6007283     0.241349 -77.11  0.002336679    2.324    0.570
       257 -10.7157     23.5376    102.3513   7.4342369440e+01   5.3738705111e+01    0.8623338    0.3455815  61.45  0.002795149    4.032    0.752
       258 -10.1617     21.5530     92.9039   7.3608201019e+01   5.6418703864e+01    0.6050022     0.263271 -46.13  0.002495769    2.294    0.564
       259 -10.7441     15.3990    113.9524   7.8983654609e+01   5.1270046345e+01    0.9439319    0.3210802 -66.82  0.003701556    2.332    0.571
       260 -10.7859     16.2885    105.2975   7.7575473236e+01   5.3523820251e+01    0.6135221    0.3930749 -36.61  0.002679648    1.787    0.440
       261  -9.0051    158.6642    120.5611   3.5634160967e+01   2.5687734924e+01    0.5488833    0.2074849 -48.83  0.001822481    2.687    0.628
       262  -8.5111    188.9776    121.2238   2.9620650575e+01   1.9201793597e+01    0.2291118    0.1632943  18.68  0.001057777    1.950    0.487
       263  -9.3084    172.7690    119.0643   3.2257784239e+01   2.2987795551e+01    0.4590154    0.1913394 -36.97  0.001623335    2.486    0.598
       264  -9.4924    141.5869    118.6530   3.9156649834e+01   2.9788547102e+01    0.5167298    0.2895366 -62.84  0.001387078    2.374    0.579
       265  -8.8636    141.2566    112.2942   3.7611492578e+01   3.1279809616e+01    0.4274851    0.2503709 -23.42  0.001471224    2.895    0.655
       266  -9.0434     71.2617    120.0983   6.0180346292e+01   4.3098543807e+01    0.3023892    0.1811082  61.03   0.00108396    2.041    0.510
       267  -9.6650    131.1564    118.1726   4.1677204799e+01   3.2142416065e+01    0.4498141    0.2839169 -74.48  0.001674124    2.409    0.585
       268  -9.4542      2.6515    116.7173   8.3790306508e+01   5.1369833625e+01    0.5007796    0.2077937  70.68   0.00201107    2.655    0.623
       269 -10.8121    184.6929    113.9200   2.8669796283e+01   2.1485657263e+01    0.4949513    0.3662902  82.37  0.001774105    1.834    0.455
       270  -9.8064     79.3612    112.7723   5.5828242323e+01   4.3693941887e+01    0.5256196    0.3370223 -88.73  0.001427299    2.185    0.542
       271  -9.8772     92.9010    112.5828   5.1344903139e+01   4.1299988117e+01    0.5252988    0.3489984 -86.28  0.001456907    2.120    0.528
       272  -8.2062    159.2917    111.6484   3.3254850065e+01   2.7429915568e+01    0.1600333    0.1190773 -74.45 0.0004789731    1.675    0.403
       273 -10.0198     66.2675    109.6382   5.9637508008e+01   4.6652651778e+01    0.7120654    0.2953262 -66.17   0.00242902    2.627    0.619
       274  -9.2897     61.6534    106.0252   6.0486302472e+01   4.8305700207e+01    0.3590332    0.2462181  42.21 0.0009632675    1.514    0.339
       275  -9.7043    133.7910    108.0394   3.8363932514e+01   3.3884086505e+01    0.5734984    0.2826314 -48.84  0.002139564    1.989    0.497
       276  -9.6785    197.0512    106.6234   2.4695372043e+01   2.0273548294e+01    0.2799712     0.248316  50.89 0.0007741362    1.261    0.207
       277  -8.7065     78.1777    105.9311   5.4581881528e+01   4.5671959488e+01    0.2967553    0.2133448  -2.81   0.00123974    2.140    0.533
       278 -10.3504     45.8720    102.2237   6.5597260531e+01   5.1456664860e+01    0.8805525    0.4056094  63.85  0.002702565    4.155    0.759
       279  -9.0763    139.8732    103.4581   3.5599456320e+01   3.3537156779e+01    0.5952404    0.2560005 -53.86  0.001955314    2.691    0.628
       280  -9.0702     93.3971    104.0181   4.8989656812e+01   4.3358305921e+01    0.4904184    0.2893849  19.19   0.00171936    2.867    0.651
       281  -9.1908     34.5357    103.5151   7.0241626610e+01   5.2391941702e+01    0.3533293    0.2179141  70.00  0.001111607    1.936    0.484
       282 -10.1655     29.1138    101.1081   7.1943762442e+01   5.3572734369e+01    0.5414819    0.2114362  43.84  0.001700485    2.793    0.642
       283 -10.1845    250.0220    101.6073   1.6061661514e+01   1.1112121175e+01     0.522234      0.18631 -28.96  0.001926862    3.357    0.702
       284  -9.1562    150.2317    103.2949   3.3094086761e+01   3.1219555292e+01    0.4275145    0.2201848 -58.18  0.001351672    2.448    0.592
       285 -10.8727    130.4303    100.9015   3.7287352709e+01   3.6237325358e+01    0.7456416    0.5511048   7.55   0.00280368    2.134    0.531
       286  -9.3805      6.8611    103.0785   8.0916040746e+01   5.4738535223e+01     0.211244    0.1596127  74.02 0.0005429262    1.286    0.222
       287 -10.6501    108.5326     98.7718   4.2821513932e+01   4.1545955985e+01    0.6483666    0.5384132  75.24  0.002197673    1.334    0.251
       288  -9.3220    108.7770     91.5039   4.0642747977e+01   4.3185014972e+01    0.5605783    0.3196894  26.62  0.001953357    2.795    0.642
       289  -8.8362     82.1561     99.7617   5.1618810657e+01   4.6539740800e+01    0.3457359     0.234161  89.71  0.001311027    2.107    0.525
       290 -10.1139     63.8736     95.8266   5.7211737782e+01   5.0634790080e+01    0.5486667    0.3354794  82.03   0.00186549    2.696    0.629
       291  -8.9138     94.9277     96.6922   4.6485084131e+01   4.4857582319e+01    0.3100145    0.2285151 -64.83 0.0007103322    1.427    0.299
       292  -8.5948    118.9921     94.0159   3.8419226339e+01   4.0355804628e+01    0.2560447    0.2037378  -2.66 0.0009857663    1.764    0.433
       293  -8.4409     83.5042     93.4895   4.9427878648e+01   4.7854862964e+01    0.2719246    0.1555345  26.02  0.001025828    2.326    0.570
       294  -9.6862     44.4146     91.9482   6.3938360742e+01   5.4351478640e+01    0.4710505    0.2782176   3.24  0.001709968    2.573    0.611
       295  -8.9151    138.8035     91.9060   3.2622210428e+01   3.6266075280e+01    0.3133499    0.2137924 -63.66  0.001331255    1.681    0.405
       296  -9.0970    126.5532     83.9448   3.3352804673e+01   4.0817449313e+01    0.5575786    0.3595754   6.86   0.00176964    3.832    0.739
       297  -8.6374     95.7059     91.2784   4.4668244990e+01   4.5999426391e+01    0.3269672    0.1846412 -31.11    0.0011666    2.534    0.605
       298  -9.0111     57.6751     91.9230   5.8607380372e+01   5.2575790592e+01    0.2115384     0.179483 -65.59 0.0003361613    1.114    0.103
       299 -10.0625      4.4344     90.7325   8.0425212928e+01   5.8122114934e+01    0.5134846    0.2654095  81.94  0.002305466    2.056    0.514
       300  -8.9927      7.6504     84.2703   7.8176329480e+01   5.9631938583e+01     0.364716    0.1787178 -57.65  0.001253125    1.693    0.409
       301  -8.9706     12.0215     83.4857   7.6129713229e+01   5.9575051768e+01    0.2929502    0.1942908 -38.26  0.001556194    1.556    0.357
       302  -8.9789      8.7402     80.6089   7.7132006670e+01   6.0517105515e+01     0.309557    0.1411532  38.81  0.001387736    2.443    0.591
       303  -9.8011     34.7088     88.9575   6.7312609230e+01   5.6237821852e+01    0.5673029    0.2842692 -84.10  0.002153952    2.660    0.624
       304  -9.3789     35.9971     81.5060   6.5061855145e+01   5.8029976310e+01    0.5154639    0.2755955 -26.80  0.002041122    2.699    0.629
       305  -9.1276     65.5085     86.6819   5.4130161172e+01   5.2696296957e+01    0.4635933    0.2638884  16.11  0.001732462    2.738    0.635
       306  -9.4316     86.5107     86.2072   4.6246703697e+01   4.9042858131e+01    0.4128692    0.2770464 -88.95  0.001335598    2.384    0.581
       307  -9.6389     48.2337     83.8081   6.0354076224e+01   5.5967015217e+01    0.4556739    0.2863811  73.09  0.001532891    2.383    0.580
       308  -9.4336    104.5603     82.7934   3.9262667253e+01   4.6076782796e+01    0.4745452    0.2931332 -70.44  0.001346457    2.393    0.582
       309  -9.9786    124.4891     90.5966   3.5903911238e+01   3.9868160121e+01    0.4583329    0.3070675 -77.81  0.001307907    2.174    0.540
       310  -8.8609    116.8546     82.9452   3.5682321253e+01   4.3282334147e+01    0.2298925    0.2114735 -10.69 0.0003179763    1.251    0.200
       311  -8.9240    119.5362     78.7626   3.3619665486e+01   4.3548642494e+01    0.5668629    0.2017929 -38.00  0.001729466    3.147    0.682
       312 -10.8339    186.6347     80.5682   1.9834002573e+01   2.7232251460e+01    0.5140861    0.3744417  28.76  0.002434645    1.950    0.487
       313  -8.9496    184.3116     77.6643   1.9440287056e+01   2.8273136573e+01    0.2758768    0.1255316 -46.63 0.0008110693    2.034    0.508
       314  -9.8332    192.1880     76.3614   1.7851841335e+01   2.6694420484e+01    0.3066743    0.2262872  35.93 0.0009719182    1.789    0.441
       315  -9.7496     24.5512     80.4407   6.9942998199e+01   5.9424348527e+01      0.43599     0.251521  77.20  0.001371099    2.383    0.580
       316  -9.4826     87.4746     80.1983   4.4041931963e+01   5.0257613402e+01    0.5370938    0.2856207  25.16  0.001812867    3.104    0.678
       317  -8.6671     74.7440     80.5530   4.8769150723e+01   5.2605746203e+01    0.2628623    0.1881989 -76.75 0.0009080349    1.764    0.433
       318  -8.5829    141.3017     79.3405   2.8311383123e+01   3.8238166524e+01    0.1550897    0.1268017   6.40  0.000417997    1.672    0.402
       319  -9.4944     49.5453     76.9939   5.7926412978e+01   5.7499667244e+01    0.4079832    0.2703143  -3.65  0.001338093    2.173    0.540
       320  -8.9597    105.9272     76.2461   3.6737983105e+01   4.7203259083e+01    0.4625885    0.2355837  29.22  0.001437938    3.557    0.719
       321  -8.7192    128.1062     75.2949   3.0252682894e+01   4.2224797385e+01    0.3135882    0.1934503 -65.84 0.0008769333    2.165    0.538
       322  -8.3082     13.6741     74.2770   7.3738396405e+01   6.1834850448e+01    0.1638616    0.1265789 -11.59 0.0002856667    1.476    0.322
       323  -9.7131     10.0174     74.0988   7.5440025957e+01   6.2109530181e+01    0.2111722    0.2080293  36.06 0.0003760754    1.179    0.152
       324  -8.1014    140.3163     74.6808   2.7112252826e+01   3.9385731090e+01    0.1630377    0.1183531 -75.05 0.0003703268    1.656    0.396
       325  -9.3035     82.6278     72.7441   4.3315726731e+01   5.2914061261e+01     0.401564    0.2884296  89.66  0.001400492    2.081    0.519
       326  -9.5995     26.7218     71.9854   6.7011677682e+01   6.1379007089e+01    0.4754482    0.2324043 -25.49  0.001837446    3.008    0.668
       327  -9.3552     31.0297     68.2515   6.3973665752e+01   6.1884694950e+01    0.3759743    0.2059638 -22.96  0.001570106    2.537    0.606
       328  -8.6520    106.0154     71.9317   3.5275513424e+01   4.8093223249e+01    0.2478594     0.189493 -82.33 0.0007597673    1.656    0.396
       329  -9.1779     95.3656     70.9894   3.8314018223e+01   5.0654603872e+01    0.3885345    0.2434109 -66.51  0.001309875    2.196    0.545
       330  -8.7766     42.3411     71.8457   5.9653013701e+01   5.9712119576e+01    0.2989221    0.1336424 -68.08  0.001096005    2.680    0.627
       331  -9.1304    129.1859     69.4615   2.8105438197e+01   4.3105820130e+01    0.4360322    0.2854367  18.02  0.001604873    2.831    0.647
       332  -9.6936     51.5897     69.4096   5.4738318537e+01   5.9050322185e+01    0.5141883    0.2451811 -69.23  0.001779965    3.175    0.685
       333  -9.5958     18.2803     61.5796   6.8627991790e+01   6.4669049073e+01    0.3899029    0.2063117 -40.17  0.001196338    1.824    0.452
       334  -9.0921      1.4663     69.0349   7.8696996462e+01   6.3824525516e+01    0.2047291    0.1087954 -71.86 0.0008056819    1.571    0.363
       335  -8.5627    147.3560     68.2139   2.3563680158e+01   3.8864555727e+01    0.2264073    0.1312936 -48.33 0.0005190478    1.692    0.409
       336  -8.3162     44.3330     67.3254   5.7378376454e+01   6.0550354782e+01    0.1513056    0.1024116 -26.98 0.0006151446    1.711    0.416
       337  -8.3627    121.4984     65.9983   2.8910218423e+01   4.5636354879e+01    0.2234412    0.1251146 -61.06 0.0008089062    2.415    0.586
       338  -9.4829     83.9489     64.3399   3.9897997658e+01   5.4470075674e+01    0.4650488    0.3026352   2.89  0.001700066    3.028    0.670
       339 -10.1803      8.9148     65.6551   7.4375745355e+01   6.4296187354e+01    0.3169011    0.1536163 -43.27  0.001496544    1.908    0.476
       340  -8.7812    110.0625     63.5260   3.1187489725e+01   4.8843741374e+01    0.2818113    0.2074147 -80.04 0.0009296417    1.774    0.436
       341  -9.0049     95.8140     63.7505   3.5622527225e+01   5.2058290796e+01    0.2558874    0.1713901   5.34 0.0009535117    2.771    0.639
       342  -9.2080     37.5878     63.9139   5.9526880300e+01   6.2208131909e+01    0.2864014    0.2024623  66.94  0.001392764    1.951    0.488
       343  -8.6726    106.0165     67.0421   3.3601843316e+01   4.9092497398e+01    0.2479412    0.1931306  13.08 0.0009989267    1.736    0.424
       344  -8.9426     16.5495     69.0925   7.1279916994e+01   6.2943781465e+01    0.5381456     0.173095 -75.73   0.00173857    3.858    0.741
       345  -9.6073     73.2893     59.1601   4.1991033147e+01   5.7674094189e+01     0.529681    0.2552335 -56.22   0.00142492    2.573    0.611
       346  -9.2637     75.7666     49.9744   3.7419414363e+01   5.9021571132e+01    0.4607942    0.2505163  23.94  0.001646042    3.124    0.680
       347  -8.5422    164.7814     59.4352   1.7574852998e+01   3.6059847897e+01    0.2046111    0.1357208  51.92 0.0009436132    1.622    0.383
       348  -8.3797    111.0016     58.3229   2.9071844736e+01   4.9604124167e+01    0.2147348    0.1928654  50.04  0.000501607    1.120    0.107
       349  -9.3195     38.9675     57.7061   5.6836761435e+01   6.3491731323e+01    0.2523183    0.1732346 -40.60  0.001297945    1.373    0.272
       350  -8.9295     24.4983     58.5191   6.4535695810e+01   6.4877401602e+01    0.2012964    0.1257199 -74.80 0.0009787428    1.783    0.439
       351  -8.8282     26.2408     54.7573   6.2471693882e+01   6.5597009390e+01    0.2684999    0.1494913 -11.59  0.001162795    2.536    0.606
       352 -10.1158      2.2285     55.9892   7.5943786308e+01   6.7004758891e+01     0.358284    0.2328154 -81.76  0.001904389    1.521    0.342
       353  -9.9959      7.3164     57.3125   7.3448613134e+01   6.6432115194e+01    0.3423726    0.2213797  61.79  0.001268859    1.988    0.497
       354 -10.3258      7.5710     51.4188   7.1917574283e+01   6.7828751599e+01    0.5805843          nan -51.71  0.001701578    4.793    0.791
       355  -9.6697    100.1605     55.0016   3.1021357857e+01   5.2766768468e+01    0.3228553    0.2244262  11.69  0.001340251    2.268    0.559
       356  -8.2167    119.3321     55.6731   2.5897598569e+01   4.8062416236e+01    0.1607503    0.1164809 -75.33 0.0007051371    1.712    0.416
       357  -8.9513     62.9316     54.4885   4.4453742700e+01   6.0559993902e+01    0.2714265    0.1985975 -61.89 0.0008118435    1.590    0.371
       358  -8.5716     54.4972     54.4634   4.8192441302e+01   6.1989437303e+01    0.2459844    0.1358295 -60.62   0.00102186    2.219    0.549
       359 -11.3894     45.4539     49.1914   5.0465752143e+01   6.4496965360e+01    0.4738198    0.2507761 -42.71  0.002153415    1.795    0.443
       360  -9.2228     20.2834     52.7197   6.5097038988e+01   6.6619173849e+01    0.2976519    0.1570742  63.19  0.001098887    3.796    0.737
       361  -9.2180     30.8963     51.3960   5.8854604889e+01   6.5881425784e+01    0.2403821    0.1767601 -88.42 0.0006534777    1.889    0.471
       362  -8.9065     92.3106     50.3444   3.1706509113e+01   5.5408727650e+01    0.3542991     0.161622 -48.07  0.001322962    2.415    0.586
       363  -9.0611     53.8818     47.4255   4.5672870435e+01   6.3555952645e+01     0.530038    0.2110046 -33.54  0.001723932    3.713    0.731
       364  -8.9809     63.9667     47.2406   4.1072431730e+01   6.1831705312e+01    0.3841169    0.2382677  12.55  0.001558797    2.610    0.617
       365  -8.8127     81.8547     46.2459   3.3622666692e+01   5.8444133832e+01    0.3056518    0.1904249 -50.42  0.001135079    1.770    0.435
       366  -9.1174     22.5796     46.8555   6.1915540661e+01   6.7757101876e+01    0.2658224    0.1626861  -5.88  0.001316142    1.998    0.499
       367  -8.7290    130.4452     45.7773   1.9777102918e+01   4.6927974518e+01    0.1968572    0.1477886 -16.62  0.000654697    1.641    0.391
       368  -8.7314      1.5795     46.0028   7.4105015495e+01   6.9404883753e+01    0.1792447    0.1300618 -60.16 0.0004321322    1.156    0.135
       369  -9.6148     16.4505     43.4106   6.4358327965e+01   6.9067489337e+01    0.5053318    0.2116947 -59.71  0.002269032    2.098    0.523
       370  -8.8081    149.8756     44.7698   1.5632378068e+01   4.2126282914e+01    0.3647361    0.0827266 -34.68  0.001007424    3.980    0.749
       371  -9.3363     58.1069     42.2189   4.1495911750e+01   6.3854022054e+01    0.2611251    0.1861652 -70.02  0.001229863    2.114    0.527
       372  -9.9822      4.7419     40.4488   7.0685582591e+01   7.0526548938e+01     0.466003    0.2274953 -82.22  0.002063992    2.731    0.634
       373 -10.0749      6.1787     33.6567   6.7618668083e+01   7.1954060556e+01    0.3244961    0.2025539 -32.87  0.001043588    1.457    0.314
       374  -9.0474    114.0489     41.3059   2.1941158246e+01   5.1746984785e+01     0.220952    0.2054242  -1.87 0.0002954992    1.207    0.171
       375 -10.4012    247.1217    248.1547   4.3165152954e+01  -8.8310024050e+00    0.2576737    0.1689066   4.44 0.0008951762    1.152    0.132
       376  -8.5484     36.9265     40.7534   5.1468002924e+01   6.7442540851e+01    0.2373307    0.1783831 -83.86 0.0009569266    2.078    0.519
       377  -8.7721     84.1946     39.7094   3.0032753080e+01   5.9062614248e+01    0.2796249    0.1840787  34.86  0.001307038    1.655    0.396
       378  -9.1127    106.2748     36.8780   2.2197334874e+01   5.4336447999e+01    0.2815753    0.1693223  36.13 0.0007268841    2.002    0.501
       379  -9.4307     95.4565     35.3176   2.4567382151e+01   5.7175076309e+01    0.4565531     0.248856 -19.94  0.001839603    2.459    0.593
       380  -8.7106    218.2864     36.3387   4.5610900167e+00   2.6878588890e+01    0.1162855    0.1029198  13.31 0.0001970707    1.634    0.388
       381  -8.9459     69.8428     35.7856   3.3580373424e+01   6.2763783729e+01    0.2440211    0.1494328  10.11 0.0009493339    2.893    0.654
       382  -8.7136     26.0005     35.9667   5.5737352062e+01   6.9757572635e+01    0.2330574    0.1702656 -58.04  0.001269031    1.437    0.304
       383  -9.1753     20.9080     34.5636   5.8301917454e+01   7.0581696900e+01     0.310844    0.1452692 -40.27   0.00145434    1.975    0.494
       384  -8.5072     37.8175     35.3908   4.8609822229e+01   6.8390538508e+01    0.1812782    0.1206545  16.01 0.0005165438    1.670    0.401
       385  -8.6168    119.4700     32.9887   1.7494022047e+01   5.1600083864e+01     0.215751    0.1409317 -35.40 0.0007225705    1.573    0.364
       386  -8.3475     49.6271     32.7815   4.1155491217e+01   6.7051377209e+01     0.181988    0.1232454 -49.45 0.0003595997    1.620    0.383
       387  -9.0968    222.0388     32.1810   3.2416673366e+00   2.6608603112e+01    0.2224363    0.1156641 -68.80  0.001078084    1.972    0.493
       388  -8.5742     60.4366     32.2549   3.5843519679e+01   6.5202292831e+01    0.1879946    0.1270979 -49.04 0.0009391503    1.673    0.402
       389  -9.3086     12.2784     31.2886   6.2620530704e+01   7.2034833034e+01    0.2468833    0.1991566 -30.35  0.001250286    1.075    0.070
       390  -8.4320     69.0011     41.0121   3.6280768143e+01   6.2030210725e+01    0.2202384    0.1765773 -80.50 0.0008021301    1.750    0.429
       391  -9.4534    147.9013     28.6902   1.0683952701e+01   4.4865793560e+01    0.2393449    0.2103508 -13.14 0.0008248649    1.363    0.267
       392  -9.1560     27.8286     27.4847   5.0732573870e+01   7.1220731878e+01    0.3376172    0.1425007 -34.55  0.001402327    2.640    0.621
       393  -8.9318      2.2349     27.5735   6.8258670599e+01   7.3491950561e+01    0.2596378     0.155294 -13.72  0.000633836    1.734    0.423
       394  -8.2882     81.5089     27.4821   2.5449967880e+01   6.1539336917e+01    0.1365887    0.1325515  68.98 0.0008086335    1.094    0.086
       395  -8.4468     61.4798     27.0589   3.2820018949e+01   6.5835863617e+01    0.1916665    0.1156023  -8.57 0.0008085839    2.513    0.602
       396  -9.7363     44.3196     25.1644   4.0009732337e+01   6.9246053399e+01    0.2252865    0.1858037  23.64 0.0004213593    1.166    0.142
       397  -9.4451     66.8216     23.7809   2.8961633664e+01   6.5244901479e+01    0.2216242     0.187313 -46.34 0.0006653547    1.332    0.250
       398  -8.4966    137.4946     22.4950   1.0217122649e+01   4.8312364466e+01    0.1429501    0.1279514 -85.29 0.0008105326    1.024    0.023
       399  -8.5375     58.8368     22.1419   3.1416373274e+01   6.7091133307e+01    0.1821965    0.1455217   8.61  0.001033581    1.303    0.233
       400 -10.0618     13.0688     21.0774   5.7575992485e+01   7.4031106224e+01    0.2644786      0.21124  -4.07  0.000777322    1.189    0.159
       401  -9.8174    188.9987     20.6235   3.2349527102e+00   3.5566671820e+01    0.2359365    0.1943807 -34.32 0.0008925762    1.307    0.235
       402  -8.5709     84.8727     21.2170   2.1433666960e+01   6.1608307762e+01    0.1966781    0.1813248  88.13 0.0004697324    1.190    0.160
       403  -8.6847    110.3585     24.3564   1.6127486439e+01   5.5032569265e+01    0.2319584    0.1974988  37.01 0.0004944007    1.245    0.197
       404  -8.6515     40.7870     21.0756   3.9694343487e+01   7.0491478444e+01    0.1777762    0.1499741  -7.67            0    1.096    0.087
       405  -8.5251     92.5190     20.5486   1.8921039143e+01   5.9886421215e+01    0.1381837    0.1282969  52.04 7.687557e-05    1.005    0.005
       406  -8.3068     73.4129     19.2053   2.4185263221e+01   6.4455028775e+01    0.1877773    0.1211399 -42.42 0.0009387865    1.720    0.419
       407  -9.6460     29.7808     18.7225   4.4861024152e+01   7.2532929798e+01    0.2956183    0.1866751  45.82  0.001586982    1.950    0.487
       408  -8.8856      1.5063     19.5094   6.5681413927e+01   7.5208170585e+01    0.1208622   0.09790268 -34.89 0.0008105901    1.001    0.001
       409  -8.9279     50.3020     15.4140   3.1576166561e+01   6.9674457946e+01    0.2654493    0.1603336  25.46 0.0008851207    1.861    0.463
       410 -11.7241    167.2268    242.0981   5.6258828119e+01   1.3218409175e+00    0.6878425    0.4615059  28.94  0.002923959    1.230    0.187
       411  -8.8968    148.1312    248.9996   6.0859218645e+01   2.8321254864e+00    0.2216035    0.1437185  32.57  0.001105765    1.243    0.195
       412  -9.4608     27.8109     13.1672   4.2841045359e+01   7.3715099485e+01    0.1746236    0.1296077  -3.76 0.0004546648    1.323    0.244
       413  -9.8192    107.2288    247.0086   6.8900724120e+01   8.6352431943e+00    0.3476827    0.2213932 -78.55  0.001962976    2.191    0.544
       414  -8.6903      3.4641     12.4867   6.0797975420e+01   7.6457193439e+01    0.1196594   0.09620756 -27.97 0.0008094413    1.005    0.005
       415  -8.3201     31.5619     11.5266   3.9428881148e+01   7.3417687892e+01    0.1252396    0.1064789  -0.88 0.0001224924    1.015    0.015
       416 -10.1552     36.3703    248.1568   8.3510118875e+01   1.7198979918e+01    0.3239159    0.1527879  53.05  0.001736837    1.611    0.379
       417 -10.2609     27.5807    246.3194   8.5172232656e+01   1.8492958579e+01    0.3901834    0.2215085 -88.05  0.002445549    1.784    0.439
       418  -9.9193    196.1748    248.4749   5.1737258984e+01  -3.2244678621e+00    0.2348211    0.1706699  13.19  0.001032376    1.083    0.076
       419  -9.0356    188.4874    248.5246   5.3133020948e+01  -2.2929262139e+00    0.1150734   0.08802172  11.94 5.401771e-05    1.029    0.029
       420  -8.9674     86.4997    247.9689   7.3269471117e+01   1.1195941249e+01    0.2008935     0.132021  38.91  0.001245991    1.201    0.167
