#   1 NUMBER                 Running object number                                     
#   2 MAG_AUTO               Kron-like elliptical aperture magnitude                    [mag]
#   3 X_IMAGE                Object position along x                                    [pixel]
#   4 Y_IMAGE                Object position along y                                    [pixel]
#   5 X_WORLD                Barycenter position along world x axis                     [deg]
#   6 Y_WORLD                Barycenter position along world y axis                     [deg]
#   7 A_WORLD                Profile RMS along major axis (world units)                 [deg]
#   8 B_WORLD                Profile RMS along minor axis (world units)                 [deg]
#   9 THETA_WORLD            Position angle (CCW/world-x)                               [deg]
#  10 FWHM_WORLD             FWHM assuming a gaussian core                              [deg]
#  11 ELONGATION             A_IMAGE/B_IMAGE                                           
#  12 ELLIPTICITY            1 - B_IMAGE/A_IMAGE                                       
         1 -11.3506    217.1343     29.9600   6.5739801606e+01   2.7145508861e+01     2.535728     0.899143 -62.32  0.006257034    6.845    0.854
         2 -11.5948    224.9207     20.9389   6.2641611129e+01   2.6321228530e+01    0.8313427     0.737792  88.37  0.003944047    1.094    0.086
         3  -8.7957    193.5291      8.3431   6.2554166782e+01   3.5544951348e+01    0.4029803     0.191266 -84.86  0.001595235    2.608    0.617
         4 -10.6846    233.8619     12.2911   5.9742223634e+01   2.5167116509e+01    0.4437908    0.3090021 -18.83  0.000850413    1.764    0.433
         5  -8.0942    149.3767      9.3388   6.8662138220e+01   4.6878059076e+01    0.2244948    0.1432393  39.66 0.0006926225    1.631    0.387
         6  -7.2285    206.2056      4.6365   6.0284063560e+01   3.2702051704e+01      0.13509   0.08345931 -54.09 0.0001638679    1.557    0.358
         7  -8.6327    184.5215      2.7828   6.1969253542e+01   3.8392635005e+01    0.4024851    0.1767871 -81.10  0.001454271    3.208    0.688
         8 -11.7552     20.4617    218.0427   1.4687052764e+02   2.7839309086e+01    0.6328578    0.4152957  66.62  0.002816476    1.124    0.110
         9  -8.6223     49.2214    207.0939   1.4074132896e+02   2.6742977649e+01    0.1645816    0.1433492  87.23 0.0005369144    1.246    0.197
        10 -11.4224     37.6117    201.2584   1.4256439106e+02   2.9292041844e+01    0.6771479    0.4056664 -67.36  0.002062501    1.682    0.405
        11 -10.8476     44.3899    198.7862   1.4101824908e+02   2.9013560459e+01     0.479814    0.3576843 -88.80  0.002594969    1.170    0.146
        12 -10.7527     43.8948    194.0098   1.4071688026e+02   3.0062962495e+01    0.7012972    0.2538219  46.47  0.003397355    2.324    0.570
        13  -9.9856    174.6595    203.4431   1.1456188333e+02   7.2738397846e+00     0.235138    0.2066275  32.20 0.0002899606    1.029    0.028
        14  -7.7074    175.5264    188.9699   1.1186841030e+02   9.5789636491e+00    0.1830013    0.1383873 -43.14 0.0003204324    1.472    0.321
        15  -9.3970     54.1531    186.8977   1.3790632459e+02   3.0324171078e+01    0.3979663   0.08840839  45.32  0.001486796    3.571    0.720
        16  -9.3643     56.1691    182.8275   1.3705431228e+02   3.0947797929e+01     0.158724    0.1484763 -63.85  0.001084267    1.372    0.271
        17  -7.2173     50.2819    166.2883   1.3658756120e+02   3.5339774907e+01    0.1142132    0.0928316 -49.33 0.0003617544    1.525    0.344
        18  -8.4746      3.6512    155.0108   1.4625318395e+02   4.2397042843e+01    0.1755293    0.1364609 -57.98 0.0004281127    1.482    0.325
        19  -8.8771    120.9484    148.5698   1.1645742360e+02   2.8376900079e+01    0.2426825    0.2044733 -58.98  0.001155878    1.202    0.168
        20  -8.2543      5.9970    149.2883   1.4528828551e+02   4.3483604007e+01    0.1550076    0.1265135  82.88 0.0004479121    1.101    0.092
        21  -8.5619     68.9520    145.3054   1.2916383346e+02   3.7777996884e+01     0.308855    0.1883626  81.01  0.001159569    2.008    0.502
        22  -8.5369    186.0476    140.2329   9.9635701168e+01   1.6411872720e+01    0.2279744    0.2080673 -29.56 0.0003171118    1.109    0.098
        23 -10.2769    232.2702    133.2507   8.9292655810e+01   7.7756663389e+00    0.2472467    0.2353952  28.28 0.0002751922    1.113    0.102
        24  -8.6258    118.7575    133.3136   1.1381340601e+02   3.2237638126e+01     0.233407    0.2240206 -63.18 0.0003452916    1.062    0.058
        25  -9.2758    244.5110    124.5730   8.5319326933e+01   6.7049354729e+00    0.2912933    0.1251938 -34.81  0.001196138    2.117    0.528
        26  -7.8605    161.9330    123.9832   1.0101278287e+02   2.5039539048e+01    0.2389809    0.1895375  10.36 0.0008870328    1.610    0.379
        27  -7.9654    178.8886    117.8519   9.5729719725e+01   2.2348758891e+01    0.2261047    0.2058036  15.11 0.0002748627    1.177    0.151
        28  -7.3415     43.0770    117.2100   1.3178014509e+02   4.7605086016e+01     0.143311    0.1071536  28.52 0.0004187186    1.586    0.370
        29  -9.1978    250.0556    114.4975   8.2176572804e+01   7.1775019796e+00    0.2485954    0.1822782 -31.15 0.0003636037    1.229    0.186
        30  -8.8749    236.0040    114.1951   8.4260554546e+01   1.0110843688e+01    0.3033918    0.1969664  62.55  0.001011777    1.853    0.460
        31  -7.2794    167.6933    114.3279   9.7265929750e+01   2.5663414503e+01    0.1596483    0.1244207 -80.18 0.0004188465    1.654    0.396
        32  -7.5994    183.0368    112.9845   9.3617405527e+01   2.2312199476e+01    0.1839181    0.1749864 -37.29 0.0003403256    1.048    0.046
        33  -7.5049     21.6921    112.2813   1.3729486261e+02   5.0736032852e+01    0.1205848   0.08227162  72.92 0.0002079565    1.561    0.359
        34  -9.0526    243.6591     98.1751   7.9313340339e+01   1.1048492445e+01    0.1953718    0.1804274 -63.37 0.0008166318    1.138    0.122
        35  -9.3071    187.3666     93.7323   8.7657469060e+01   2.4854513595e+01    0.4859106    0.1112571 -42.55  0.001265482    4.298    0.767
        36  -7.4752    203.6235     92.5022   8.4302077062e+01   2.1112060940e+01    0.1511677    0.1400189 -50.81 -0.0003055762    1.057    0.054
        37  -8.2329    150.7897     92.0230   9.5089158880e+01   3.4121588402e+01    0.2596948    0.1886251  -3.54  0.001079412    1.997    0.499
        38  -7.5154    135.9742     90.9524   9.8444280731e+01   3.7812222026e+01    0.1877454    0.1772984  49.21 0.0006585553    1.059    0.056
        39  -8.6490    243.0000     84.9768   7.6261547602e+01   1.3241222465e+01    0.2385812   0.07351753 -33.64 0.0008047618    2.959    0.662
        40  -9.5727    164.1470     79.2546   8.8330318315e+01   3.3254810429e+01    0.3886404    0.3373432  13.03  0.001340987    1.328    0.247
        41  -8.6796    144.6945     80.0100   9.3007117910e+01   3.7905545348e+01    0.2817231    0.2688249 -16.27 0.0008227464    1.084    0.077
        42  -7.9300    150.3669     72.9964   8.9515303404e+01   3.7813665828e+01     0.216265    0.1904139 -36.43 0.0005088783    1.152    0.132
        43 -10.9934    177.3639     66.2382   8.1811069014e+01   3.2134346513e+01    0.7656146     0.656505 -44.84  0.003217334    1.168    0.144
        44 -10.1825    160.1683     68.5351   8.5962309781e+01   3.6142456071e+01    0.3748373     0.290113 -18.85 0.0007126058    1.471    0.320
        45  -8.1224    235.9729     70.0000   7.3565038913e+01   1.7088839180e+01    0.2250986   0.08031143  61.84 0.0003473042    2.992    0.666
        46  -8.6893    187.9259     70.4560   8.1085244509e+01   2.8742267289e+01    0.2435317    0.2118526 -28.32 0.0004086373    1.199    0.166
        47  -9.0649    186.3207     57.7366   7.7715746516e+01   3.1170626258e+01    0.2618351    0.2372265  50.24 0.0003132625    1.137    0.121
        48  -8.7511    128.9968     57.8284   8.9790480442e+01   4.5640880228e+01    0.2263907    0.2114083 -22.07 0.0002840024    1.084    0.078
        49  -8.2946    247.6457     53.7243   6.8229462975e+01   1.6792680031e+01    0.2645061     0.210673  22.01  0.000917604    1.729    0.422
        50  -9.7905    243.2717     58.3326   6.9822073274e+01   1.7128997320e+01    0.2400981    0.2301718  72.01 0.0004789347    1.163    0.140
        51  -9.5703    197.1634     47.3163   7.3013575976e+01   2.9904769998e+01    0.3188206    0.2738051  38.44 0.0007175365    1.312    0.238
        52 -11.0558    179.6224     45.2475   7.5163392181e+01   3.4743113375e+01    0.5870036    0.3753091  -3.64  0.001748689    2.344    0.573
        53  -7.7573    185.0905     43.8778   7.3871613125e+01   3.3508606061e+01    0.2150344    0.1681642  33.46 -0.0009232552    1.494    0.331
        54  -8.8176    156.2150     45.4261   7.9473073193e+01   4.0807163094e+01    0.2192065    0.1428289  74.51 0.0009568554    1.724    0.420
        55  -9.5845    203.9028     41.3189   7.0395855161e+01   2.9006047897e+01    0.3536472     0.266212  33.14 0.0008164326    1.658    0.397
        56  -8.0175    102.6199     39.7944   9.0484686388e+01   5.4476490894e+01    0.1890729    0.1281149 -40.51 0.0002875277    1.557    0.358
        57  -7.7043     76.5509    249.4526   1.3905861413e+02   1.5359812150e+01    0.1126833    0.0841885  59.71  7.70125e-05    1.038    0.037
        58  -7.9648    157.4757     36.0233   7.6164500099e+01   4.1775194825e+01    0.3382828    0.1970698  32.22  0.001267914    2.220    0.550
        59 -10.4020    139.3908     34.4084   7.9214198842e+01   4.6611191182e+01    0.2646021     0.254793  28.21 0.0003523627    1.049    0.046
        60 -10.5322      2.7259    237.6597   1.5075984420e+02   2.6010681262e+01    0.5901494    0.2127207 -82.05  0.003512652    2.398    0.583
        61  -8.1293    150.1590     29.8135   7.5470138909e+01   4.4455656482e+01    0.1994497    0.1574237  39.57 0.0003593892    1.286    0.222
        62  -7.4996    119.1996    241.2430   1.3058749132e+02   1.0466157682e+01    0.1615683    0.1131294  61.79 0.0003282258    1.307    0.235
        63  -6.9113     44.3301    236.3133   1.4375493769e+02   2.1780487842e+01   0.08942578   0.08602672 -62.49 0.0005357596    1.675    0.403
        64  -7.5986    132.6835    233.3112   1.2713680147e+02   9.6084933658e+00    0.1257995   0.08219403  63.96 0.0003564896    1.639    0.390
        65  -8.3316     29.7445    229.7169   1.4589421507e+02   2.4659683564e+01    0.1613704    0.1298197  74.66 0.0004794673    1.200    0.167
