#   1 NUMBER                 Running object number                                     
#   2 MAG_AUTO               Kron-like elliptical aperture magnitude                    [mag]
#   3 X_IMAGE                Object position along x                                    [pixel]
#   4 Y_IMAGE                Object position along y                                    [pixel]
#   5 X_WORLD                Barycenter position along world x axis                     [deg]
#   6 Y_WORLD                Barycenter position along world y axis                     [deg]
#   7 A_WORLD                Profile RMS along major axis (world units)                 [deg]
#   8 B_WORLD                Profile RMS along minor axis (world units)                 [deg]
#   9 THETA_WORLD            Position angle (CCW/world-x)                               [deg]
#  10 FWHM_WORLD             FWHM assuming a gaussian core                              [deg]
#  11 ELONGATION             A_IMAGE/B_IMAGE                                           
#  12 ELLIPTICITY            1 - B_IMAGE/A_IMAGE                                       
         1 -11.2575    177.8806     18.0470   3.0545080272e+01   3.8398397721e+01    0.3045207      0.17641  67.23  0.001549901    1.622    0.383
         2 -10.5365    210.4858    246.9845   7.5259854919e+01  -4.3151408056e+00    0.1265667    0.1010058 -63.86 0.0008102447    2.535    0.605
         3 -10.6229     95.5729    224.8694   9.4994714721e+01   1.5209173165e+01    0.2801568    0.1282054  48.10  0.001324238    1.979    0.495
         4 -10.4526     82.9038    219.3384   9.7163058768e+01   1.8056886242e+01    0.2846228    0.1667582 -81.45  0.001471707    2.072    0.517
         5 -13.5742      3.4373    198.5767   1.1318506923e+02   3.1543895619e+01    0.9905218    0.3258382 -80.26  0.004534052    2.689    0.628
         6 -11.7259      3.5660    187.1429   1.1258593465e+02   3.4067949990e+01    0.3627949    0.2147026  47.87  0.001634393    1.476    0.323
         7 -10.6501    149.3683    198.3322   7.9639146526e+01   1.2044223379e+01    0.3285084    0.2244757  82.38  0.001472075    2.770    0.639
         8  -9.7233    112.3400    197.6630   8.7830697682e+01   1.8154370359e+01    0.1443361   0.09770755  65.42  0.000705082    1.760    0.432
         9  -9.6937    139.1663    189.7716   8.0481692363e+01   1.5390190311e+01    0.2282702    0.1458096  73.23 0.0009445712    2.803    0.643
        10 -10.0799    129.3995    188.1987   8.2444705117e+01   1.7343575337e+01    0.1892575    0.1341483 -69.30 0.0009491825    1.723    0.419
        11 -10.1047    156.0000    186.4760   7.6207337701e+01   1.3189689863e+01    0.2875419   0.07790928 -48.11 0.0009292929    3.891    0.743
        12 -10.2973     94.6154    186.4580   9.0452359991e+01   2.3328741046e+01    0.2697696    0.1286277 -78.34 0.0009529804    3.521    0.716
        13 -10.1503    109.4881    185.9967   8.6782319249e+01   2.1085847711e+01    0.1956867     0.120742  89.45 0.0007912036    2.584    0.613
        14 -10.3988    120.3753    184.5636   8.3963294438e+01   1.9609079181e+01    0.2695171    0.1325784 -70.79 0.0009583043    3.450    0.710
        15  -9.5879    174.3272    183.6493   7.1840603613e+01   1.0610110214e+01    0.1318752    0.1092426  81.54 0.0007048312    1.762    0.432
        16  -9.5842    137.9950    179.4889   7.8996531880e+01   1.7676543559e+01    0.2051939    0.1118439  57.44 0.0008101455    2.517    0.603
        17  -9.7072    191.6761    178.3347   6.7400086091e+01   8.6448805129e+00     0.125995    0.1086765 -89.60 0.0007050897    1.711    0.416
        18 -10.1406     76.5007    175.5028   9.3473961525e+01   2.8545486077e+01    0.1423638    0.1232165  68.45 0.0008098104    1.066    0.062
        19 -11.7288      2.8384    171.0760   1.1186634810e+02   3.7819886889e+01    0.6538137    0.1864801 -81.03  0.002594507    3.076    0.675
        20 -10.1322    121.4746    169.5012   8.1152044268e+01   2.2692806693e+01    0.2529291     0.141855 -67.31  0.001030884    2.321    0.569
        21 -10.4133    191.6872    164.5103   6.4715728335e+01   1.1085759594e+01    0.2509276    0.1188784 -41.35   0.00108684    2.040    0.510
        22 -10.2252    138.8502    164.7608   7.6100108081e+01   2.0618099311e+01    0.2800137    0.1964549 -83.01  0.001240617    2.151    0.535
        23 -10.1180     79.9892    164.2454   9.0938525748e+01   3.0714077797e+01    0.2656133    0.1379141  75.40 0.0008955067    3.537    0.717
        24  -9.8634    151.3203    159.9934   7.2280985122e+01   1.9318991079e+01    0.2310285    0.1199521 -67.81 0.0007047248    4.265    0.766
        25 -10.0629     92.4745    159.9713   8.6916667494e+01   2.9794494124e+01    0.2091329    0.1244764  89.88  0.000810021    2.564    0.610
        26 -10.1700    167.9782    157.7893   6.8165945184e+01   1.6650428569e+01    0.2299919     0.168812  71.86  0.001077814    1.985    0.496
        27 -10.2107    105.1962    157.9899   8.3206145495e+01   2.8141883425e+01    0.2440848    0.1668341  85.31 0.0009548524    1.993    0.498
        28 -10.1786    133.4741    152.9954   7.5071639062e+01   2.4169386796e+01    0.2073747    0.1322885 -77.28 0.0008092161    2.506    0.601
        29  -9.9992    188.4838    157.5217   6.3923808321e+01   1.2925081083e+01    0.1374105    0.1288318 -15.35  4.49013e-05    1.024    0.023
        30 -10.6382    148.7614    145.1366   6.9778651391e+01   2.2932592849e+01    0.3844562     0.260742 -83.36  0.001553104    2.514    0.602
        31 -10.8183    107.1722    145.1668   8.0242076182e+01   3.0820139242e+01    0.4921962    0.2797224  71.46  0.001667413    3.349    0.701
        32 -11.4860    208.8931    143.5928   5.7232407955e+01   1.1730068623e+01    0.2849035    0.1687197 -52.35  0.001332175    1.956    0.489
        33 -10.5792     88.1751    143.9934   8.5265322083e+01   3.4366272090e+01    0.2526415    0.1668416  84.81 0.0009505062    2.033    0.508
        34 -10.9128    124.5681    142.5367   7.5126780793e+01   2.8207363074e+01    0.4513246    0.2627419 -73.57  0.001640272    2.824    0.646
        35 -11.0731    197.9861    134.9940   5.7322729970e+01   1.5279799306e+01    0.3644611    0.1897879 -46.22  0.001599691    1.885    0.469
        36 -11.0201     83.1847    131.5468   8.4306446754e+01   3.8253960958e+01    0.4551855    0.2639385 -82.80  0.001727521    2.578    0.612
        37 -10.4767    131.8733    131.2183   7.0765492369e+01   2.9335145061e+01    0.4001804     0.202408 -64.28  0.001339018    3.068    0.674
        38 -11.0953     98.6586    127.6116   7.8935482561e+01   3.6559699008e+01    0.5618696    0.3079626 -74.92  0.001960375    2.950    0.661
        39  -9.8624     73.3152    129.6562   8.6914544784e+01   4.0280616846e+01    0.1559904    0.1094101  74.00 0.0007047928    1.713    0.416
        40 -11.4146     11.5820    126.9027   1.0593957252e+02   4.7946281394e+01    0.4528248    0.1470631 -85.06  0.001564418    3.533    0.717
        41 -10.5250     58.9564    123.7683   9.0298111798e+01   4.3831422842e+01    0.5547477     0.284684  78.34  0.001759222    4.087    0.755
        42 -10.2908    117.4936    125.5117   7.3195420854e+01   3.3497760646e+01    0.1539672    0.1463424  89.42 0.0008099105    1.056    0.053
        43 -11.9015     43.2740    122.2553   9.5119084546e+01   4.6170542479e+01    0.8776801     0.389064 -85.77   0.00293738    3.599    0.722
        44 -11.5661     27.4351    120.8999   1.0011499398e+02   4.8151088950e+01    0.7582201    0.3068445  78.18  0.002076325    5.968    0.832
        45  -9.6897    158.0000    120.9946   6.2132428543e+01   2.6112857245e+01    0.2514515   0.08390068 -43.49 0.0007982717    2.914    0.657
        46 -10.7368    141.4180    118.7534   6.5430710579e+01   3.0104420618e+01    0.3002023    0.1451533 -50.03 0.0009529773    2.105    0.525
        47 -10.7692      2.6140    116.4774   1.0773021956e+02   5.1154032582e+01    0.3902688    0.1319809  86.34  0.001313743    3.994    0.750
        48 -10.7861    108.5894    113.0482   7.2657674359e+01   3.8142070955e+01    0.5131371    0.2648705 -67.24  0.001708256    3.083    0.676
        49 -11.1791     92.1362    110.9956   7.7022309599e+01   4.1740662758e+01    0.8720459     0.297842 -59.57   0.00252948    3.805    0.737
        50 -11.8681    246.4060    112.0901   4.4818229782e+01   1.0276415241e+01    0.4699732    0.3253128 -68.15  0.002585037    1.962    0.490
        51 -10.7000     78.3308    111.6705   8.1524070524e+01   4.3962595595e+01    0.5002812    0.2652137 -77.20  0.001694362    3.229    0.690
        52 -12.6675     13.7751    109.1724   1.0313048630e+02   5.2244747092e+01    0.6350206    0.2330564 -75.11  0.002575771    2.445    0.591
        53 -10.0687    189.4823    107.5083   5.2513001502e+01   2.2017395541e+01     0.278349    0.1199717 -48.54   0.00103769    2.399    0.583
        54  -9.8045    139.6673    105.3106   6.2428058701e+01   3.3346163112e+01     0.158126    0.1216013 -86.54 0.0007043194    1.675    0.403
        55 -12.7958      7.3673     99.3792   1.0411231512e+02   5.5119663198e+01     1.005366    0.3025213 -77.14  0.003652986    3.194    0.687
        56 -11.0180     43.7184    100.6983   9.0981909410e+01   5.1570820233e+01    0.3874705    0.2105142  68.12  0.001481638    3.036    0.671
        57 -11.9012     20.9902     99.5646   9.9131616850e+01   5.4099552840e+01    0.4680166    0.3695729 -79.60  0.001795143    1.166    0.142
        58 -11.2831    109.1487     99.0180   6.8827333323e+01   4.1229119265e+01    0.6584998    0.4313101  82.99  0.002479356    2.691    0.628
        59 -10.5471     81.6989     99.7154   7.7498494602e+01   4.6282917194e+01    0.3106872    0.1864497 -76.23  0.001183933    2.539    0.606
        60 -10.8136     94.7869     97.2027   7.2638289209e+01   4.4484310403e+01    0.2537044    0.1958782 -74.03  0.001202696    1.510    0.338
        61 -11.0606     63.4931     95.8338   8.2738652740e+01   5.0148669018e+01    0.5127429    0.2935793 -84.37  0.001844879    3.183    0.686
        62 -11.1168    125.1076     91.2711   6.2253760046e+01   3.9499702722e+01    0.3106338    0.2050195 -70.93  0.001255346    2.143    0.533
        63 -10.3050     34.3904     88.9746   9.2022589639e+01   5.5491117547e+01     0.380133     0.134144 -76.28  0.000959743    6.322    0.842
        64 -11.0101     86.5390     86.9961   7.2411561988e+01   4.8354864515e+01     0.419533    0.2814662  88.32  0.001660629    2.599    0.615
        65 -10.8111     48.4398     84.4904   8.5476210110e+01   5.4954430916e+01    0.3242228    0.2049719  70.47  0.001393611    2.490    0.598
        66 -11.2312    104.3701     82.6777   6.5523963644e+01   4.5770026956e+01    0.4939158     0.252346 -61.60  0.001696105    2.979    0.664
        67 -10.2686     24.1789     80.9908   9.4414796453e+01   5.8398775053e+01    0.2183077    0.1418205  80.79 0.0009797773    2.018    0.504
        68 -10.5684    119.3579     79.1213   6.0193246499e+01   4.3253721337e+01    0.4541039    0.1404889 -43.16  0.001405653    3.193    0.687
        69 -10.4481     73.9934     79.4788   7.4495937892e+01   5.2279319777e+01    0.3208122    0.1881241 -68.84  0.001268898    2.472    0.595
        70 -10.5586    150.0000    103.0287   5.9394418428e+01   3.1532045203e+01    0.2583343   0.08517195 -42.37 0.0008047952    2.959    0.662
        71 -11.2294     62.8771     73.2818   7.6724118169e+01   5.5481642358e+01    0.6894318    0.2372501 -58.22  0.002162318    3.755    0.734
        72 -10.3254     82.3459     73.4610   6.9700075933e+01   5.2088848792e+01    0.3271092    0.2210466 -82.95  0.001324597    2.596    0.615
        73 -10.3273    105.4983     71.5272   6.1699027477e+01   4.7804226133e+01    0.2815739    0.1354471 -52.76  0.001036022    2.439    0.590
        74 -10.4751     51.3307     69.8641   8.0252091745e+01   5.7946475384e+01    0.4416031    0.2227722 -73.13  0.001452599    4.147    0.759
        75 -10.0574     16.6334     70.3178   9.5324156601e+01   6.1546704669e+01     0.130075   0.09295323  64.37 0.0007038513    1.780    0.438
        76 -10.8512      7.3983     57.2215   9.6629644685e+01   6.5187206598e+01     0.176213    0.1090973 -77.19 0.0008824242    1.708    0.415
        77 -10.3641     44.2425     55.2614   7.8571395411e+01   6.2057818495e+01    0.3301826    0.1577928 -60.59  0.001358181    2.574    0.612
        78  -9.8922     19.8441     52.0132   8.9085206406e+01   6.5429515200e+01    0.2000899    0.1433723  85.69  0.001077642    2.030    0.507
        79 -10.1652     30.9898     51.2387   8.3363816103e+01   6.4505497695e+01    0.1815064     0.143707 -77.63 0.0009827622    1.608    0.378
        80 -11.3097      4.9366     41.5014   9.3811777391e+01   6.8778482694e+01     0.400388      0.15755 -74.17  0.001549128    3.736    0.732
