#   1 NUMBER                 Running object number                                     
#   2 MAG_AUTO               Kron-like elliptical aperture magnitude                    [mag]
#   3 X_IMAGE                Object position along x                                    [pixel]
#   4 Y_IMAGE                Object position along y                                    [pixel]
#   5 X_WORLD                Barycenter position along world x axis                     [deg]
#   6 Y_WORLD                Barycenter position along world y axis                     [deg]
#   7 A_WORLD                Profile RMS along major axis (world units)                 [deg]
#   8 B_WORLD                Profile RMS along minor axis (world units)                 [deg]
#   9 THETA_WORLD            Position angle (CCW/world-x)                               [deg]
#  10 FWHM_WORLD             FWHM assuming a gaussian core                              [deg]
#  11 ELONGATION             A_IMAGE/B_IMAGE                                           
#  12 ELLIPTICITY            1 - B_IMAGE/A_IMAGE                                       
         1 -12.4874    209.9423      3.2982   6.0695785424e+01   3.2422299905e+01     1.157823     0.600549  62.02  0.004611513    1.742    0.426
         2 -13.2814    187.7676     27.0900   6.9182097896e+01   3.5147973972e+01     1.557535     1.312571 -21.97  0.006138538    1.410    0.291
         3 -12.9746    194.9766     21.1699   6.6690252335e+01   3.4078901546e+01     1.132588    0.7948599 -75.68  0.004147757    1.464    0.317
         4 -12.1075    201.4173     12.6004   6.3791810474e+01   3.3475216543e+01    0.5866994    0.5193795  43.54  0.001163518    1.355    0.262
         5 -12.3334     31.8892      4.3202   1.0014754114e+02   6.8858295292e+01     1.167758    0.3323561 -34.61  0.005444352    3.248    0.692
         6  -9.2678     49.2034      1.6054   9.2143142111e+01   6.6876141914e+01     0.158971   0.08458581  30.04 0.0008250759    1.657    0.396
         7  -9.4398    226.2305    201.2413   1.0391821903e+02  -3.5810349061e+00    0.2678295    0.2176954 -60.24 0.0007859304    1.695    0.410
         8 -10.5595    176.8631    249.6128   1.2157293311e+02  -2.5584927536e+00    0.3689189    0.1949214  30.52   0.00181965    1.978    0.494
         9 -11.1028    139.7910    249.4234   1.2848065470e+02   3.7623351883e+00    0.3356707    0.2522231  54.18  0.002112311    1.126    0.112
        10 -10.9253    109.0932    246.2346   1.3379066265e+02   9.3731093848e+00    0.3656083    0.2105399  63.44  0.001404497    1.706    0.414
        11 -11.2529     94.2421    249.4398   1.3682718062e+02   1.1121285120e+01    0.4413887    0.3925873 -28.66  0.002106712    1.833    0.455
        12 -11.8152    101.0478    246.3279   1.3527398988e+02   1.0630316965e+01    0.7276191    0.4206225 -64.42  0.004173945    1.901    0.474
        13 -13.2092     51.5100    230.3497   1.4266961377e+02   2.0816735973e+01     1.223104    0.8015062  26.80  0.005618713    2.436    0.589
        14 -12.4268     50.1695    222.6635   1.4224040992e+02   2.2529526474e+01    0.5540263    0.4027475 -69.47  0.001408843    1.422    0.297
        15 -14.7353     58.0982    210.5766   1.3959557033e+02   2.4001258532e+01     7.939387      1.44311  48.66   0.02192739    4.847    0.794
        16  -9.8794    191.7745    192.4294   1.0894069620e+02   4.3833787822e+00    0.6280826    0.3313425 -66.33  0.001852104    5.394    0.815
        17 -10.9828     73.0108    190.9287   1.3429301798e+02   2.6218905484e+01    0.4011624    0.2460851 -47.07  0.001363445    2.045    0.511
        18 -10.9388     77.4352    184.3225   1.3244872671e+02   2.7063242145e+01    0.3016948    0.2400344 -50.74 0.0006724269    1.454    0.312
        19 -11.4123    108.4070    173.0872   1.2364753130e+02   2.4618216102e+01     2.745349    0.3336611  44.72  0.005999736    7.529    0.867
        20 -11.9599     58.1893    130.6462   1.2859160687e+02   4.2272922012e+01     1.754495    0.5948399 -71.34  0.004610397    6.074    0.835
        21 -11.5893     91.3201    165.1111   1.2629942458e+02   2.9360398358e+01    0.7910375    0.5897666  40.16  0.001101611    1.442    0.306
        22 -12.7211     67.8339    144.6341   1.2856493043e+02   3.7714501589e+01     1.725861    0.8917782  87.23  0.005253721    4.097    0.756
        23 -10.6375    136.5542    171.9700   1.1692195092e+02   1.9610691336e+01    0.5080938    0.1991562  37.40  0.001731865    2.886    0.654
        24  -9.7135     33.3346    158.4711   1.3898041863e+02   3.8569151659e+01    0.3594945    0.1516921 -64.99  0.001738171    1.902    0.474
        25  -9.8492     33.0000    153.9991   1.3850037460e+02   3.9632578295e+01    0.3168973   0.07782563 -67.56  0.001139552    3.338    0.700
        26  -9.3816    164.1288    156.9645   1.0752835263e+02   1.7225421653e+01    0.3791056    0.2140629 -57.23  0.001306835    2.060    0.515
        27 -13.3894     11.1525    206.7856   1.4799302701e+02   3.0193146138e+01    0.9425855     0.566162  33.42  0.003412791    2.137    0.532
        28  -9.6440    103.2101    148.7693   1.2036776848e+02   3.1206765398e+01    0.3143123    0.2708151 -42.23 0.0009324803    1.254    0.203
        29  -9.2969    105.4806    145.0146   1.1903478864e+02   3.1689492477e+01    0.3353927     0.240395 -27.31  0.001537106    1.904    0.475
        30 -11.4682     92.2352    147.8708   1.2295713920e+02   3.3280553497e+01    0.2834837     0.253989 -44.92 0.0004602423    1.206    0.171
        31  -9.3349    134.1472    145.8913   1.1209437050e+02   2.5989553824e+01    0.5826155    0.1633539 -53.47  0.001580273    4.140    0.758
        32  -9.5635    113.2016    134.7516   1.1485353268e+02   3.2676907492e+01    0.3496826    0.2741815 -18.13  0.001006833    1.693    0.409
        33 -10.6421     85.3755    172.8678   1.2896428723e+02   2.8492421256e+01    0.2842034    0.2558234  84.01 0.0004866704    1.047    0.045
        34 -10.0345    100.5109    131.8112   1.1750970143e+02   3.5667577969e+01     0.290528    0.2329326 -25.51 0.0007809426    1.516    0.340
        35  -8.0905    106.2916    131.3484   1.1588569436e+02   3.4745781385e+01    0.1506998    0.1159344 -22.97 0.0007028484    1.668    0.400
        36 -12.5749     73.4516    169.9362   1.3127829728e+02   3.0960000787e+01    0.4757995    0.2757826 -45.15  0.001444044    2.081    0.519
        37  -9.8112    119.4471    126.1441   1.1124426394e+02   3.3459009191e+01    0.5869213     0.279096 -29.56  0.001630081    4.679    0.786
        38  -8.8519    183.3246    214.6683   1.1474848329e+02   1.9828677161e+00    0.1346488    0.1060641  75.53 -3.792555e-05    1.706    0.414
        39  -9.0126    109.0433    122.4650   1.1309988621e+02   3.6291978891e+01     0.212541    0.1935919 -54.09 0.0003520414    1.044    0.042
        40 -10.0080    168.3332    113.2199   9.6105426378e+01   2.5612237453e+01    0.3703225    0.2901528 -77.20 0.0008895733    1.557    0.358
        41  -8.6695    205.7867    110.3789   8.7729626056e+01   1.7370209509e+01     0.214751    0.1410246  43.51 0.0004133102    1.649    0.394
        42 -13.9629     34.5186    247.7173   1.4686409670e+02   1.9603037996e+01     2.817982    0.8375039  38.73   0.01317569    3.453    0.710
        43  -9.5188     32.8568    105.7982   1.3105234994e+02   5.0697810301e+01    0.3283215   0.08083139 -64.03  0.001092009    3.865    0.741
        44  -8.2694    234.3287     86.6492   7.7222627349e+01   1.5090486011e+01    0.1550632    0.1021378 -67.74  0.000704808    1.767    0.434
        45  -8.1589    154.7063     76.6774   8.9157920592e+01   3.5930244962e+01    0.1520575     0.119406  13.60 0.0003936377    1.615    0.381
        46  -9.9590    114.6249     45.6542   8.9153490428e+01   5.0018383535e+01    0.2659658    0.2101744 -51.61  0.000961145    1.523    0.344
        47  -9.6454    162.6984    248.9918   1.2413602391e+02  -5.5457644018e-02    0.2623871    0.1462575  23.14  0.001182068    2.712    0.631
        48 -11.0307    163.4606    225.0023   1.2042986459e+02   3.8135333261e+00    0.3172282    0.2735046  26.64  0.001929367    1.193    0.162
        49 -15.3231      1.9422     78.1903   1.3529023438e+02   5.8821855428e+01     13.42585    0.5424634 -64.02   0.03025046   10.543    0.905
        50 -11.0034    125.2692    247.1463   1.3090314329e+02   6.5758340993e+00    0.5630861    0.2360824 -65.01  0.002447544    3.324    0.699
        51 -15.4001      8.4823    239.1941   1.5046314922e+02   2.4086123876e+01     8.138875    0.9963012 -71.52   0.02733915    5.388    0.814
