#   1 NUMBER                 Running object number                                     
#   2 MAG_AUTO               Kron-like elliptical aperture magnitude                    [mag]
#   3 X_IMAGE                Object position along x                                    [pixel]
#   4 Y_IMAGE                Object position along y                                    [pixel]
#   5 X_WORLD                Barycenter position along world x axis                     [deg]
#   6 Y_WORLD                Barycenter position along world y axis                     [deg]
#   7 A_WORLD                Profile RMS along major axis (world units)                 [deg]
#   8 B_WORLD                Profile RMS along minor axis (world units)                 [deg]
#   9 THETA_WORLD            Position angle (CCW/world-x)                               [deg]
#  10 FWHM_WORLD             FWHM assuming a gaussian core                              [deg]
#  11 ELONGATION             A_IMAGE/B_IMAGE                                           
#  12 ELLIPTICITY            1 - B_IMAGE/A_IMAGE                                       
         1 -11.8160     41.7113     20.1254   8.3974646877e+01   6.7467826205e+01    0.5546292    0.3270206  39.98  0.002585923    2.064    0.516
         2 -11.8464    216.3007     14.3777   4.0711020743e+01   2.9068322235e+01    0.4507579    0.3867145  22.36  0.001710602    1.531    0.347
         3 -13.1297    183.4337      5.1975   4.1775636701e+01   3.8206143497e+01    0.6172198    0.5316056 -28.20  0.003734485    1.304    0.233
         4 -11.9140     43.8075      8.1766   7.7184920624e+01   6.8869298102e+01    0.2531236    0.2087369  -4.94 0.0005378717    1.130    0.115
         5 -11.0716     57.5199      7.9355   7.1205102281e+01   6.6806277112e+01    0.3559722    0.2408815  -4.59  0.002126259    1.362    0.266
         6 -10.2537    109.5089      8.5118   5.5262029145e+01   5.6335431317e+01    0.1344136    0.1195506  38.32 0.0008101833    1.040    0.038
         7 -11.3122    165.6492      1.8916   4.2979991686e+01   4.3041374483e+01    0.3662804    0.1480792  66.55  0.001532704    2.091    0.522
         8 -10.0940    174.0000    222.0235   9.7176741189e+01   3.2600214836e+00    0.1894615   0.07509287 -44.68 0.0008061323    2.968    0.663
         9 -10.7683    226.7810    221.5810   8.7044821667e+01  -5.3562706181e+00    0.1681703    0.1048793  42.69 0.0008467454    1.677    0.404
        10 -10.9598    239.6539    215.7718   8.3713936411e+01  -6.5737310811e+00    0.2850511   0.09810152 -42.78  0.001101305    4.155    0.759
        11 -11.2494    222.0242    214.0000   8.6589716074e+01  -3.5822763057e+00    0.2030409    0.1215763  20.95  0.001075923    1.624    0.384
        12 -10.8547    115.8680    209.2785   1.0724727044e+02   1.5417071608e+01    0.2878258    0.1743932 -71.90    0.0014495    2.030    0.507
        13 -10.3335     48.7375    201.7854   1.2040507996e+02   2.6620095903e+01    0.2512311    0.1177968  81.73  0.001172318    2.494    0.599
        14 -10.1141     56.3471    205.6602   1.1921007895e+02   2.4876305034e+01    0.1351956    0.0729927  66.67 0.0007046707    1.787    0.440
        15 -12.1388    159.8471    191.8603   9.5094145314e+01   1.1003003494e+01    0.6383581    0.4681955  82.24  0.002882266    2.095    0.523
        16 -10.0194     66.3229    194.6535   1.1604821052e+02   2.5898609083e+01    0.1384456   0.08090618  69.12 0.0005161246    1.739    0.425
        17 -10.2405    109.4154    186.2252   1.0539016490e+02   2.1200042638e+01    0.1950406    0.1287158 -76.45 0.0009529995    1.767    0.434
        18 -10.6370    183.1449    183.1078   8.8507716455e+01   8.2083093465e+00     0.343968    0.2086844 -41.34  0.001631742    1.759    0.432
        19 -10.3775    224.3006    183.6480   8.0438731146e+01   5.0818763428e-01    0.1230966    0.1105995 -73.14 0.0003990063    1.697    0.411
        20 -10.0105    215.3359    193.8358   8.4131174802e+01   4.9788155539e-01    0.2557567    0.1168183 -44.69  0.001085955    2.638    0.621
        21 -10.3187    191.7069    178.1269   8.5743083437e+01   7.4588831479e+00    0.2173339    0.1847158 -57.55  0.001050849    1.462    0.316
        22 -11.1005     44.4126    170.1025   1.1828889018e+02   3.4078804559e+01     0.439078    0.1190859 -74.16  0.001481668    4.037    0.752
        23 -11.3731     55.6872    167.9335   1.1541349537e+02   3.3244067432e+01    0.4508719    0.2310714  88.93  0.002007069    2.351    0.575
        24 -10.2787     79.3175    163.6446   1.0912624126e+02   3.1050350771e+01    0.1484483    0.0966491  73.94  0.000704574    1.748    0.428
        25 -10.6151     22.5808    159.8732   1.2230261618e+02   3.8649601764e+01    0.2457639    0.1237314  51.58   0.00132108    1.949    0.487
        26 -11.6734    106.4187    157.7690   1.0140067934e+02   2.8071900078e+01    0.6031576    0.3953071  75.95    0.0026479    2.057    0.514
        27 -10.5375    121.0244    169.0338   9.9849876397e+01   2.2918092224e+01    0.2404167    0.1734415  77.99   0.00113757    1.727    0.421
        28 -10.9848    167.3947    157.3138   8.6651053412e+01   1.6308508343e+01     0.371393    0.2552481 -83.73  0.001457862    2.683    0.627
        29 -10.6784    119.2181    157.2202   9.8102343972e+01   2.5901175876e+01    0.4496783    0.2390901  40.13  0.001890229    1.855    0.461
        30 -10.4433    218.4140    156.6721   7.5891245385e+01   6.0308697177e+00    0.2768708    0.1297943 -41.20  0.001131759    2.141    0.533
        31  -9.7376     23.5126    153.5345   1.2148271458e+02   4.0024692643e+01    0.1241193   0.09841346 -88.88 0.0001284439    1.009    0.009
        32 -10.3873    189.8774    150.7467   8.0286034270e+01   1.2904577182e+01     0.283042    0.2023344 -67.21  0.001238302    2.070    0.517
        33 -11.2793    107.2585    145.4828   9.8853014027e+01   3.0794432958e+01    0.4667661    0.2537501  69.25  0.001542288    3.555    0.719
        34 -10.5980    148.4910    144.5540   8.8248997486e+01   2.2943998213e+01    0.2808017    0.1474447 -57.69  0.001033942    2.365    0.577
        35 -10.1415    181.8451    141.7351   7.9932970427e+01   1.6377343579e+01    0.2936822    0.2039806 -66.72  0.001233733    2.086    0.521
        36 -11.1064     82.7520    131.5055   1.0270961723e+02   3.8226309958e+01    0.4027334    0.1950723 -67.47  0.001565504    2.335    0.572
        37 -12.1491     99.5388    128.5961   9.7418194217e+01   3.6169850989e+01    0.8249881    0.4887772  77.18  0.002859024    3.346    0.701
        38 -10.8293     59.0954    124.4331   1.0811191426e+02   4.3240068090e+01    0.2929847    0.1739375 -83.14  0.001327802    2.002    0.501
        39 -11.2353     42.9963    122.0149   1.1235490840e+02   4.5661460923e+01    0.5406304    0.2408104 -83.94  0.001976364    3.352    0.702
        40 -11.2471     26.1401    119.2728   1.1678869605e+02   4.7895022059e+01    0.3972103    0.1771284  89.57  0.001572915    3.128    0.680
        41 -11.6055    193.4312    118.5868   7.1829469869e+01   1.8324595237e+01    0.5439977    0.4263738 -78.77  0.001642606    1.736    0.424
        42 -10.5705     15.0193    121.0978   1.2014765699e+02   4.8321580116e+01    0.2891945    0.1572674  29.81  0.001613888    2.170    0.539
        43 -11.4466    141.3387    115.2259   8.2912593075e+01   3.0931966532e+01    0.7972114    0.2687918 -41.08  0.002417993    3.089    0.676
        44 -10.7228    108.2191    112.7892   9.1258378667e+01   3.8324801092e+01    0.5524518    0.2721947 -65.76  0.001767682    3.348    0.701
        45 -11.1798     78.3950    112.1714   9.9905762037e+01   4.3566109287e+01    0.5299605    0.2904985 -82.88  0.001756942    3.780    0.735
        46 -10.9020    174.2012    110.8529   7.3909042756e+01   2.4308174855e+01    0.3786748    0.2773046 -47.12   0.00114218    1.387    0.279
        47 -12.0533    159.5872    110.4192   7.7140481286e+01   2.7817405791e+01    0.6696391    0.3723397 -51.56  0.002566055    1.999    0.500
        48 -10.5844     91.6304    110.6078   9.5561790392e+01   4.1819660005e+01    0.3882962    0.1407319 -57.21  0.001268588    2.959    0.662
        49 -11.5842     14.7131    109.5210   1.1876829233e+02   5.1073059284e+01    0.6163408     0.330856  88.13  0.003137869    2.023    0.506
        50 -12.0419     44.4634    100.9158   1.0812279807e+02   5.0592561909e+01    0.7005996    0.3809419 -88.46  0.002844872    2.952    0.661
        51 -12.1571    127.6874    100.8427   8.2622214576e+01   3.7066424204e+01    0.5843993    0.2941157 -56.64  0.002043514    2.542    0.607
        52 -12.5039    140.6717    103.1103   7.9816342620e+01   3.3704939424e+01    0.7335998    0.4519948 -47.01  0.003052764    1.633    0.388
        53 -13.2489    110.5596     99.8549   8.7172036551e+01   4.0831852711e+01     1.352863    0.6325848  58.54  0.004138141    3.819    0.738
        54 -10.5026     81.9910    100.4916   9.6005444525e+01   4.5783462571e+01     0.199589    0.1207733  60.50 0.0008088826    2.417    0.586
        55 -11.2330     62.8613     95.7647   1.0098842131e+02   4.9660613825e+01    0.2708578     0.181399 -85.71  0.001244745    2.110    0.526
        56 -12.5088    170.2305     91.3170   6.9422381894e+01   2.9094410713e+01    0.5016106    0.3913786 -53.78 0.0007980746    1.364    0.267
        57 -10.9957     34.2147     88.0677   1.0890461256e+02   5.4608344724e+01    0.4091154    0.1627392 -68.74  0.001656352    2.596    0.615
        58 -10.3826      4.3123     90.6671   1.1935069089e+02   5.6081662630e+01    0.1182378   0.07994238  75.83 0.0004282709    1.679    0.404
        59 -11.8021     42.1253     88.2478   1.0622398092e+02   5.3817160932e+01    0.3677718    0.2342483 -15.76   0.00141868    2.111    0.526
        60 -11.6953     86.7792     87.0530   9.0855944498e+01   4.8074348680e+01    0.4541585    0.3272729  85.19  0.001994777    2.283    0.562
        61 -11.1009     46.6473     83.1083   1.0344746083e+02   5.4533509083e+01    0.5494903    0.3297337  74.97  0.002219494    3.435    0.709
        62 -10.2976    140.5734     83.2597   7.4058756314e+01   3.7814102922e+01    0.3124835    0.1480207 -43.88  0.001136243    2.131    0.531
        63 -11.4731    104.3222     82.4123   8.3956047515e+01   4.5871941240e+01      0.54025     0.279781 -58.12  0.001961325    2.643    0.622
        64 -11.5555     82.3689     73.1555   8.8132346065e+01   5.1827384342e+01    0.4607079    0.2704261 -68.54  0.001705672    3.182    0.686
        65 -11.1047     62.4199     71.2941   9.4561935043e+01   5.5251038809e+01    0.6580533    0.1180961 -51.10  0.001798237    4.854    0.794
        66 -10.5363    115.6845     72.5125   7.7433060929e+01   4.5547623364e+01    0.3013125    0.1913288 -65.40  0.001156546    2.540    0.606
        67 -12.2780    223.4152     70.8096   5.4205574048e+01   1.9702712419e+01    0.2863308    0.2685376 -53.44   0.00040855    1.017    0.017
        68 -10.5362     23.4480     79.1943   1.1083235863e+02   5.7526953575e+01    0.3058328     0.116319 -73.44  0.001151592    3.316    0.698
        69 -10.7360     52.0068     70.9887   9.8296882156e+01   5.6641218273e+01    0.2136801    0.1839194 -38.62  0.001054613    1.009    0.009
        70 -10.4200    194.7406     67.9999   5.8000498122e+01   2.7121232168e+01    0.2020486    0.1284477 -34.51  0.000808714    1.550    0.355
        71 -11.2697     28.7001     52.1525   1.0198572574e+02   6.3007941387e+01    0.3774904    0.2390212  -2.85  0.001877379    1.848    0.459
        72 -12.0097     20.8336     51.0055   1.0498866786e+02   6.3866176353e+01    0.5495571    0.2961866 -55.42  0.003054741    1.521    0.342
        73 -13.4092     28.0131     60.3146   1.0460236680e+02   6.1352738505e+01     1.135101    0.5580053  23.51  0.004135495    2.355    0.575
        74 -12.2256    236.5294     63.5124   5.0594099732e+01   1.7801864326e+01    0.4646175     0.256116  88.54   0.00187003    2.802    0.643
        75 -12.1129    231.2644     58.9442   5.0144202917e+01   1.9683533057e+01    0.4033937    0.3319925 -47.27 0.0004918377    1.105    0.095
        76 -10.3947     41.9524     62.7441   9.9744988324e+01   5.9536702761e+01    0.2202978    0.1760446  45.83  0.001100666    1.605    0.377
        77 -11.4845      7.9371     56.0988   1.1170566527e+02   6.3597286380e+01    0.4542468    0.1887402 -67.32   0.00221371    2.179    0.541
        78 -11.6131     19.6083     59.4040   1.0775629260e+02   6.2183001868e+01    0.2746794    0.2141734 -34.85 0.0007915423    1.152    0.132
        79 -10.6025    148.8507     52.1532   6.2163114554e+01   4.1308102619e+01    0.2160962    0.1758067  27.82 0.0005690849    1.319    0.242
        80 -11.3548      7.6432     43.2314   1.0858164447e+02   6.6291763070e+01    0.4794995    0.2573969  35.84   0.00273077    2.518    0.603
        81 -11.7605     71.1277     42.4743   8.1316019720e+01   5.9573240691e+01    0.5567483    0.2952537  51.63  0.002402938    2.705    0.630
        82 -11.2815     42.0484     37.2943   9.1095389527e+01   6.4556896210e+01    0.2697419    0.2032987 -15.85 0.0009354604    1.185    0.156
        83 -11.6133    120.4933     34.7166   6.2777474440e+01   5.0768317604e+01    0.3079998    0.2631298  52.44 0.0005065381    1.159    0.137
        84 -10.3324     50.1510     34.6085   8.6526854495e+01   6.4027040552e+01    0.2522518    0.1182489  33.22  0.001206436    2.258    0.557
        85 -10.4063     73.1577     32.3466   7.6434482895e+01   6.0876622223e+01    0.2575493    0.1769095  68.54  0.001158548    2.955    0.662
        86 -10.7052    102.1135     29.2978   6.5661897299e+01   5.5643811655e+01    0.3778765    0.2734292 -52.12  0.001912317    1.828    0.453
        87 -11.4618    220.6046    248.4098   9.2519862181e+01  -7.7558670710e+00    0.2558253    0.1500549  49.48  0.001419587    2.275    0.560
        88 -10.7867    239.5474     20.6498   4.0042259985e+01   2.2885774381e+01    0.2356239    0.1971718 -79.55 0.0006688883    1.076    0.071
        89 -12.0395    201.9902     20.5265   4.3835721477e+01   3.1900544273e+01    0.3328199    0.1960651 -72.50  0.001531335    1.934    0.483
        90 -11.9507     22.0148    238.9487   1.2780933309e+02   2.2393907365e+01    0.4100334    0.1715155  69.52  0.002360522    2.081    0.520
        91  -9.8817     88.3197     17.6453   6.4907986468e+01   5.9996170324e+01    0.1268378    0.1057663 -62.00 0.0006367987    1.753    0.429
        92 -10.2742     12.9918    227.6977   1.2876175518e+02   2.5383867011e+01    0.1503802    0.1022945  65.47 0.0005107922    1.089    0.082
        93 -10.1504    104.4563    225.0046   1.1152119675e+02   1.4254087313e+01    0.1729679    0.1205742 -67.76  0.001034113    1.606    0.377
        94 -11.0604     95.5831    224.9195   1.1327036942e+02   1.5616786629e+01    0.2765725      0.12556  53.02  0.001336589    1.995    0.499
        95 -10.8781    149.3295    222.8790   1.0223387063e+02   7.3222777646e+00    0.2284712    0.1226555 -59.90   0.00108988    2.543    0.607
