#   1 NUMBER                 Running object number                                     
#   2 MAG_AUTO               Kron-like elliptical aperture magnitude                    [mag]
#   3 X_IMAGE                Object position along x                                    [pixel]
#   4 Y_IMAGE                Object position along y                                    [pixel]
#   5 X_WORLD                Barycenter position along world x axis                     [deg]
#   6 Y_WORLD                Barycenter position along world y axis                     [deg]
#   7 A_WORLD                Profile RMS along major axis (world units)                 [deg]
#   8 B_WORLD                Profile RMS along minor axis (world units)                 [deg]
#   9 THETA_WORLD            Position angle (CCW/world-x)                               [deg]
#  10 FWHM_WORLD             FWHM assuming a gaussian core                              [deg]
#  11 ELONGATION             A_IMAGE/B_IMAGE                                           
#  12 ELLIPTICITY            1 - B_IMAGE/A_IMAGE                                       
         1 -13.3734    228.4642      2.8185   3.8052239177e+01   2.7612724439e+01     2.000109    0.6144553  61.00  0.003527803    3.022    0.669
         2 -14.0223    195.3415     37.0643   5.0579134911e+01   3.1768521739e+01     1.442155     1.117823 -25.40   0.00357748    1.392    0.282
         3 -14.6521    205.0186     26.2353   4.6313388443e+01   3.0693724008e+01     1.786371     1.340515  32.71  0.001887863    1.684    0.406
         4 -12.7721     32.9522     15.7898   8.7164746779e+01   6.9200036479e+01     0.358888    0.2541896 -37.02  0.002336201    1.349    0.259
         5 -13.1700     34.3520      4.9143   8.1064456019e+01   7.0590894795e+01    0.5492364    0.3268036  37.01   0.00333668    1.891    0.471
         6 -12.3820     59.4542      3.2202   6.9268663031e+01   6.7091570292e+01    0.4126517    0.3221681  32.26  0.002707848    1.236    0.191
         7 -15.1905     29.9659    248.7610   1.2741100122e+02   2.0267826776e+01    0.8682041    0.6819143  47.55  0.005009538    1.448    0.309
         8 -12.0805    139.8210    248.1148   1.0816539287e+02   5.3763053260e+00    0.5097912    0.3833621 -84.70  0.003339491    1.784    0.439
         9 -15.5651     54.4706    199.1173   1.1954012001e+02   2.6821109355e+01     3.826328     3.256827 -30.53   0.02523172    1.862    0.463
        10 -13.8464     73.2792    157.4986   1.1044420037e+02   3.3573312234e+01    0.5738633    0.5599202 -28.51  0.003173316    1.286    0.223
        11 -15.3647     68.3137    144.1917   1.0967075633e+02   3.7398001997e+01      5.37085      2.79018  66.09   0.02196038    2.714    0.632
        12  -9.9170     97.6884    200.4743   1.1070639074e+02   2.0484721954e+01    0.2743385    0.2158851  -2.05 0.0008596321    2.140    0.533
        13 -11.2312    208.6806    196.8398   8.7224970478e+01   1.6767684294e+00    0.2439641    0.2045092  33.27 0.0006739743    1.147    0.128
        14 -10.1768    111.9457    197.1486   1.0723096875e+02   1.8875120774e+01    0.3061825    0.1801582  18.97  0.001248804    3.172    0.685
        15  -9.8541     82.0332    195.0933   1.1337648608e+02   2.3950945278e+01    0.2207501    0.2012169  60.58  0.001404116    1.176    0.150
        16 -10.0930     96.7550    189.7835   1.0952185926e+02   2.2844955565e+01     0.337558    0.2057872  30.62  0.001672085    1.928    0.481
        17  -9.4750     99.2709    186.7655   1.0855425238e+02   2.3086899100e+01     0.206842    0.1608841  74.09 0.0006220345    1.249    0.199
        18  -9.4456    150.2822    187.6263   9.7458048576e+01   1.4010461369e+01    0.1400993    0.1071548  80.59 0.0007013584    1.706    0.414
        19 -10.0942    147.4781    184.9655   9.7604758700e+01   1.5048635467e+01    0.2006182    0.1402107 -50.22 0.0005989065    1.559    0.359
        20 -10.2639     99.4113    180.6422   1.0765206639e+02   2.4380504096e+01    0.2327593    0.2189566  63.81 0.0006034405    1.122    0.109
        21  -9.2824     42.9262    179.5118   1.2012120601e+02   3.2394514833e+01    0.1613177    0.1112992  44.38 0.0003184112    1.463    0.316
        22 -10.3624    144.5173    178.5303   9.7120599403e+01   1.6882704434e+01    0.1423578    0.1313435  51.70 4.215433e-05    1.015    0.014
        23 -12.0880     76.9670    171.4443   1.1152643633e+02   2.9844372547e+01    0.3064044    0.2508601 -45.97  0.001800836    1.484    0.326
        24  -9.6362    219.4272    177.4733   8.1443269973e+01   2.7862561006e+00    0.1362898    0.1201311   4.83 6.005331e-05    1.012    0.012
        25 -10.3845     47.5694    173.1288   1.1846032900e+02   3.3278971666e+01    0.3823138    0.1726077 -59.95  0.001202633    2.106    0.525
        26 -12.1477     72.7704    176.4227   1.1314409053e+02   2.9318432302e+01     0.416137    0.2811472 -39.71  0.001581773    2.106    0.525
        27 -10.6236     53.4062    172.1977   1.1704445931e+02   3.2793806690e+01    0.4289756    0.1979023 -66.58   0.00209439    1.947    0.487
        28  -8.8953    200.6875    168.3164   8.3186313458e+01   7.8600670900e+00    0.1348062    0.1160142 -89.13 0.0007034576    1.642    0.391
        29  -9.9394    162.0173    166.8321   9.1015476232e+01   1.5834185758e+01    0.2173289    0.1930632  73.28 0.0004766225    1.263    0.208
        30 -10.4164    230.3602    166.1778   7.7106514591e+01   2.5817031526e+00    0.1918326    0.1191774 -41.97 0.0005439805    1.716    0.417
        31 -14.5821     85.7106    229.2952   1.1625639676e+02   1.6708247861e+01     2.012888     1.326935  57.75  0.009935418    1.241    0.194
        32 -12.1943     91.3060    155.2755   1.0562204797e+02   3.1394651253e+01    0.5909748     0.426152 -30.08  0.002897808    1.971    0.493
        33 -10.4572    187.8540    154.3980   8.2830506516e+01   1.2979679880e+01    0.4981486    0.1854032  39.91  0.001710546    2.786    0.641
        34 -15.2096     10.9138    206.4059   1.2842194373e+02   3.0067491242e+01    0.6031018    0.4742785 -71.56  0.002843488    1.478    0.323
        35 -11.2895    133.6380    144.5292   9.3001614732e+01   2.6243387730e+01     1.135179    0.2838143 -54.57  0.002716037    5.762    0.826
        36 -10.6149    174.2820    148.6936   8.4468218673e+01   1.6930920997e+01    0.3502233    0.2805187 -72.54  0.001336974    1.603    0.376
        37  -9.3429    109.2529    147.2907   9.9659524063e+01   3.0225150437e+01    0.1938543    0.1589734  79.45 0.0003432556    1.303    0.233
        38  -9.8529    144.3049    146.6695   9.0882340746e+01   2.3620854536e+01    0.1541176    0.1198228  85.94 0.0002914244    1.656    0.396
        39 -10.2278     87.3516    146.0808   1.0504696669e+02   3.4173683581e+01    0.2467244     0.188798  57.37 0.0005329665    1.319    0.242
        40 -11.1350    104.5919    139.9535   9.9410129953e+01   3.2756530876e+01    0.5984288    0.3508509 -36.19  0.002480505    2.246    0.555
        41 -12.3996     92.0322    140.2391   1.0275979955e+02   3.4811440359e+01      0.29076     0.255412 -55.08 0.0004196495    1.147    0.128
        42 -10.7562    107.9931    203.2409   1.0888969811e+02   1.8300535159e+01    0.2158866    0.1819187 -79.66  0.000706838    1.231    0.188
        43 -10.7705    105.9765    130.4731   9.7068753264e+01   3.4732892925e+01    0.4090658    0.2966229 -60.18   0.00199314    1.356    0.263
        44 -10.3681    112.8225    130.4388   9.5237092525e+01   3.3485215106e+01    0.3275134    0.2667723   7.59  0.001027825    1.600    0.375
        45 -16.3385     61.8224    247.4745   1.2204843232e+02   1.6706477680e+01     8.901494     2.740494  31.11   0.01242928    9.083    0.890
        46 -11.0420    135.6555    127.0786   8.8543803619e+01   2.9723210612e+01    0.6396914    0.1445514 -49.65  0.001593427    4.804    0.792
        47 -10.2502    160.6253    128.3235   8.2790743202e+01   2.4066152603e+01    0.3694307    0.3146988 -83.16  0.001809211    1.403    0.287
        48 -11.2399    119.6978    123.6133   9.1849607103e+01   3.3743096636e+01    0.5593427    0.3712289 -13.38  0.002134678    2.712    0.631
        49 -11.1895    100.0976    126.9396   9.7894753600e+01   3.6605190170e+01    0.3853741    0.2516898 -35.83 0.0007234536    1.832    0.454
        50 -10.1814    108.9121    119.1695   9.3710932987e+01   3.6835719573e+01    0.2153962    0.2096754 -68.89 0.0003750391    1.020    0.020
        51 -17.5044      6.6681    239.6962   1.3069707900e+02   2.4258506001e+01     5.019129     1.094247 -70.27   0.02416823    3.993    0.750
        52 -10.6490    134.7311    112.4048   8.5114271245e+01   3.3168896164e+01    0.4558924    0.1346616 -46.92  0.001323967    3.384    0.705
        53  -9.8677    167.5473    112.3912   7.7163176767e+01   2.5788835794e+01    0.3380533    0.2442212 -73.92  0.001248656    1.946    0.486
        54 -11.7105    118.3671    109.7447   8.8776328305e+01   3.7165252171e+01     0.561929    0.4785444  89.18  0.002816752    1.365    0.267
        55  -9.9714    205.5899    110.1121   6.8725566973e+01   1.7394795089e+01     0.273849    0.2192886  41.25 0.0006195104    1.303    0.232
        56 -11.4627     32.7444    105.0144   1.1327649445e+02   5.0791815668e+01    0.2752303    0.1930198 -61.16 0.0009418781    1.174    0.148
        57 -10.0156    134.6093    105.1442   8.3215861956e+01   3.4778038933e+01    0.4692128    0.1463625 -47.12  0.001388035    3.257    0.693
        58  -9.7349    130.6525    213.1236   1.0552658228e+02   1.2683568013e+01    0.2119532     0.153352  52.64 0.0003494217    1.225    0.184
        59 -10.5970    106.7675    210.6318   1.1008102891e+02   1.7051705716e+01    0.2127485    0.1872362  36.94 0.0006599585    1.265    0.209
        60 -11.2735     41.7038     91.7168   1.0790276468e+02   5.3071108032e+01    0.2516173    0.2199304 -41.98 0.0006369022    1.139    0.122
        61 -10.3748     53.1149     90.7921   1.0391201078e+02   5.2051180461e+01    0.2581592    0.1745665 -46.92  0.001090296    1.317    0.241
        62  -9.7005    156.9923     80.7281   7.0691370013e+01   3.4536351471e+01    0.2186773    0.2060764  49.75 0.0005118779    1.065    0.061
        63 -10.0861     62.4821     69.2185   9.4926791616e+01   5.5691921050e+01    0.2232564     0.215114  80.83 0.0003276114    1.255    0.203
        64 -11.1853    153.0044     56.0378   6.3903620932e+01   3.9838988110e+01    0.4079051    0.2911845 -79.46  0.001776448    1.950    0.487
        65 -10.1737    172.3704    238.8182   1.0095127479e+02   1.5588893221e+00    0.2260568    0.1503558 -59.80  0.001308833    2.207    0.547
        66 -13.7163    185.1324     45.0887   5.4446417920e+01   3.3282884974e+01     1.205003    0.9801911  16.04 0.0009350384    1.511    0.338
        67  -9.9007     73.6684    230.8252   1.1864356528e+02   1.8101129236e+01    0.2354288    0.1304424  46.99  0.001400413    1.477    0.323
        68 -10.2478    174.3288    230.0779   9.9336896500e+01   2.5157356742e+00    0.1711246    0.1548489  30.67  0.001170331    1.112    0.101
        69  -9.8386    113.9984    208.5025   1.0832457100e+02   1.6302891641e+01    0.1988703    0.1121573  43.71 0.0005357855    1.544    0.352
        70 -11.0655    155.5212     50.1600   6.1468242354e+01   4.0125771597e+01    0.3754981     0.286314 -88.99 0.0008276633    1.615    0.381
        71 -16.4967      2.6811    117.7693   1.2364203545e+02   5.0016580482e+01     15.42882    0.9607314 -73.98    0.0313211   11.853    0.916
        72 -11.8699    193.1230    194.7985   8.9869068305e+01   4.7859490731e+00    0.9694341    0.5118456 -62.22   0.00319485    5.204    0.808
        73  -9.2177     58.0805    226.7975   1.2118239986e+02   2.0890194688e+01     0.177671    0.1148961  71.72  0.001152352    1.305    0.233
        74  -9.9113    189.8805     15.0184   4.5050678041e+01   3.5809435902e+01     0.211265    0.1946894 -88.73   0.00065555    1.024    0.024
        75 -10.0206    111.8291    217.8393   1.0993723996e+02   1.4888904452e+01    0.1787613    0.1580147  44.42 0.0004249962    1.177    0.151
