#   1 NUMBER                 Running object number                                     
#   2 MAG_AUTO               Kron-like elliptical aperture magnitude                    [mag]
#   3 X_IMAGE                Object position along x                                    [pixel]
#   4 Y_IMAGE                Object position along y                                    [pixel]
#   5 X_WORLD                Barycenter position along world x axis                     [deg]
#   6 Y_WORLD                Barycenter position along world y axis                     [deg]
#   7 A_WORLD                Profile RMS along major axis (world units)                 [deg]
#   8 B_WORLD                Profile RMS along minor axis (world units)                 [deg]
#   9 THETA_WORLD            Position angle (CCW/world-x)                               [deg]
#  10 FWHM_WORLD             FWHM assuming a gaussian core                              [deg]
#  11 ELONGATION             A_IMAGE/B_IMAGE                                           
#  12 ELLIPTICITY            1 - B_IMAGE/A_IMAGE                                       
         1 -14.2754    199.3068     40.5600   4.3489615182e+01   3.0726778954e+01     1.435988     1.219564 -32.80  0.004181298    1.283    0.220
         2 -14.6350    209.6714     30.2502   3.9715815872e+01   2.9610336132e+01     1.584039     1.171545   6.11  0.001910373    2.160    0.537
         3 -13.8003      2.4679     11.7641   9.1181021986e+01   7.3367059650e+01     1.905073    0.5868797 -44.06  0.009439105    2.519    0.603
         4 -12.9745    237.7863      5.2817   3.1704265190e+01   2.6231863629e+01    0.5694911    0.5106957 -61.53  0.004162103    1.234    0.190
         5 -12.7746    231.2433      4.7408   3.2031818819e+01   2.7682082225e+01    0.5759052    0.3370903 -45.66  0.003106859    1.491    0.329
         6  -9.9759     60.5096      7.5578   6.0913979958e+01   6.6284414328e+01     0.122612    0.1005664  19.70 9.490939e-05    1.013    0.013
         7 -11.1983     19.8002     33.2006   9.0968596677e+01   6.8379403276e+01    0.3410179    0.1464944  29.04   0.00146233    2.511    0.602
         8 -11.7164    140.2908    249.7196   1.0080070502e+02   3.7191157540e+00    0.5153584    0.2056102  35.33  0.002343832    2.201    0.546
         9 -11.9927    140.1475    245.1277   1.0024051628e+02   4.5013169095e+00    0.2612286    0.2518333 -54.06  0.001234978    1.235    0.190
        10 -16.0665     72.4966    149.9171   1.0174712444e+02   3.5856171470e+01     17.76114     8.930616  71.21   0.04703098    4.168    0.760
        11 -13.2260     71.3290    171.1372   1.0544740952e+02   3.0779022109e+01     1.274759    0.5787246 -37.59   0.00359408    4.588    0.782
        12 -13.9303     54.8733    187.3990   1.1158444291e+02   2.9096753141e+01    0.9634256     0.807118  75.32  0.005965216    1.042    0.041
        13 -16.2911     47.1148    200.7838   1.1475382378e+02   2.6978537388e+01     9.367048     3.296284  60.70   0.03304433    3.943    0.746
        14  -9.5518     69.8626    184.0844   1.0760727570e+02   2.7878672928e+01    0.2096014    0.1587877  74.95 0.0003190404    1.275    0.216
        15  -9.9975     31.8697    203.6292   1.1829822456e+02   2.8098632531e+01    0.3316352    0.1812254  81.44  0.001774029    1.740    0.425
        16 -10.8164     99.3072    180.8344   9.9958750801e+01   2.4153658371e+01    0.2901838    0.2428381  33.45 0.0008784797    1.277    0.217
        17 -17.0690      7.1579    203.0331   1.2335581114e+02   3.0704379403e+01     7.106097     1.610672 -79.35   0.02649946    3.996    0.750
        18 -10.7526    189.3442    177.5990   7.8711310424e+01   8.3389193591e+00    0.5075969    0.3252186 -55.06  0.002344116    1.917    0.478
        19 -11.6899     61.7970    199.3335   1.1133061811e+02   2.5444364626e+01    0.3481324    0.2241618 -65.04 0.0008802001    1.524    0.344
        20 -11.2127     42.6353    179.8577   1.1364107436e+02   3.2361937469e+01    0.2315303    0.2113244  71.18 0.0003963217    1.155    0.134
        21 -10.9199     45.9564    176.4895   1.1246557712e+02   3.2779921148e+01    0.2905567    0.2691279  46.47  0.001155866    1.255    0.203
        22  -9.3548    148.9722    176.0549   8.7209997022e+01   1.6311194258e+01    0.2205142    0.1994733 -87.90  0.000498092    1.245    0.197
        23 -10.6382    146.2716    171.8093   8.6996962112e+01   1.7745106316e+01    0.3538774    0.2628579 -77.03    0.0010683    1.777    0.437
        24 -10.4491     66.0516    194.4887   1.0980515587e+02   2.5978442509e+01    0.3153849    0.2417741  29.93  0.001050487    1.510    0.338
        25 -10.6385    230.6510    167.1480   6.8686360458e+01   2.7980767625e+00    0.2856329    0.1099599 -44.49  0.001104389    2.655    0.623
        26 -10.3396    136.7802    166.9673   8.8278823319e+01   2.0639824783e+01    0.3987201     0.252733  64.07  0.001642628    2.133    0.531
        27  -9.4683    132.9867    162.9123   8.8379724728e+01   2.2286925068e+01    0.2884703    0.1904148  56.81  0.001266449    1.710    0.415
        28 -16.5130     21.5077    249.7265   1.2330810058e+02   1.9794992783e+01      3.62728     1.083444  27.08   0.01126817    8.516    0.883
        29  -9.7726     35.7131    166.9567   1.1390445890e+02   3.6234921307e+01    0.2217267    0.1683619  55.12 0.0002438449    1.305    0.234
        30 -10.6416    183.8080    206.1834   8.5318948204e+01   4.0846493678e+00    0.1976324    0.1528961   5.34  0.001090281    1.370    0.270
        31 -10.4828     35.9053    158.5183   1.1287039321e+02   3.8278163974e+01    0.3324592    0.1963958  81.38 0.0009110564    1.799    0.444
        32 -10.6274     32.4963    156.5029   1.1351498842e+02   3.9126153127e+01    0.2328035    0.2024448 -40.35  0.001334494    1.398    0.285
        33 -11.9603    206.3900    194.5046   7.8661362116e+01   2.2674521633e+00    0.6078583    0.2350543  28.58  0.002063093    3.786    0.736
        34 -12.3916     89.2389    153.0105   9.7731148917e+01   3.2509149099e+01    0.6973385    0.4824453 -26.23  0.003108567    2.076    0.518
        35  -9.5820    111.2097    149.2993   9.1111381300e+01   2.9600226637e+01    0.3671713    0.2161519  69.83  0.001309891    2.865    0.651
        36 -11.4785    133.7836    144.7396   8.4276247712e+01   2.6311074182e+01     1.237223    0.3296409 -54.43  0.002977432    5.243    0.809
        37 -10.3864    174.4283    148.8673   7.5670763314e+01   1.7005440083e+01    0.3178884     0.272379 -89.02 0.0009585326    1.451    0.311
        38 -11.2114     38.6793    146.1052   1.1051919432e+02   4.1061563853e+01    0.3379628     0.252337  67.92 0.0008487544    1.373    0.272
        39 -10.5351    143.7065    145.7186   8.2038826750e+01   2.4065863196e+01    0.3226675    0.1918543 -67.99   0.00118325    2.519    0.603
        40  -9.4773    199.0632    141.1051   6.8808604323e+01   1.3479749154e+01    0.2294231    0.1787637 -70.75  0.001071276    1.677    0.404
        41 -10.9528    102.8021    138.9334   9.1172260685e+01   3.3645880793e+01     0.566621    0.3683175 -21.82  0.002229529    2.477    0.596
        42 -12.5207     90.1561    138.5825   9.4633401477e+01   3.5927966548e+01    0.2992144    0.2643851 -43.44 0.0004336661    1.167    0.143
        43 -10.4534    120.0943    194.1580   9.7161956056e+01   1.7635316499e+01    0.2420997    0.1994907  89.01 0.0006137345    1.345    0.256
        44 -10.7925    105.9253    130.8415   8.8483397593e+01   3.5037041478e+01    0.3668531    0.3254348 -72.60  0.001195379    1.144    0.126
        45 -11.6851    135.7086    127.3086   7.9646729465e+01   2.9913849152e+01    0.8873591    0.2095714 -49.14    0.0022387    4.460    0.776
        46 -10.3743    111.8470    129.6892   8.6568416077e+01   3.4193023724e+01    0.3313441     0.260142  10.89 0.0009804962    1.643    0.392
        47 -10.2429    160.7370    127.6039   7.3661590078e+01   2.4430226365e+01    0.3236192    0.2590448 -60.38  0.001542528    1.343    0.255
        48 -11.1257     99.1017    125.5767   8.9186977681e+01   3.7560864235e+01     0.312166    0.2613703   1.26 0.0007642639    1.476    0.323
        49 -11.2755    118.4711    123.3968   8.3217678315e+01   3.4376785045e+01    0.6052659    0.3933787  -8.99  0.002142162    3.015    0.668
        50  -9.8839     92.2601    124.8779   9.1012059755e+01   3.8940640167e+01    0.2450258    0.2015063  60.22  0.000613683    1.332    0.249
        51 -13.4645     27.9706    215.1766   1.1998110235e+02   2.6011191040e+01     1.237546    0.4429638  81.72  0.004576686    4.132    0.758
        52  -9.9516    107.9935    118.8239   8.4988947473e+01   3.7513754548e+01    0.2173654    0.2140661 -54.68  0.000343648    1.027    0.026
        53 -15.1274     24.4921    226.8583   1.2144646810e+02   2.3947523063e+01     2.156348    0.8225682  75.90  0.009495464    3.080    0.675
        54 -13.1989     45.0807    106.8405   1.0182561404e+02   5.0130130001e+01     0.744912    0.4348142 -41.15  0.003168012    1.724    0.420
        55  -9.2938    168.0073    112.9793   6.8304191570e+01   2.5863007283e+01    0.2584308    0.1924447 -77.10  0.001131225    1.780    0.438
        56 -13.5007     20.4435    109.1480   1.1041912101e+02   5.1892080320e+01    0.7701473     0.498967  42.55  0.004312573    1.803    0.445
        57  -9.2933    249.7183    111.6959   5.3723074655e+01   8.7703263803e+00    0.1274049   0.09955677  -8.75            0    1.554    0.357
        58 -10.2451    205.4811    110.1776   6.0245667756e+01   1.7995114856e+01    0.3032663    0.2140905  42.76  0.001032839    1.579    0.367
        59 -11.0632    116.2528    109.1357   8.0122596830e+01   3.8109730627e+01     0.655646    0.4276311  51.35  0.002855796    1.653    0.395
        60  -8.8114    140.4914    107.4270   7.3240303920e+01   3.3269461940e+01    0.1548839    0.1527516 -55.49 0.0001113024    1.011    0.011
        61 -10.3095    134.5559    105.3820   7.4181082272e+01   3.5028920103e+01    0.4923131    0.1500755 -45.20  0.001452788    3.219    0.689
        62 -10.2073     90.0813    213.1200   1.0664479170e+02   1.8389443846e+01    0.3663054    0.2064717  69.05  0.001365769    2.215    0.548
        63 -10.7145    242.1953    101.5933   5.2514760867e+01   1.1872376202e+01     0.177661    0.1276058  42.42 0.0009520504    1.693    0.409
        64 -10.5945    149.3557    187.6529   8.9327373313e+01   1.3790601966e+01    0.3191401    0.2639146  48.34 0.0009130024    1.197    0.164
        65 -10.1660    128.4174     95.5980   7.3008285931e+01   3.8464271817e+01    0.2769611    0.2338016  57.44 0.0009030418    1.248    0.198
        66  -9.6268     72.0946    188.2319   1.0761393742e+02   2.6589690419e+01      0.18607    0.1555713  77.23 0.0004158637    1.082    0.076
        67 -10.0938    156.5431     88.6742   6.4190456666e+01   3.3358152546e+01     0.334786    0.2298363 -71.62  0.001039291    1.995    0.499
        68  -9.6018    234.3186     86.3177   5.0101113562e+01   1.5967191586e+01    0.1308379    0.1076399   5.08 0.0003290578    1.658    0.397
        69  -9.4110    116.7153     85.5761   7.3198720131e+01   4.3087051142e+01    0.2083172    0.1474054  58.17 0.0009383611    1.593    0.372
        70 -10.0429    158.3327     82.2221   6.1949042877e+01   3.4138186669e+01     0.232473    0.1944392 -17.65 0.0006090485    1.355    0.262
        71  -9.2257     56.5335     66.5182   8.6923002494e+01   5.7839687791e+01    0.1351298    0.1216506 -29.99 8.455708e-05    1.058    0.055
        72 -13.9473    189.0292     48.2177   4.6880151284e+01   3.2150081501e+01     1.302547    0.9957101  36.26 0.0009276895    1.631    0.387
        73 -11.5006    129.4173    247.3046   1.0264378020e+02   5.7875942787e+00    0.3591685    0.2357527  77.16  0.001899165    2.289    0.563
        74 -11.4260    112.2957    205.6869   1.0071047219e+02   1.6470942313e+01    0.3091768    0.2560935  62.98 0.0007269042    1.165    0.142
        75  -9.8000     67.9870     52.2109   7.7532025036e+01   5.8814431279e+01    0.1913926    0.1822055  54.82 0.0009783803    1.326    0.246
        76 -11.2357    142.8690     47.9460   5.4750992173e+01   4.3547025886e+01    0.5982835    0.3455472 -77.00  0.001169936    3.322    0.699
        77 -11.6543      3.1829     30.4793   9.8520924407e+01   7.0145586788e+01    0.2812322    0.2215723 -23.79  0.001232867    1.096    0.088
        78 -16.2222      4.3999    247.6117   1.2613277479e+02   2.1947261656e+01    0.8950456     0.629153  64.30  0.006881245    1.074    0.069
        79 -11.2392     13.2634     59.7147   1.0275454130e+02   6.3738164726e+01    0.2754324    0.2315287 -88.53 0.0005608377    1.543    0.352
        80 -10.6094    198.0410     23.9049   3.9387579114e+01   3.3101062849e+01    0.2795763    0.1971779 -19.72  0.001135159    1.761    0.432
        81  -9.7414    189.3719     14.9901   3.8038006964e+01   3.6157173319e+01    0.1789226    0.1562173 -54.00 0.0006013511    1.159    0.137
        82 -12.5082    107.9745    203.5403   1.0137497942e+02   1.7635535028e+01     0.460025     0.446637  -9.54 0.0004992241    1.218    0.179
        83 -10.1211    169.0412    235.8908   9.3192052020e+01   1.4863511447e+00    0.1867961    0.1737407 -11.42 0.0004139122    1.174    0.148
        84  -9.3429     93.4318    205.6974   1.0495862247e+02   1.9474602360e+01    0.2111389    0.1675647  12.65 0.0007293675    1.701    0.412
