#   1 NUMBER                 Running object number                                     
#   2 MAG_AUTO               Kron-like elliptical aperture magnitude                    [mag]
#   3 X_IMAGE                Object position along x                                    [pixel]
#   4 Y_IMAGE                Object position along y                                    [pixel]
#   5 X_WORLD                Barycenter position along world x axis                     [deg]
#   6 Y_WORLD                Barycenter position along world y axis                     [deg]
#   7 A_WORLD                Profile RMS along major axis (world units)                 [deg]
#   8 B_WORLD                Profile RMS along minor axis (world units)                 [deg]
#   9 THETA_WORLD            Position angle (CCW/world-x)                               [deg]
#  10 FWHM_WORLD             FWHM assuming a gaussian core                              [deg]
#  11 ELONGATION             A_IMAGE/B_IMAGE                                           
#  12 ELLIPTICITY            1 - B_IMAGE/A_IMAGE                                       
         1 -12.3652     59.0807    132.6401   1.0030441540e+02   4.1688529358e+01     1.667651    0.6418409 -74.12  0.004620144    4.743    0.789
         2 -11.9372    197.8370     43.5002   4.1235663200e+01   3.0481889542e+01     0.869162    0.7757683 -55.93  0.003367454    1.108    0.098
         3 -12.0334    206.6714     34.7775   3.8056289067e+01   2.9581436178e+01    0.6368148    0.6041614  71.09   0.00130044    1.225    0.183
         4 -12.8056     30.4701     36.2235   8.5006866597e+01   6.6607143346e+01     1.151878    0.5232936 -47.96  0.005564853    2.242    0.554
         5 -12.0256     32.5672     22.1162   7.7836629116e+01   6.8614702293e+01    0.7212594    0.2888697 -42.18  0.003378327    2.617    0.618
         6 -12.1129     32.7351     11.6604   7.2651143450e+01   7.0019222723e+01     1.127168    0.3587107 -40.97  0.004587772    3.921    0.745
         7 -11.9562    232.6556      7.3366   2.9711776487e+01   2.7096730017e+01     0.819472    0.5984772 -67.23  0.004756738    1.096    0.088
         8 -10.4604    228.8511     10.8969   3.0713294161e+01   2.7508613974e+01    0.2951291    0.2477184  57.13  0.001533733    1.508    0.337
         9 -10.1916     58.8867      3.2699   5.7053628286e+01   6.6704963459e+01    0.2504826    0.1293375  43.34   0.00135901    1.603    0.376
        10  -8.7864     71.6553      1.6868   5.2029340225e+01   6.4380527444e+01    0.1359663   0.07372183  30.36 0.0007046907    1.710    0.415
        11  -9.8921     49.5695    213.5085   1.1366875178e+02   2.2936077066e+01    0.2226934    0.1719875 -85.24 0.0006506949    1.210    0.173
        12  -9.9840    140.3103    248.9588   9.7976055494e+01   2.8400948271e+00    0.3101375    0.1896659 -43.92  0.001704067    1.930    0.482
        13 -17.3653     15.9125    206.2387   1.2040345480e+02   2.8201558843e+01     14.41918     4.303047 -78.39   0.05909576    3.088    0.676
        14  -9.3707    191.4758    192.1317   7.7555171866e+01   4.7925804915e+00    0.2987691    0.2071275 -85.18  0.001083588    4.142    0.759
        15 -11.9189     57.4553    184.8367   1.0873960124e+02   2.8661178952e+01    0.7570527    0.6727569 -83.63  0.003013822    1.059    0.056
        16  -9.2846     50.2392    181.3811   1.1014418715e+02   3.0394235211e+01    0.2479866    0.1993517  49.99 0.0006312559    1.225    0.184
        17 -10.2342     47.0387    218.4723   1.1467011150e+02   2.2143958276e+01    0.3347975    0.2371617  -4.17   0.00155597    2.496    0.599
        18  -8.1675    146.6906    186.3264   8.6521476574e+01   1.3983886283e+01    0.1478981    0.1187253  74.81 0.0007039079    1.657    0.397
        19  -9.8212     51.1555    217.1671   1.1365618026e+02   2.1932637133e+01     0.283563    0.2528874  38.37 0.0008849002    1.266    0.210
        20  -8.5955     59.8746    218.4595   1.1185808739e+02   2.0555289608e+01    0.1861796    0.1506594  86.21 0.0003941172    1.155    0.135
        21  -8.1070     79.5092    183.0507   1.0287208638e+02   2.6082505195e+01    0.2128636    0.1364156 -64.32 0.0005532131    1.539    0.350
        22  -9.1493     99.5238    180.9261   9.7360499917e+01   2.3491375649e+01    0.2622467    0.2092827  15.44 0.0007206702    1.466    0.318
        23 -10.3504    106.8042    249.6950   1.0506954792e+02   7.7061777893e+00    0.2737445    0.2226868  30.62  0.001753957    1.185    0.156
        24  -9.1725    143.0142    214.4916   9.2329293288e+01   8.7698292211e+00    0.2259016    0.1272867  34.83    0.0010412    1.618    0.382
        25  -9.8046    134.7177    210.0170   9.3510229637e+01   1.1065237451e+01    0.4142808    0.1275069 -52.48    0.0014011    3.552    0.719
        26  -9.3186    186.5773    174.2346   7.4968097220e+01   9.1145391102e+00    0.3340358    0.3061237  56.01  0.001391858    1.315    0.240
        27 -10.0152    103.6158    172.0025   9.4741629517e+01   2.4970249034e+01    0.3990933    0.2607617  88.56  0.001623338    2.292    0.564
        28 -10.1578     70.5275    171.4923   1.0352188038e+02   3.0224675201e+01    0.2993055    0.2705207 -28.40 0.0007888012    1.292    0.226
        29 -10.8611     74.8087    166.7628   1.0162837592e+02   3.0805857859e+01    0.5572229    0.3762149 -31.50  0.002551228    1.947    0.486
        30 -10.1236     33.5077    165.7599   1.1264817659e+02   3.6115037530e+01    0.4827375    0.2192763  46.51  0.002004493    2.256    0.557
        31 -10.0827     42.1838    208.0188   1.1481274203e+02   2.5043310726e+01    0.4100889     0.230482  47.15  0.001395384    1.604    0.377
        32 -11.8712     72.0868    152.8923   1.0007348845e+02   3.4722555879e+01     0.515707    0.4616375  49.02 0.0009769027    1.154    0.134
        33 -12.1204     69.3051    144.3810   9.9364700814e+01   3.7299596780e+01    0.9066837    0.6054297  71.84  0.002830919    1.952    0.488
        34 -10.4383     90.1139    151.6203   9.4646253899e+01   3.2290159758e+01     0.673182    0.4393081 -24.64  0.001809835    2.191    0.544
        35 -10.7902     55.2859    148.7880   1.0426878564e+02   3.8009059516e+01    0.5137312    0.4329591 -23.06  0.002827699    1.404    0.288
        36  -9.9716    133.0000    140.4627   8.0253619058e+01   2.7111653724e+01    0.6878557    0.1605236 -49.60  0.001723597    4.433    0.774
        37  -9.3765    134.5066    149.0096   8.1831144327e+01   2.4799570533e+01    0.3153353    0.2276969 -71.95 0.0009999226    1.809    0.447
        38  -8.1317     88.5628    210.0977   1.0435374170e+02   1.8429533276e+01    0.1916882    0.1322578 -68.32 0.0004162288    1.526    0.345
        39  -9.3641    103.5169    137.7348   8.7842503114e+01   3.3469662603e+01    0.5320961    0.3249974 -13.80    0.0017905    3.220    0.689
        40  -9.3112    105.9886    131.0194   8.5564623618e+01   3.4671391772e+01    0.4006833    0.3124344 -58.70  0.001198472    1.308    0.236
        41 -10.5789     91.2030    137.2421   9.1368847806e+01   3.5744528056e+01    0.2995498    0.2654995 -30.81 0.0004633108    1.176    0.150
        42  -9.4074     72.0220    249.6708   1.1219977891e+02   1.2567089942e+01    0.2732806    0.1850269  56.68 0.0007551633    1.262    0.208
        43 -10.6175     44.3378    130.5130   1.0455922489e+02   4.3972877558e+01    0.3642707    0.2310249 -62.55  0.001230098    1.383    0.277
        44  -9.4736    126.5922    209.1991   9.5272638590e+01   1.2595233645e+01    0.1977879    0.1306655 -41.66 0.0009598806    1.697    0.411
        45  -9.1912    135.7071    129.1978   7.6796574376e+01   2.9175890193e+01    0.3312221    0.1410224 -52.90  0.001075391    2.643    0.622
        46  -9.8107    112.7836    128.9578   8.3089716775e+01   3.3881309270e+01     0.385684      0.22726  26.63   0.00104922    2.055    0.513
        47  -9.3015     99.6176    124.8143   8.5973739536e+01   3.7365050466e+01    0.3024003    0.2556755  -2.22 0.0008596726    1.352    0.260
        48  -8.6062     64.6302    205.0547   1.0936758259e+02   2.2941326269e+01     0.288029    0.1538288 -83.71  0.001069372    2.182    0.542
        49 -10.1129    111.1210    203.5846   9.8072700044e+01   1.6358848500e+01     0.227264    0.1946735 -83.82 0.0004034597    1.282    0.220
        50  -8.5150    108.1740    118.2010   8.1743046570e+01   3.7353833354e+01     0.233693    0.2113212  -4.09 0.0004717143    1.173    0.147
        51 -11.3857     43.3135    109.1322   1.0086176903e+02   4.9492883062e+01    0.4561661    0.3709766 -17.22  0.001854581    1.342    0.255
        52  -8.7466    231.1712    113.9646   5.3176998599e+01   1.1998136702e+01    0.2138876    0.2070212  50.69 0.0007871149    1.185    0.156
        53 -10.2653     72.1653    244.9078   1.1174375840e+02   1.3465427882e+01    0.4416235    0.2414267  54.58  0.001481653    1.641    0.391
        54 -10.6352     51.6409    108.7359   9.7874318829e+01   4.8653256245e+01     0.302494    0.2503526 -26.29  0.001218556    1.239    0.193
        55  -7.6241    139.2819    106.3549   6.9843563709e+01   3.3494887686e+01    0.1627393    0.1256074  -5.34 0.0007016136    1.661    0.398
        56  -8.3411    205.9459    110.4703   5.6529406627e+01   1.7738385351e+01    0.2124352    0.1470567  53.50 0.0007572047    1.578    0.366
        57  -8.8294    127.9938     95.3124   6.9715926142e+01   3.8348272637e+01     0.225174    0.2025053  43.75 0.0009823808    1.118    0.106
        58 -11.2636     82.9825    158.8727   9.8025151448e+01   3.1582741398e+01    0.6673139    0.5903742  50.25  0.001478987    1.146    0.128
        59  -9.0328    155.3385     87.4753   6.0632678222e+01   3.3596430305e+01    0.2987725    0.2405584 -65.94  0.001017013    1.413    0.292
        60  -8.6261     74.9969     85.0088   8.3317771522e+01   5.0961562834e+01    0.2203217    0.2037292 -14.32 0.0004102998    1.022    0.022
        61 -11.2707    186.1637     52.0702   4.5052485340e+01   3.2048941726e+01    0.5540671    0.4461949  32.06  0.001003995    1.556    0.357
        62 -10.7232    101.7942    240.7004   1.0510657308e+02   1.0121899206e+01    0.2966152    0.2003529 -61.71  0.001696519    1.692    0.409
        63 -10.0065     78.8033    237.5980   1.0966352114e+02   1.4009890027e+01    0.3428983    0.2201067 -52.98  0.001927866    1.849    0.459
        64 -10.2784     93.9847    236.3587   1.0628869477e+02   1.2108958308e+01    0.3164275    0.2068902 -72.19 0.0008414243    1.758    0.431
        65  -8.2029    168.4653    232.4938   8.9636079305e+01   1.3144557876e+00     0.133657    0.1133248  17.63 3.653525e-05    1.007    0.007
        66 -10.6644    145.3425    223.0588   9.3165540333e+01   6.7210792607e+00    0.2841216    0.2228609  16.87  0.001591325    1.274    0.215
        67 -10.2300    122.4598    198.9939   9.4615291740e+01   1.5486061516e+01    0.3473912    0.2513223 -78.90  0.001504185    1.791    0.442
        68  -9.3929     59.8833    197.6948   1.0966162928e+02   2.5271873209e+01    0.2366893    0.2126608 -67.54 0.0004096317    1.187    0.158
        69 -10.0400    113.7644    195.0798   9.6094401602e+01   1.7825294972e+01    0.3619069    0.2310169 -16.16  0.001431955    2.787    0.641
