#   1 NUMBER                 Running object number                                     
#   2 MAG_AUTO               Kron-like elliptical aperture magnitude                    [mag]
#   3 X_IMAGE                Object position along x                                    [pixel]
#   4 Y_IMAGE                Object position along y                                    [pixel]
#   5 X_WORLD                Barycenter position along world x axis                     [deg]
#   6 Y_WORLD                Barycenter position along world y axis                     [deg]
#   7 A_WORLD                Profile RMS along major axis (world units)                 [deg]
#   8 B_WORLD                Profile RMS along minor axis (world units)                 [deg]
#   9 THETA_WORLD            Position angle (CCW/world-x)                               [deg]
#  10 FWHM_WORLD             FWHM assuming a gaussian core                              [deg]
#  11 ELONGATION             A_IMAGE/B_IMAGE                                           
#  12 ELLIPTICITY            1 - B_IMAGE/A_IMAGE                                       
         1 -12.3795    222.7603     34.2292   3.4854429793e+01   2.6676068688e+01      1.10284     0.799489  42.27   0.00651581    2.031    0.508
         2 -10.8277      2.3025     23.2929   9.1447931091e+01   7.1404876110e+01    0.6038762    0.1987028 -38.52  0.002914739    2.415    0.586
         3 -10.0278      2.1105     12.7753   8.7004670298e+01   7.3104448040e+01    0.7496679    0.1162527 -46.88  0.002683735    5.094    0.804
         4 -10.1867      2.5781      3.1871   8.1941089096e+01   7.4443490832e+01     0.302847    0.2364471   8.20  0.001805387    1.283    0.221
         5 -11.6590    242.9289     17.3842   2.9827176030e+01   2.4665726364e+01    0.6644771    0.4615853 -65.15  0.002721475    1.112    0.101
         6  -9.7384      1.7380     37.6016   9.6982985054e+01   6.8889948122e+01    0.3406262    0.1542578 -61.24  0.001709468    2.406    0.584
         7 -13.3033      2.9543    134.4258   1.1509790183e+02   4.6632383128e+01     5.987274     1.385963 -79.03   0.01723063    5.034    0.801
         8 -13.2646     31.1625    249.4286   1.1785126615e+02   1.6976237383e+01     5.236394     1.388901  25.98   0.01546503    7.404    0.865
         9 -11.7561      3.0025    245.9219   1.2297310290e+02   2.0592552483e+01     2.306642    0.5029694 -80.06  0.008978012    4.354    0.770
        10 -13.2909     31.7425    193.9391   1.1344550564e+02   2.9256413715e+01     2.580645     1.677403  68.06   0.01216223    1.468    0.319
        11 -10.6877     59.4991    211.8349   1.0866974505e+02   2.1716747035e+01    0.6373561    0.2360281  51.81  0.002442922    2.860    0.650
        12 -12.5140     10.3875    206.7912   1.1934316142e+02   2.8324964254e+01     1.024594    0.9099472 -50.19  0.005686579    1.455    0.313
        13 -10.4249     84.1603    219.0766   1.0375192235e+02   1.6691771559e+01    0.6344044    0.3302953 -80.76  0.001989832    2.611    0.617
        14  -7.4219     99.3472    181.2905   9.4544777082e+01   2.3253476450e+01    0.1496365    0.1171523 -16.11 0.0002881053    1.662    0.398
        15 -10.0658     58.4039    171.5390   1.0398663650e+02   3.1749367371e+01    0.3446983    0.2638541 -39.06 0.0008398722    1.512    0.339
        16  -9.4390     46.3784    179.8756   1.0828342023e+02   3.1107531984e+01    0.3358558    0.1972067  46.96  0.001005065    1.688    0.408
        17 -10.0365     51.9193    177.2923   1.0650658954e+02   3.1096379773e+01    0.4549399    0.2872823 -34.99  0.002025265    2.146    0.534
        18  -9.6344     83.5810    229.7014   1.0512949758e+02   1.4458864893e+01    0.2729174    0.1742398 -68.98  0.001448633    1.683    0.406
        19 -11.8604     10.6413    231.8340   1.2081009768e+02   2.2762022979e+01     1.225061     0.507863 -89.93  0.003100579    2.317    0.568
        20  -9.7063     69.5813    162.2975   9.9466893488e+01   3.2623971034e+01    0.2913457    0.2555515 -47.67 0.0003972489    1.180    0.153
        21 -11.5741     55.7567    158.3579   1.0277927193e+02   3.5495082905e+01    0.5637671    0.3330286 -37.83   0.00141773    2.092    0.522
        22 -11.1961     77.0716    155.8977   9.6223321356e+01   3.3191164387e+01    0.6334295    0.6037961  32.00  0.001620445    1.127    0.112
        23 -10.7971     67.5293    142.5325   9.6586019704e+01   3.8050996354e+01    0.5030204     0.389451  43.69  0.001432735    1.364    0.267
        24 -10.7945     69.8333    146.1458   9.6566824756e+01   3.6783990889e+01    0.5315439    0.4421132 -33.38  0.001539598    1.314    0.239
        25  -9.2472     94.2000    141.8512   8.8447243006e+01   3.4048149745e+01    0.4976344    0.3368627 -12.48  0.001771186    2.295    0.564
        26 -10.5255     81.2483    140.4814   9.2016681734e+01   3.6532098983e+01    0.3624089    0.2853914 -47.66 0.0005316884    1.230    0.187
        27 -10.3094     75.1433    221.4825   1.0611186954e+02   1.7429112741e+01     0.449349    0.2678709  65.30  0.002188833    1.861    0.463
        28 -10.9155     57.8036    130.5958   9.7331415148e+01   4.2463847928e+01    0.8771424     0.349726 -73.56  0.002553236    4.192    0.761
        29  -9.4650     93.0483    127.5013   8.5566255901e+01   3.7859307212e+01    0.3192834    0.2763048  -2.23 0.0005833289    1.314    0.239
        30 -11.3207     57.7594    240.8674   1.1184554050e+02   1.5562257130e+01     0.689822    0.5898858  61.38  0.003259183    1.050    0.047
        31  -8.1434    104.7223    119.4304   8.0075253595e+01   3.7696220375e+01    0.2377185    0.1761533 -42.97 0.0005318657    1.320    0.242
        32  -8.9940    106.2482    131.0487   8.2477600006e+01   3.4587272971e+01     0.353998    0.3228573 -42.95   0.00113391    1.070    0.065
        33  -7.8885     53.2943     91.6528   9.0005884103e+01   5.2679501273e+01    0.1380138    0.1123197  81.45 0.0004506425    1.671    0.401
        34  -8.7853      1.5921     88.7498   1.0930515790e+02   5.7930598730e+01    0.3635707    0.1004189 -68.10  0.001382065    2.943    0.660
        35  -9.5957      2.1967     82.3243   1.0791765039e+02   5.9401659998e+01    0.3916999    0.1474852 -66.32  0.001750211    2.187    0.543
        36  -9.6595      1.7777     74.0240   1.0646567716e+02   6.1317271777e+01    0.3330952    0.1556333 -70.10  0.001615598    2.043    0.511
        37  -7.8968     79.5005     85.4888   7.8772084449e+01   5.0077382809e+01    0.2400484    0.1409238 -58.03 0.0005935676    2.035    0.509
        38  -7.9439    163.6913     83.6909   5.5418969290e+01   3.2419959295e+01    0.1456638    0.1187567  13.65 0.0003488165    1.618    0.382
        39  -9.6762     13.2736     60.3138   9.8098655357e+01   6.3627970044e+01    0.2452957    0.1832445 -31.41 0.0007108622    1.119    0.107
        40 -10.3039      2.0000     50.0240   1.0061420705e+02   6.6449470133e+01    0.7528651    0.1268786 -63.07  0.001973932    7.695    0.870
        41  -7.9402     22.4655     49.4752   9.0435460381e+01   6.5065017062e+01    0.1258699     0.103348 -24.44 0.0002833397    1.028    0.027
        42 -11.2405    212.4401     41.7631   3.7539621401e+01   2.7882373307e+01    0.4556233    0.3209548  44.26  0.002563467    1.927    0.481
        43 -11.1875     20.6083    203.9523   1.1688382029e+02   2.8009214244e+01    0.3700541     0.308823 -41.01 0.0008618244    1.580    0.367
        44 -12.0964    112.6084    231.3708   9.8821295559e+01   9.8439524788e+00    0.9291427    0.4123837  35.50  0.004071069    2.009    0.502
        45 -11.3796     99.3417    228.9089   1.0148936035e+02   1.2343303805e+01    0.5959996    0.4064728 -38.79  0.003117463    1.850    0.459
        46 -10.5187     93.0375    226.8129   1.0265747303e+02   1.3715719743e+01    0.5532889    0.1838101  32.30  0.002034614    2.953    0.661
        47  -9.6250      1.8644     31.8710   9.4951241669e+01   6.9937876199e+01    0.4217973   0.07872517 -54.22  0.001550221    4.171    0.760
        48  -8.5503    125.1142     33.1619   4.8406891386e+01   4.9271459840e+01    0.2225665     0.192371 -63.45 0.0005484802    1.290    0.225
        49  -7.6007    126.0049     26.2073   4.5961702905e+01   4.9868675559e+01    0.1783997   0.09607613  61.35   0.00036792    1.652    0.395
        50  -7.7395     26.6372    233.3375   1.1770102448e+02   2.0801178760e+01    0.1371655   0.06791351  61.79 0.0007034777    1.826    0.452
