#   1 NUMBER                 Running object number                                     
#   2 MAG_AUTO               Kron-like elliptical aperture magnitude                    [mag]
#   3 X_IMAGE                Object position along x                                    [pixel]
#   4 Y_IMAGE                Object position along y                                    [pixel]
#   5 X_WORLD                Barycenter position along world x axis                     [deg]
#   6 Y_WORLD                Barycenter position along world y axis                     [deg]
#   7 A_WORLD                Profile RMS along major axis (world units)                 [deg]
#   8 B_WORLD                Profile RMS along minor axis (world units)                 [deg]
#   9 THETA_WORLD            Position angle (CCW/world-x)                               [deg]
#  10 FWHM_WORLD             FWHM assuming a gaussian core                              [deg]
#  11 ELONGATION             A_IMAGE/B_IMAGE                                           
#  12 ELLIPTICITY            1 - B_IMAGE/A_IMAGE                                       
         1 -14.7626    235.2800     72.7593   1.3747220153e+01   2.2220861066e+01     1.986193     1.055855 -48.44    0.0129202    1.405    0.288
         2 -14.5008    181.1448     69.5864   1.8788483340e+01   3.1831732562e+01     1.504448    0.4819107 -44.77  0.006162487    2.623    0.619
         3 -14.9847    194.3970     66.8953   1.6617464752e+01   2.9767127983e+01     1.302574     1.030856  72.83  0.008927337    1.373    0.272
         4  99.0000    222.6865     41.2690   8.9284396525e+00   2.8205793799e+01     1.565397    0.6253237 -73.52  0.007098491    3.791    0.736
         5 -13.8932    222.9674     30.4867   6.8802625483e+00   2.9420943963e+01     1.120021    0.2303029 -52.08  0.004693617    3.762    0.734
         6 -15.4428     47.0814     22.4021   3.4904501662e+01   6.7809750678e+01     2.343078     1.923759 -45.92   0.01435085    1.447    0.309
         7 -12.2028     21.5131     30.4504   5.3113619005e+01   7.1012600153e+01     1.205613    0.6487669  52.53  0.005227672    2.815    0.645
         8 -13.4778     17.8294     19.4028   5.0220838437e+01   7.3431647397e+01    0.5368409    0.4578681   9.07  0.001836736    1.055    0.052
         9 -13.6049     21.9670      7.0445   4.0164464571e+01   7.4583019098e+01     1.932673    0.9554886  27.38  0.008996224    2.373    0.579
        10 -15.6584     64.5895     18.9091   2.6482780098e+01   6.4509748249e+01     1.586578     1.252118 -53.24  0.007592477    1.489    0.328
        11 -15.4267     74.1657      6.9524   1.8467688308e+01   6.3579924605e+01     1.377553    0.9321713  89.51  0.007756087    1.588    0.370
        12 -15.2428    129.1753     16.8311   1.2150288375e+01   4.9735471091e+01     1.185122    0.7425215  56.87   0.00677113    1.629    0.386
        13 -14.2174    119.2809      2.8865   9.1646984212e+00   5.3356878630e+01     1.138032     0.312022  71.28  0.004587346    2.919    0.657
        14 -14.4406    138.1946      4.2078   7.5146875481e+00   4.8933920038e+01     1.397255     0.491011  78.49  0.006269585    2.550    0.608
        15 -13.1351    207.1713      3.1264   2.5162077590e+00   3.5065119836e+01     0.572951    0.2440344 -87.16  0.003146821    2.226    0.551
        16 -11.9874    179.4399      1.9709   3.7810054770e+00   4.0416743514e+01     0.225387    0.1407722 -89.46  0.001512186    1.365    0.267
        17 -14.5265      3.2081    214.8883   9.0715505176e+01   2.5862927609e+01    0.6203856    0.3717271  61.43  0.002375484    1.580    0.367
        18 -16.2451     53.6272    236.6643   7.8732769335e+01   1.6556839476e+01     5.011361     2.294588   8.80   0.02044499    2.539    0.606
        19 -16.4636     10.9391    239.2429   8.9734043635e+01   1.9775010632e+01     1.930016     1.327412 -87.95   0.01046748    1.592    0.372
        20 -15.7677     22.2348    204.3443   8.4844274133e+01   2.6928851692e+01     2.264795     1.190342  77.30  0.009290933    2.194    0.544
        21 -15.2621      4.0310    204.9179   9.0051931012e+01   2.8202451840e+01     1.064255    0.5627273  73.24  0.004528746    1.949    0.487
        22 -12.7996     17.1340    169.1629   8.3807179900e+01   3.6454495695e+01    0.2470404    0.2412806  50.19 0.0007852524    1.034    0.033
        23 -15.7519     17.0560    143.7406   8.1478264075e+01   4.3430354685e+01     1.615507     1.352495 -46.28  0.008621734    1.217    0.178
        24 -12.9375      2.4698    119.3601   8.4800321104e+01   5.1164554696e+01    0.5585665    0.3961246 -63.68  0.002175793    1.326    0.246
        25 -15.3187      3.8895    109.1774   8.3081788652e+01   5.3878484415e+01     2.151604    0.9147989  78.96  0.007413529    3.274    0.695
        26 -15.4020      2.6881    141.4689   8.6670519537e+01   4.5039651979e+01     3.104305    0.5916267 -76.21   0.00854722    4.589    0.782
        27 -12.3505    201.3958    143.7197   3.0909604716e+01   1.6405411070e+01    0.3076634    0.1878477 -46.17  0.001790645    1.407    0.289
        28 -12.7180    180.7258    122.2383   3.0071399724e+01   2.3254813875e+01    0.5021212    0.2728041 -42.84  0.002539016    1.611    0.379
        29 -12.6889    221.3938    109.1587   2.1812381273e+01   1.9091174806e+01    0.7181771    0.2313132 -39.31  0.003241822    2.603    0.616
        30 -14.2089    201.3763    109.9552   2.4504945948e+01   2.1995783430e+01    0.7545539    0.4985541 -47.68  0.003939839    1.261    0.207
        31 -14.2933    184.4462    109.9791   2.6969539194e+01   2.4761181417e+01     0.562016    0.3741671  61.75   0.00319429    1.807    0.447
        32 -14.4224    180.3078    103.8034   2.6323711103e+01   2.6522892850e+01    0.8283479    0.5310075 -19.38  0.004023664    2.471    0.595
        33 -14.0434    131.4442     96.6158   3.3833213895e+01   3.7135724229e+01     1.008631    0.7721219  66.29  0.004006977    1.402    0.287
        34 -12.3985    132.7098    111.3680   3.7110536424e+01   3.3961266307e+01    0.3748278    0.3056582  29.16  0.001916813    1.409    0.290
        35 -12.9930    137.9690    105.6791   3.4584719352e+01   3.4074859028e+01    0.6972113    0.4167748 -35.98  0.003206468    1.842    0.457
        36 -13.9761    160.3554    104.0427   2.9733891870e+01   3.0096202756e+01     1.140441    0.5898932  60.07  0.005140497    2.368    0.578
        37 -12.8182     20.6082    103.3770   7.4571640384e+01   5.4238999500e+01    0.4410598    0.2888636  81.15  0.001846964    1.878    0.468
        38 -14.2665    171.0272     83.0443   2.3214645297e+01   3.1674250305e+01    0.9241782     0.865572 -27.10  0.005533367    1.282    0.220
        39 -13.6627    213.2489     66.2085   1.4517552390e+01   2.6583077138e+01       1.2427      0.52243 -47.64  0.006710916    1.870    0.465
        40 -13.6287    199.7000     80.3182   1.8787946958e+01   2.6876914052e+01     1.045994    0.3416458 -51.85  0.004262743    3.122    0.680
        41 -12.8991    113.5977    233.9826   6.3549855852e+01   1.0751383396e+01    0.4309364    0.2291752  41.71  0.002099299    2.084    0.520
        42 -13.4358    240.0665    230.5956   3.9027446726e+01  -9.0710003046e-01    0.3560939    0.2072976 -17.77  0.001792948    1.378    0.274
        43 -12.6314     15.1398     81.1256   7.3090035015e+01   6.0524069992e+01    0.3512309    0.3083245  -7.69  0.001429003    1.099    0.090
        44 -14.0001    135.0154     79.2193   2.8633914338e+01   3.9603538052e+01      0.87042    0.8014344 -34.63  0.003895166    1.226    0.184
        45 -12.3887      2.1227     70.4466   7.8256138814e+01   6.4127804146e+01    0.3826217    0.2360047 -61.70  0.001263202    1.534    0.348
        46 -14.0745     43.2748     56.5557   5.1168363685e+01   6.2671504804e+01     1.025346    0.6932843 -50.49  0.005184366    1.601    0.375
        47 -14.6820     28.4994     60.3746   6.0284372662e+01   6.4049487709e+01     1.642158    0.6159266  31.65  0.004779785    2.415    0.586
        48 -13.6134     33.7833     53.2627   5.4939664936e+01   6.4834665088e+01     1.115135    0.5928739  12.06  0.004348208    2.776    0.640
        49 -13.6396      5.9881     55.4416   7.2523470521e+01   6.7480816846e+01     1.093828    0.7552025 -33.84  0.005926641    1.367    0.269
        50 -12.2039    139.9872     57.5063   2.1955172212e+01   4.2076050215e+01    0.3953129    0.2579106 -65.28  0.002039003    1.615    0.381
        51 -13.4670      2.2508    226.2314   9.1416436130e+01   2.3305678052e+01    0.4455026     0.239762  86.50  0.001568259    1.963    0.491
        52 -15.2713      6.7037    183.6508   8.8161058488e+01   3.3388630869e+01     1.306527    0.8287908  47.96   0.00587342    1.467    0.318
        53 -11.6527    161.6975     51.9727   1.7239242715e+01   3.8244649080e+01      0.18536    0.1504182 -59.58  0.001178305    1.097    0.089
        54 -12.9030     72.5502     49.9698   3.6329996840e+01   5.8288661101e+01    0.5678203    0.3328804  39.03  0.002629985    1.740    0.425
        55 -12.7448    173.0042     46.7632   1.4595657209e+01   3.6638674556e+01    0.3417804    0.2229566 -86.41  0.002015141    1.537    0.350
        56 -11.8547    173.5567     41.2138   1.3242561835e+01   3.7249072678e+01    0.3720545    0.1960345 -29.41  0.001912548    2.300    0.565
        57 -13.5571     83.1925     42.4923   3.0126739633e+01   5.7156913633e+01     0.870789    0.5673308 -64.04  0.004205848    1.998    0.499
        58 -14.2561      4.5531     85.1183   7.9460033371e+01   6.0259768671e+01    0.8681104    0.7234076 -84.18  0.004594353    1.279    0.218
        59 -15.1591     34.9203    228.7413   8.3007311194e+01   2.0063968780e+01     1.162074    0.6972113  55.60  0.003675566    1.685    0.407
        60 -14.8976    232.0852    153.3961   2.8260470240e+01   1.0946402706e+01     1.480623    0.7279797 -31.17  0.008382565    1.919    0.479
        61 -12.4919    249.6338    248.1571   4.0054579528e+01  -3.8162601815e+00    0.2315001    0.1408256 -32.35  0.001847317    1.329    0.248
        62 -15.4210    245.7379     97.5509   1.7174410901e+01   1.7381396796e+01     1.625596    0.5598232 -47.22  0.008560557    2.220    0.550
        63 -16.1217    247.1249    176.0620   2.9982716891e+01   6.0076240060e+00     2.283706     0.698379 -38.08   0.01036709    2.486    0.598
        64 -15.4075    248.0367    158.2744   2.7058937527e+01   8.4613997559e+00     1.444332    0.4707648 -41.19  0.007488789    2.258    0.557
        65 -15.6736    248.5433    125.2567   2.1594468130e+01   1.3138434777e+01     1.932383    0.5404428 -44.88  0.008813185    2.704    0.630
        66 -11.1120     35.2525    189.4318   7.9804327334e+01   2.9505948291e+01    0.2719091    0.1379452  14.66  0.001128345    2.032    0.508
        67 -12.8899     74.7664    180.9704   6.6796709925e+01   2.7180519689e+01    0.7506481    0.4910256 -44.61  0.003519037    1.607    0.378
        68 -12.6849      2.4044     30.0890   6.7151860802e+01   7.3253333157e+01     0.374893    0.2219806 -40.51  0.001656633    1.610    0.379
        69 -15.2991     34.2711    246.4188   8.4299755987e+01   1.6306128039e+01     1.267631    0.6747769  36.97  0.006259752    1.525    0.344
