#   1 NUMBER                 Running object number                                     
#   2 MAG_AUTO               Kron-like elliptical aperture magnitude                    [mag]
#   3 X_IMAGE                Object position along x                                    [pixel]
#   4 Y_IMAGE                Object position along y                                    [pixel]
#   5 X_WORLD                Barycenter position along world x axis                     [deg]
#   6 Y_WORLD                Barycenter position along world y axis                     [deg]
#   7 A_WORLD                Profile RMS along major axis (world units)                 [deg]
#   8 B_WORLD                Profile RMS along minor axis (world units)                 [deg]
#   9 THETA_WORLD            Position angle (CCW/world-x)                               [deg]
#  10 FWHM_WORLD             FWHM assuming a gaussian core                              [deg]
#  11 ELONGATION             A_IMAGE/B_IMAGE                                           
#  12 ELLIPTICITY            1 - B_IMAGE/A_IMAGE                                       
         1 -13.3995    162.0435     80.5352   8.4583767771e+01   3.3530808836e+01     1.812917     1.577569   2.02  0.009392824    1.392    0.282
         2 -13.0040    173.2301     64.4441   7.7948351348e+01   3.3573638967e+01     2.682522     1.473678 -62.08   0.01049852    2.539    0.606
         3 -12.6283     67.1468     58.7068   1.0384569258e+02   5.6630108360e+01     1.222386     1.132254   9.03  0.007461974    1.158    0.136
         4 -12.2241     81.6414     46.7336   9.4952542840e+01   5.6231609190e+01     1.328867    0.7532987  19.20  0.006093959    2.312    0.568
         5 -10.6579     14.5738     43.8687   1.1895112919e+02   6.5036017112e+01    0.5151038    0.2179457 -35.69  0.002761329    1.976    0.494
         6 -10.8035    215.5072     29.3648   6.2969740574e+01   2.8460530296e+01      1.40806    0.5114908 -60.96  0.004621247    4.439    0.775
         7 -10.0722    128.6316     15.8099   7.2243361099e+01   5.0418113701e+01    0.2625527    0.2347946 -25.18 0.0005163116    1.275    0.216
         8 -11.5286    129.9482     10.9984   7.0475693618e+01   5.0571519399e+01    0.3135427    0.2249125 -21.43   0.00069633    1.613    0.380
         9  -9.1550    141.8207     12.9613   6.8950540228e+01   4.7680010867e+01    0.2156558    0.1766284  69.21 0.0004064054    1.108    0.098
        10  -7.8992     80.4676     12.4976   8.2589227623e+01   6.0662521397e+01    0.1856616    0.1033349 -35.96  0.001000852    2.118    0.528
        11  -8.9435    143.4110      2.4851   6.5608812601e+01   4.8238289563e+01    0.2445101      0.18621   6.72  0.001505987    1.649    0.394
        12  -8.1737    171.4888      2.5028   6.1725545843e+01   4.1703141488e+01    0.2142069   0.09657168 -42.15  0.001035845    2.370    0.578
        13  -8.6010    183.9187      1.7261   6.0075783374e+01   3.8867877026e+01     0.442809    0.1533424  79.71   0.00166273    3.298    0.697
        14  -9.7041    249.7191    195.0807   9.4169473082e+01  -6.6204130576e+00    0.2529494    0.2085901   0.53  0.001566882    1.135    0.119
        15  -9.7699    173.1552    248.9229   1.1833242914e+02  -2.7212647097e+00    0.4224845    0.2041874  54.74  0.001806422    2.746    0.636
        16 -12.0102    112.3373    246.0240   1.2988714646e+02   7.9446065038e+00    0.8722817    0.7491683  86.73  0.003377993    1.180    0.153
        17 -10.5468     71.6575    249.8329   1.3799898776e+02   1.3431143938e+01    0.5168476    0.3260571  32.23  0.002944773    1.997    0.499
        18  -8.3889    207.3293    187.3064   1.0055458391e+02   2.0910000144e+00    0.1464207    0.1081634   1.27 0.0003937105    1.657    0.396
        19 -10.1635    101.0069    175.9936   1.2225652440e+02   2.4985810333e+01    0.2063874     0.188604  88.65            0    1.002    0.002
        20  -8.0961    250.6499    175.6949   9.0146075629e+01  -3.5428256086e+00    0.1376565   0.09702411  -2.27  0.000704159    1.703    0.413
        21 -10.7799    193.3234    169.9719   9.9808089139e+01   8.2263570860e+00    0.5320051    0.2797084 -46.90  0.002192397    1.913    0.477
        22 -10.6017    191.7442    158.5454   9.7653872818e+01   1.0900913028e+01    0.8564852    0.4935047  16.11  0.002705013    3.958    0.747
        23  -9.7299    199.0061    162.7061   9.7068138765e+01   8.5445029868e+00     0.213249     0.199393  32.21 0.0006358335    1.094    0.086
        24  -8.0182    236.1605    145.7862   8.6355522904e+01   4.4142596965e+00    0.1923955    0.1617291  -4.02 0.0006848598    1.353    0.261
        25  -9.1377     69.3556    145.5068   1.2489196986e+02   3.7371306834e+01    0.3547934    0.2067477  63.67  0.001453135    2.300    0.565
        26  -7.6051    234.4162    132.4730   8.3735822562e+01   7.2399484259e+00    0.1436079    0.1282908 -38.21 0.0002343403    1.040    0.039
        27  -7.6918    249.9813    117.0000   7.7893209511e+01   6.9869481613e+00    0.1965681   0.08018769  53.56 0.0003563279    2.796    0.642
        28  -8.9460    203.4219    111.7066   8.4410033781e+01   1.7865625280e+01    0.3128236    0.2668801 -16.91 0.0007125033    1.378    0.275
        29 -10.7060    163.8686    245.3169   1.1961987655e+02  -5.6507226888e-01    0.4526214    0.1942187  32.65  0.001896195    2.483    0.597
        30 -10.3522    184.3336     77.5354   7.9369298188e+01   2.8697662253e+01     0.384196    0.2989707  53.25 0.0007374597    1.296    0.228
        31  -9.7600    157.0145    246.0118   1.2107654782e+02   4.7912409447e-01    0.2975801    0.1714034 -56.38  0.001522406    2.141    0.533
        32  -7.3413    109.9705     85.0000   9.8741504738e+01   4.4293413025e+01    0.2259227   0.08299056  44.45            0    2.761    0.638
        33  -8.0485    206.8607     82.3840   7.6682632979e+01   2.2492927058e+01    0.2410981    0.1828231 -55.06 0.0004540252    1.258    0.205
        34  -9.6916    123.3185     82.8042   9.4451296451e+01   4.1960477693e+01    0.2489857    0.2128347  38.96 0.0005551736    1.168    0.144
        35 -10.7335    101.7789     70.0902   9.6566398521e+01   4.8698597850e+01    0.5105536    0.2867563 -26.83  0.001385227    2.099    0.524
        36 -10.6497    123.5527     67.0669   8.9656191651e+01   4.4746211154e+01     0.560746    0.2985557  43.67 0.0006486821    1.843    0.457
        37  -9.4385    110.4430     67.8100   9.3389187436e+01   4.7381367457e+01    0.2803965    0.1337168 -43.48  0.001148236    2.177    0.541
        38 -10.2975     88.9481    243.8238   1.3416309997e+02   1.2048019492e+01    0.3497022    0.1543796  54.90  0.001636632    2.106    0.525
        39 -10.1321    136.2093     60.8524   8.4653033837e+01   4.2940915857e+01    0.4215597    0.2953277 -36.82  0.001716541    1.486    0.327
        40  -8.0374     38.2297     63.6283   1.1573592815e+02   5.9372292860e+01    0.1604608    0.1084144   4.91 0.0005325337    1.631    0.387
        41  -9.7991    132.0748     92.0570   9.4840336181e+01   3.8258040595e+01    0.4450619    0.2029945 -40.76  0.001667173    2.204    0.546
        42  -8.3954    180.7727    242.8747   1.1591338585e+02  -3.0159780737e+00     0.181165    0.1541308  17.36 0.0003564626    1.140    0.123
        43 -11.0589     94.8822     52.5489   9.2889584463e+01   5.2944842378e+01     0.455484    0.3462175  55.25  0.002511431    1.523    0.343
        44 -10.8614     95.7073     45.1380   9.0119850564e+01   5.3892865720e+01    0.4129637    0.3343223  -8.65  0.002226471    1.236    0.191
        45 -11.6273    161.4070     50.2228   7.6232755683e+01   3.8600572934e+01    0.6405491    0.5003147  76.84  0.003014916    1.301    0.231
        46 -10.6773    128.1956     48.0151   8.2565959740e+01   4.6687493931e+01    0.4460875    0.3238474  35.89  0.001174883    1.384    0.278
        47  -9.2921     95.4056    242.7580   1.3280238748e+02   1.1261279784e+01    0.1617654    0.1146646 -56.38 0.0006213058    1.650    0.394
        48 -10.8383    133.0991     81.9396   9.1680099565e+01   3.9988110367e+01    0.4535814    0.3284015 -49.63  0.001189854    1.451    0.311
        49 -10.6794    113.7236    238.0851   1.2863602849e+02   9.2335651933e+00    0.3483433    0.3342047  87.59  0.001790125    1.203    0.169
        50  -8.5457    190.0073     36.9402   6.7994535041e+01   3.3500197653e+01    0.1997207    0.1597502  31.62 0.0008018578    1.626    0.385
        51 -10.6811    139.2871     40.6452   7.7813136386e+01   4.5159148427e+01    0.6562444    0.4795087  65.55  0.002546998    1.354    0.262
        52  -8.2714    139.8427     28.8803   7.4111577073e+01   4.6474702090e+01     0.198796    0.1609371  44.25 0.0004028429    1.165    0.142
        53  -9.7665    108.1849     36.1042   8.3591763076e+01   5.2613337245e+01    0.5303389    0.1392507  47.81  0.001849279    3.270    0.694
        54 -10.2299    135.0327     67.0291   8.6793672809e+01   4.2200350703e+01    0.3362419    0.2669445  31.31  0.001200662    1.335    0.251
        55 -10.0172    133.6698     77.6728   9.0290094722e+01   4.0647938328e+01    0.3290669    0.2301037  18.55  0.001454151    1.949    0.487
        56  -8.7904     79.4716     22.3612   8.6684364416e+01   5.9813542993e+01    0.2006449    0.1852272  19.22  0.000525119    1.192    0.161
        57  -8.2289     84.9117     21.2771   8.4655694362e+01   5.8941231096e+01     0.181245    0.1597014 -14.44 0.0004039043    1.224    0.183
        58 -10.1108    249.3103    185.3736   9.2324154856e+01  -4.9573862367e+00    0.4086164    0.1963192 -35.83  0.001893348    1.893    0.472
        59 -10.2077    188.5811    232.9678   1.1276786356e+02  -2.7054645058e+00    0.2916992    0.2468957 -63.74  0.001193814    1.535    0.348
        60  -9.9425     74.9378     17.3372   8.6133485237e+01   6.1164077771e+01    0.1983037    0.1774265  -0.48 0.0003085258    1.186    0.157
        61  -8.4630    190.0360     15.3549   6.2661160757e+01   3.6064405801e+01    0.2266282    0.1756183 -54.50 0.0006713945    1.311    0.237
        62  -9.4119     92.5081     36.5206   8.8029524655e+01   5.5685708511e+01    0.2012326    0.1611678  48.17 0.0006365935    1.293    0.227
        63  -8.4226     13.9857    227.6751   1.4657879642e+02   2.5059438763e+01    0.1432416   0.09696974  -1.29 0.0007051277    4.361    0.771
        64 -10.6639     77.8328    249.6770   1.3684913223e+02   1.2571661322e+01    0.5029462    0.2115075  39.73   0.00243087    2.232    0.552
        65  -9.6647    114.2270    220.3589   1.2617244614e+02   1.2719411989e+01    0.4618596    0.2274673  64.53  0.001759016    3.009    0.668
        66  -9.9609     10.8223    206.6129   1.4568216591e+02   2.9811096135e+01    0.2799794    0.1961209  59.00   0.00144003    1.324    0.245
