#   1 NUMBER                 Running object number                                     
#   2 MAG_AUTO               Kron-like elliptical aperture magnitude                    [mag]
#   3 X_IMAGE                Object position along x                                    [pixel]
#   4 Y_IMAGE                Object position along y                                    [pixel]
#   5 X_WORLD                Barycenter position along world x axis                     [deg]
#   6 Y_WORLD                Barycenter position along world y axis                     [deg]
#   7 A_WORLD                Profile RMS along major axis (world units)                 [deg]
#   8 B_WORLD                Profile RMS along minor axis (world units)                 [deg]
#   9 THETA_WORLD            Position angle (CCW/world-x)                               [deg]
#  10 FWHM_WORLD             FWHM assuming a gaussian core                              [deg]
#  11 ELONGATION             A_IMAGE/B_IMAGE                                           
#  12 ELLIPTICITY            1 - B_IMAGE/A_IMAGE                                       
         1 -14.1728    203.5191     19.1428   6.2187959023e+01   3.2299469653e+01     1.818076     1.322955  39.56  0.008095794    1.831    0.454
         2 -12.7250      3.4215      7.6710   1.1141623938e+02   7.1321497882e+01    0.9626688    0.3306992 -39.08   0.00540823    2.315    0.568
         3 -13.8629    209.1828     12.8484   6.0147744325e+01   3.1690316441e+01     3.144161     1.712251  26.20  0.001511599    6.068    0.835
         4 -11.4977    190.1411     15.8487   6.2985773498e+01   3.5832060475e+01    0.3203225    0.2218099 -87.86  0.001237944    1.364    0.267
         5 -13.2044     62.6235    217.6983   1.3673492607e+02   2.1368507669e+01     1.386608    0.3163303  44.01  0.005078047    3.547    0.718
         6 -10.2053    184.9875    250.2343   1.1633250774e+02  -4.9234831889e+00    0.1781139     0.091235  39.17 0.0008875676    1.656    0.396
         7 -12.4270    138.4976    248.1981   1.2516502601e+02   3.2475730203e+00    0.5990391    0.3628413  57.64  0.003145972    1.682    0.405
         8 -12.2904    126.3937    248.0004   1.2752121936e+02   5.3151391650e+00    0.4635475    0.3698162 -62.17  0.002906517    1.443    0.307
         9 -12.8627     81.9572    246.3911   1.3591341555e+02   1.2682704206e+01     0.688301    0.5207399 -52.09  0.004317685    1.747    0.427
        10 -12.6432     99.2133    237.0509   1.3155657851e+02   1.1845604533e+01    0.6466987    0.4384227  76.33  0.001609934    1.531    0.347
        11 -11.9902    100.3845    249.6029   1.3275395879e+02   9.2439038443e+00    0.5417058    0.4252014  76.22  0.002653619    1.186    0.157
        12 -12.7296    108.1793    245.7567   1.3081300499e+02   8.7229213509e+00    0.6969651    0.3715535  52.30  0.002773449    1.627    0.385
        13 -11.7295     89.0574    244.6284   1.3438340922e+02   1.1950632590e+01    0.4422046    0.2517709  77.70  0.001461284    2.079    0.519
        14 -14.8679     34.3444    245.7305   1.4445709609e+02   1.9253353624e+01     11.28335     3.738893  29.32   0.03344426    8.990    0.889
        15 -13.3804     15.5672    241.0179   1.4732758166e+02   2.2326186846e+01     1.919337    0.6090696  62.76  0.008681242    3.144    0.682
        16 -12.7608      5.3443    246.8362   1.4932545662e+02   2.2284065800e+01     1.086727    0.5605767  63.54  0.007196289    1.482    0.325
        17 -12.1580     25.5715    212.5371   1.4353579293e+02   2.7086362491e+01    0.4773152    0.2645846  65.97  0.002774363    1.607    0.378
        18 -10.7776    227.4169    203.4180   9.9924794269e+01  -4.4936224676e+00     0.275982    0.2230804 -53.78 0.0005679812    1.559    0.359
        19  -9.9079    225.9973    238.0000   1.0649627763e+02  -9.6663923937e+00    0.2031338   0.06316794  38.80 0.0008014524    2.936    0.659
        20 -11.6772     65.5161    192.6010   1.3321986740e+02   2.6597894741e+01    0.4169405     0.252273 -48.83  0.001660877    1.957    0.489
        21 -11.6812     70.7531    185.5794   1.3110619324e+02   2.7495646823e+01    0.3077885    0.2491871 -48.53 0.0008224062    1.445    0.308
        22  -9.9021    191.8833    192.9966   1.0494819984e+02   3.8298475949e+00     0.336516    0.1919404 -65.08  0.001234651    3.242    0.692
        23  -8.5617    181.5032    192.4978   1.0703585811e+02   5.9361742011e+00    0.1446026    0.1376148  23.34 -0.0001852657    1.006    0.006
        24 -11.1162     80.0396    173.9120   1.2719389845e+02   2.8894488102e+01    0.2684189    0.2364359 -75.07 0.0003842748    1.070    0.066
        25 -13.2821     67.3533    171.2131   1.2985607102e+02   3.1400851023e+01     0.533352    0.2899384 -44.81  0.001697319    2.228    0.551
        26 -10.4998    105.9513    173.4813   1.2081113814e+02   2.4721770082e+01    0.4982259    0.1302375  41.68  0.001510432    3.652    0.726
        27 -12.1239     86.8700    165.5082   1.2412809579e+02   2.9854353191e+01    0.7448397    0.5488514  56.47  0.002713724    1.382    0.277
        28 -13.1141     67.9690    144.9284   1.2539911997e+02   3.7691270225e+01     1.378607    0.7619564 -88.31  0.003135281    2.914    0.657
        29 -12.4489     58.3363    132.6786   1.2579252720e+02   4.1928668942e+01     2.387684    0.8084061 -72.34  0.004861528    9.813    0.898
        30  -9.8857     99.8036    149.5498   1.1782935972e+02   3.1561759722e+01    0.2881402    0.2611504 -63.44 0.0007726294    1.055    0.052
        31  -9.2959    102.6090    145.5498   1.1627122717e+02   3.2032491980e+01    0.3326307    0.2164751 -24.95   0.00134023    2.403    0.584
        32 -12.1220     88.3640    148.6151   1.2065620861e+02   3.3718503994e+01    0.3016731    0.2563383 -41.32 0.0005321653    1.269    0.212
        33 -12.8442     39.8701    225.0807   1.4186900926e+02   2.2759436956e+01    0.3847443    0.3202125 -63.79 0.0008971777    1.493    0.330
        34 -10.6416     57.2936    144.9092   1.2824534525e+02   3.9111385051e+01    0.3187078    0.1760151  50.86  0.001485464    2.056    0.514
        35  -9.6061    110.5818    135.4967   1.1196381309e+02   3.2975285094e+01    0.3293309    0.2274505 -14.99  0.001334132    2.351    0.575
        36 -10.7234     68.5550    134.8249   1.2335205366e+02   4.0055688806e+01    0.2348987    0.2039649  38.59 0.0005585742    1.276    0.216
        37 -10.6138     98.0306    132.4713   1.1468561630e+02   3.5980456053e+01     0.285542    0.2355882 -28.59 0.0007776117    1.380    0.275
        38  -9.7767     44.3086    130.3277   1.2928923287e+02   4.4140040672e+01    0.1369704   0.08981192 -39.39  0.000371579    1.658    0.397
        39  -9.3192    107.3930    122.8540   1.0987419890e+02   3.6543323962e+01    0.2055772    0.1748213 -46.66 0.0003828492    1.139    0.122
        40 -14.9541     47.2749    215.5354   1.3958625173e+02   2.3872534233e+01     2.098343     1.658714  85.14   0.01008116    1.045    0.043
        41 -11.2228    167.9315    113.0419   9.2142888323e+01   2.5673770180e+01    0.3874839    0.3132331 -87.69  0.001035249    1.466    0.318
        42 -15.9435      7.6984    198.9973   1.4589566161e+02   3.1827561128e+01     8.566789     1.498323 -71.73   0.02150945    4.088    0.755
        43  -9.5444    204.5197    110.9780   8.4180737298e+01   1.7579589049e+01    0.3397669    0.1839869  36.41  0.001286604    2.533    0.605
        44 -11.5108     83.6795    230.9382   1.3394699917e+02   1.5504013483e+01    0.2962698    0.2039079  81.00  0.001607125    1.419    0.295
        45 -11.5398     76.1087    229.1234   1.3525206267e+02   1.7013553402e+01    0.4496358    0.1890375  57.17  0.001965848    2.419    0.587
        46 -11.3338      1.8157     90.0080   1.3492299112e+02   5.6685325357e+01    0.7515231   0.08316222 -66.31  0.001929469    7.697    0.870
        47 -11.2578      2.1144     78.9474   1.3279823561e+02   5.8988982133e+01    0.5294695   0.08296109 -60.82  0.001957935    3.727    0.732
        48  -9.4140     11.0347     93.3277   1.3258910326e+02   5.5433160757e+01    0.1552969    0.1385254 -46.56 0.0004909276    1.145    0.126
        49  -9.7405    109.7347     43.1095   8.5906850038e+01   5.1305792172e+01    0.2091698     0.175469  58.21 0.0005094298    1.277    0.217
        50 -11.4589    247.2161    248.9425   1.0449959838e+02  -1.4243145836e+01    0.5152104    0.2185878  30.96    0.0026102    2.164    0.538
        51 -11.8421     92.6886    249.4310   1.3419910149e+02   1.0474585279e+01    0.5001373    0.4490462 -18.53 0.0005261046    1.756    0.431
        52 -11.7812     69.0315    228.3345   1.3656543462e+02   1.8205776610e+01    0.3243994    0.2472654  73.99  0.002045265    1.091    0.084
