#   1 NUMBER                 Running object number                                     
#   2 MAG_AUTO               Kron-like elliptical aperture magnitude                    [mag]
#   3 X_IMAGE                Object position along x                                    [pixel]
#   4 Y_IMAGE                Object position along y                                    [pixel]
#   5 X_WORLD                Barycenter position along world x axis                     [deg]
#   6 Y_WORLD                Barycenter position along world y axis                     [deg]
#   7 A_WORLD                Profile RMS along major axis (world units)                 [deg]
#   8 B_WORLD                Profile RMS along minor axis (world units)                 [deg]
#   9 THETA_WORLD            Position angle (CCW/world-x)                               [deg]
#  10 FWHM_WORLD             FWHM assuming a gaussian core                              [deg]
#  11 ELONGATION             A_IMAGE/B_IMAGE                                           
#  12 ELLIPTICITY            1 - B_IMAGE/A_IMAGE                                       
         1  -8.5877    218.9720     46.1465   5.7809977404e+01   2.4727270254e+01    0.3342267    0.2061444 -18.73  0.001551044    1.860    0.462
         2  -8.0982     26.2951    250.3272   1.3498373500e+02   2.1166830500e+01   0.08107041    0.0738435 -76.27 0.0003676224    1.628    0.386
         3 -10.5117     18.6575    242.5822   1.3583221244e+02   2.3236195139e+01    0.4325841    0.3094179 -23.30  0.002607968    4.157    0.759
         4 -10.0524      3.4381    247.3463   1.3838414710e+02   2.3911130335e+01    0.4375827    0.2467812  86.14  0.003411115    1.443    0.307
         5  -9.6713      9.1893    247.5943   1.3751879670e+02   2.3327996945e+01    0.2234912    0.1325815  39.66  0.001703224    1.705    0.414
         6  -9.6949     11.2321    243.7190   1.3704939400e+02   2.3775300983e+01    0.2815086    0.1347847  30.49  0.001766136    2.691    0.628
         7  -9.1120     33.6125    247.1016   1.3365919961e+02   2.0921511633e+01    0.1942835    0.1325151  43.06  0.001491362    1.452    0.311
         8 -10.4719      8.1950    232.5175   1.3706586383e+02   2.5977894010e+01    0.3204306    0.2466577 -30.45   0.00232608    2.790    0.642
         9  -9.3825      2.4830    237.9407   1.3818650704e+02   2.5572736361e+01    0.2286371     0.144904  63.96    0.0017291    1.104    0.094
        10  -8.1355     42.9754    238.5135   1.3162814386e+02   2.1337893250e+01    0.1588312   0.08350585  43.77  0.001034204    1.596    0.373
        11  -9.6400     11.8170    250.5959   1.3723493546e+02   2.2582451832e+01    0.4273919   0.08396215  39.24  0.002155905    3.455    0.711
        12  -8.0355    222.4508    234.5323   9.8876733126e+01  -4.0853691658e+00    0.2340307   0.09409863  38.63  0.001180721    2.070    0.517
        13  -8.1686    196.9968    232.9028   1.0309287224e+02  -1.7796144941e-02    0.2645745    0.1268408  28.42  0.001328651    2.038    0.509
        14  -8.8282     61.3001    232.8131   1.2806353433e+02   2.0161821052e+01    0.3892514     0.151822  35.80  0.001993424    2.533    0.605
        15  -7.9644    159.2596    231.6113   1.0981376419e+02   6.1307179509e+00    0.2174909     0.134561  32.71  0.001262283    1.435    0.303
        16  -8.8251    178.4742    230.5009   1.0610120677e+02   3.2257456230e+00    0.4011748    0.3413557 -12.53  0.002790506    1.327    0.247
        17  -9.5086    175.0234    223.0096   1.0564509689e+02   4.8517573721e+00    0.2512423    0.2008354  65.67  0.001124925    1.639    0.390
        18  -9.7023      4.0544    229.6983   1.3761639421e+02   2.6853827773e+01    0.1972047     0.178138  23.34  0.001723719    1.805    0.446
        19  -7.8954    184.5242    228.9806   1.0476862513e+02   2.4710362599e+00    0.1579714    0.1200129 -36.28  0.001022933    1.566    0.362
        20  -9.6701    168.7614    227.6678   1.0749523938e+02   5.1874837368e+00    0.4728677    0.2387766  26.08  0.002237586    2.375    0.579
        21  -9.1593     20.5261    228.8126   1.3486709489e+02   2.5434626656e+01     0.171188     0.137008  23.56   0.00132196    1.908    0.476
        22  -7.9780    212.7502    228.4410   9.9608388282e+01  -1.8912140962e+00     0.171699   0.09185492  28.69 0.0009381394    1.639    0.390
        23  -8.1295    162.6089    227.7646   1.0866070131e+02   6.1645253745e+00    0.2160349    0.1310418  54.00  0.001184328    1.781    0.439
        24  -7.5461    219.6823    226.6689   9.8111064202e+01  -2.7333184204e+00    0.1245726   0.07756278  10.79 0.0007047422    1.687    0.407
        25  -8.3256    126.7584    226.1519   1.1525152416e+02   1.2115156567e+01    0.3629015   0.08103547  36.78  0.001126729    4.897    0.796
        26  -8.0739    120.4899    226.1728   1.1645083429e+02   1.3077864079e+01    0.1903438    0.1497685  31.17 0.0008353195    1.330    0.248
        27  -9.9529    161.9011    200.6363   1.0471866523e+02   1.0586645560e+01    0.5279619    0.3627347 -31.80  0.002608137    1.737    0.424
        28 -11.8930    173.2448    213.2612   1.0449828498e+02   6.6086142370e+00     1.825783     1.027725  40.69   0.00971451    1.519    0.342
        29 -10.2110    198.1326    220.4033   1.0095725945e+02   1.4600772872e+00    0.7469866    0.4864578  16.34   0.00428878    1.614    0.380
        30 -11.0470    159.7915    210.9312   1.0675299883e+02   9.2463798704e+00     1.015659    0.6101575  10.11   0.00438527    3.124    0.680
        31 -10.5141    186.1272    193.0416   9.8611386826e+01   7.5563193048e+00    0.7621158    0.3702593  30.14  0.003313138    2.246    0.555
        32 -11.7153    177.8240    202.6280   1.0189331219e+02   7.4876529719e+00     1.151215    0.7565035  39.72   0.00638654    1.336    0.251
        33 -11.5628    220.0040    209.2392   9.5140465685e+01  -5.6664114262e-01     1.502104    0.8147852  18.09  0.007396261    2.172    0.540
        34 -11.3267    203.7035    211.1110   9.8412089628e+01   1.8329435504e+00     1.117165    0.9715987  84.78  0.007008335    1.877    0.467
        35 -13.0440    208.4568    194.7312   9.4655343360e+01   3.3779248821e+00     2.695556     1.426109  31.92   0.01327412    1.787    0.440
        36  -7.6447    105.9668    223.5150   1.1892683937e+02   1.5720381157e+01    0.1844134     0.101582  40.57 0.0009128866    1.568    0.362
        37 -11.8455    190.8564    205.6072   9.9883818309e+01   4.7839904356e+00     1.463832     1.062221 -35.73  0.008713298    1.538    0.350
        38  -7.6423     44.6047    220.2465   1.3014727119e+02   2.4413169283e+01    0.1404145   0.09030619 -68.31 0.0009391466    1.650    0.394
        39  -8.3890     12.5077    220.5099   1.3580897179e+02   2.7712912259e+01    0.1509475   0.09938943  23.32  0.001031609    2.288    0.563
        40  -8.7310      1.6673    217.8997   1.3751978842e+02   2.9179626009e+01    0.1921859   0.06722962 -72.93  0.001094631    2.522    0.603
        41  -9.7864    144.2108    216.1759   1.1057349555e+02   1.0980986996e+01    0.3560144    0.2010722  31.08  0.001616976    1.813    0.448
        42  -8.7408    138.2551    214.3261   1.1148886268e+02   1.2265661817e+01    0.3419913    0.2216644   6.06  0.001571689    3.000    0.667
        43  -7.6379     99.5093    225.0233   1.2032171533e+02   1.6402436101e+01    0.1440129   0.09791657 -35.18 0.0008013487    2.419    0.587
        44  -7.9988    131.3835    214.6811   1.1289486804e+02   1.3319531438e+01    0.2397854    0.1379259  23.98  0.001110736    2.387    0.581
        45  -7.7790     22.6938    215.6814   1.3378654926e+02   2.7612119741e+01   0.09194923   0.07734637 -60.94 0.0005735363    1.633    0.388
        46  -7.7267     84.9797    225.4861   1.2311276258e+02   1.8369848563e+01    0.1532909    0.1009372  16.65 0.0008093528    2.688    0.628
        47  -8.4345    112.4008    213.8737   1.1655433869e+02   1.6455124751e+01    0.2446922    0.1628762  35.13  0.001255969    1.476    0.323
        48  -7.7240     85.6077    214.6041   1.2191775255e+02   2.0260382744e+01    0.2176538    0.1093287  25.18 0.0009503889    3.278    0.695
        49  -8.0210     99.2584    212.2963   1.1897810430e+02   1.8726117888e+01    0.2512886      0.16903 -13.70  0.001123843    3.789    0.736
        50  -7.8434     93.2151    212.7677   1.2022828388e+02   1.9521542781e+01    0.1799372    0.1396274 -14.59  0.001039133    2.266    0.559
        51  -7.9146    125.1968    211.6093   1.1371786784e+02   1.4849545429e+01    0.1789821     0.108071  33.23 0.0009462797    1.659    0.397
        52  -8.2526      8.7507    210.2171   1.3595314129e+02   2.9970563678e+01    0.1333493   0.08483739  21.40 0.0008752276    2.415    0.586
        53 -11.6371    199.6255    184.8620   9.4485818923e+01   6.4356482054e+00     1.302225    0.6798396  15.89  0.004772782    3.569    0.720
        54 -10.1032    150.3691    204.0510   1.0757734030e+02   1.1996666927e+01    0.5332658    0.3404707  15.55  0.002566213    2.303    0.566
        55  -7.8686    133.5524    207.4825   1.1147667862e+02   1.4222579998e+01    0.2291107    0.1126639  30.61  0.001013673    2.355    0.575
        56  -8.4612    139.6692    205.8760   1.1001070515e+02   1.3489792604e+01    0.2946902    0.1714008  27.22  0.001433381    2.027    0.507
        57  -7.4390     50.4422    205.4940   1.2792866717e+02   2.6544844735e+01    0.1165201    0.0907063  72.02 0.0004961501    1.018    0.017
        58  -8.0376     10.6461    204.6859   1.3533282733e+02   3.0850552497e+01   0.09427685   0.07551103 -55.97 0.0001521077    1.735    0.424
        59  -7.9451    110.9920    202.8781   1.1545588940e+02   1.8698883576e+01    0.2011139    0.1466317  12.12 0.0009857535    2.085    0.520
        60  -8.2168     99.0908    202.7963   1.1789339292e+02   2.0540559342e+01    0.2921491    0.1522336  34.08  0.001447681    2.005    0.501
        61  -7.7080     90.4475    203.7742   1.1977767018e+02   2.1625797829e+01    0.2530016    0.1018316  27.80 0.0008869762    4.431    0.774
        62  -8.0758    129.8495    201.9076   1.1144000586e+02   1.5835930581e+01    0.1945953    0.1675206  22.19  0.001148376    1.296    0.229
        63  -8.5391    134.7745    200.9729   1.1029115076e+02   1.5184377554e+01    0.3413458    0.1793644  32.73  0.001604795    1.990    0.497
        64  -7.7925    122.1904    202.7769   1.1313763540e+02   1.6931890790e+01    0.2083209   0.09728396  31.27 0.0008831515    2.531    0.605
        65  -7.0982    145.6337    201.6546   1.0817006724e+02   1.3222227183e+01    0.1337646   0.09934052   5.73 0.0007023442    1.862    0.463
        66  -6.8616     83.6492    201.6755   1.2092950229e+02   2.3004088477e+01    0.1130632   0.09757385 -16.31 0.0007048384    1.755    0.430
        67  -8.0490    240.7718    199.7335   8.9820510078e+01  -2.6238256668e+00    0.3408797    0.2156893   0.99  0.001925439    1.646    0.393
        68  -7.0989     68.6241    200.7005   1.2388576122e+02   2.5234425739e+01    0.1084285    0.0949681 -19.98 0.0007026904    1.755    0.430
        69  -7.5597    106.4736    199.5009   1.1595254075e+02   2.0047185353e+01    0.1235765    0.1140375  48.22 2.457543e-05    1.143    0.125
        70  -8.0852    124.9772    197.6659   1.1184011257e+02   1.7427325178e+01    0.1922105    0.1452949  45.82 0.0007623258    1.172    0.147
        71  -8.7358    168.7421    196.0133   1.0257854024e+02   1.0161743498e+01    0.5653487    0.2385199  27.31  0.001887083    4.018    0.751
        72  -8.2783    139.1311    196.2917   1.0868469534e+02   1.5296580568e+01    0.2711635    0.1959624 -15.49  0.001265957    2.095    0.523
        73  -8.0686    157.0267    195.9906   1.0494750709e+02   1.2236352949e+01    0.2068104    0.1543082  10.49 0.0007960585    1.668    0.400
        74  -8.5131    163.1874    192.9904   1.0318935805e+02   1.1664995068e+01    0.3126335    0.2004073   5.21  0.001377746    2.644    0.622
        75  -9.2145    147.1879    223.2580   1.1096780560e+02   9.3467901071e+00    0.2698557     0.193984  32.49   0.00135446    1.281    0.220
        76  -8.7186    171.5606    189.8756   1.0094876075e+02   1.0695950744e+01    0.7722755    0.3497033  22.48  0.002123167    6.129    0.837
        77  -8.4234    145.5306    195.3867   1.0721494172e+02   1.4355776226e+01    0.2787984    0.1921298   3.82  0.001166923    2.343    0.573
        78  -8.0338    125.6651    192.1658   1.1088680176e+02   1.8354632448e+01      0.27292     0.148537  21.46  0.001066586    3.249    0.692
        79  -7.9073    115.7767    191.7953   1.1293816189e+02   2.0061867947e+01    0.2030261    0.1424445  -8.51 0.0009431513    2.726    0.633
        80  -8.6175    180.6049    190.5693   9.9258223673e+01   8.9475915732e+00     0.472973    0.1650006  33.91  0.001635855    3.370    0.703
        81  -8.4534    136.7041    190.9014   1.0835199448e+02   1.6712137105e+01    0.4498186    0.2140033  24.02  0.001497278    4.271    0.766
        82  -7.7653    149.0102    190.5073   1.0570002352e+02   1.4628917033e+01    0.2064413    0.1212168  39.25 0.0006391502    1.548    0.354
        83  -8.1449    104.2007    189.8846   1.1515174225e+02   2.2290074372e+01     0.234283    0.1717738  10.70  0.001223773    2.110    0.526
        84  -7.3763     82.6117    190.7318   1.1988812050e+02   2.5341030049e+01    0.1151116   0.09950952  -5.17 0.0006986698    1.708    0.415
        85  -7.3305    155.6423    188.6813   1.0400971667e+02   1.3776093530e+01    0.1387822    0.1028485   7.69 0.0007044745    1.758    0.431
        86  -8.1445    183.7088    185.4028   9.7700223228e+01   9.2402413806e+00    0.2221644    0.1607008  -8.50   0.00106595    1.675    0.403
        87  -8.0830    167.2769    185.9404   1.0112379413e+02   1.2154415688e+01    0.2729084    0.1675864  24.41  0.001280759    1.909    0.476
        88  -8.0623    151.4861    185.6802   1.0436695056e+02   1.5069568140e+01     0.233769    0.1572904  22.24  0.001129766    1.780    0.438
        89  -7.7352    121.4941    186.4885   1.1092230477e+02   2.0156789104e+01    0.1328885    0.1203621  55.31 -2.322114e-05    1.011    0.011
        90  -7.4904     79.3276    224.2959   1.2406146160e+02   1.9350093004e+01   0.09968285   0.09129447   2.90 0.0007024494    1.630    0.387
        91  -8.2671     51.0421    223.4542   1.2921013865e+02   2.3076115112e+01    0.1949126    0.1410753 -59.82  0.001360102    1.723    0.420
        92  -7.8544    157.8490    185.3391   1.0297184893e+02   1.3979987504e+01    0.2045267      0.11565  32.95 0.0009415199    1.791    0.442
        93  -8.6428    179.2222    182.3057   9.8024815358e+01   1.0586936852e+01    0.4811138    0.2824667   9.99  0.001877209    3.130    0.681
        94  -8.1310    142.9148    183.8778   1.0588180915e+02   1.6944074620e+01    0.2090719     0.179866  12.02  0.001210466    1.321    0.243
        95  -7.8336    162.9830    183.4697   1.0156977571e+02   1.3378633739e+01    0.1996418    0.1125465  21.73 0.0008079231    2.582    0.613
        96  -7.9360    134.7074    181.8650   1.0731562170e+02   1.8787054273e+01    0.2053424      0.17048 -21.12 0.0009138524    1.500    0.333
        97  -8.0416    186.1546    180.6763   9.6326474869e+01   9.5794925934e+00    0.3458417    0.1508849  36.26  0.001416397    2.257    0.557
        98  -8.3248    112.3713    180.8743   1.1206503854e+02   2.2799529918e+01    0.3260186    0.1404241  33.60  0.001308065    2.611    0.617
        99  -8.2123    123.1115    179.6508   1.0949560838e+02   2.1242230986e+01    0.3583952    0.1574804  33.26   0.00141755    2.601    0.616
       100  -9.4197    243.5005    179.1892   8.5449210462e+01  -3.4977127259e-01    0.4675441    0.1797851  44.25  0.002024203    2.687    0.628
       101 -10.3313    219.8205    177.4910   8.9271105166e+01   3.9500566330e+00    0.4392907     0.240724  40.28  0.002166832    1.740    0.425
       102  -7.6275    146.0101    178.4801   1.0428418633e+02   1.7412891412e+01    0.2098491    0.1273708  38.70 0.0008287896    1.549    0.354
       103 -10.5965     10.3883    238.5271   1.3696765075e+02   2.4733853752e+01    0.3870542     0.246533  20.70  0.002623197    2.753    0.637
       104  -8.1388    190.7249    176.2050   9.4555697242e+01   9.4774310868e+00    0.2642887    0.1587946  21.61   0.00119237    2.030    0.507
       105  -8.2314    180.7907    175.4100   9.6395943969e+01   1.1481555645e+01    0.3996538    0.1957935  21.27  0.001266527    4.280    0.766
       106  -7.9430    164.3857    176.1445   9.9933535281e+01   1.4444118028e+01    0.2426438    0.1731212  31.85 0.0009478689    1.368    0.269
       107  -7.0274     73.6672    222.6555   1.2497378194e+02   2.0398699259e+01    0.1016445   0.09104961 -19.97 0.0005887762    1.760    0.432
       108  -7.4131    196.3359    174.3252   9.3080525887e+01   8.7393846130e+00    0.1450749    0.1009194   8.06 0.0006396733    1.718    0.418
       109  -7.2493    159.3231    174.3166   1.0066467972e+02   1.5733219642e+01    0.1415582    0.1077054   5.09 0.0007043004    1.666    0.400
       110  -7.7456    153.7706    173.2022   1.0164963718e+02   1.6985532777e+01     0.221199    0.1022179  33.39 0.0006497179    2.428    0.588
       111  -7.4254    174.2636    172.3922   9.7150586661e+01   1.3252886696e+01    0.1428357    0.1054669  -3.70 0.0005173651    1.707    0.414
       112  -7.3035    135.3573    176.3146   1.0623331260e+02   1.9760042784e+01    0.1390071    0.1085943   2.39 0.0004903205    1.746    0.427
       113  -7.9616     90.0264    170.8695   1.1562962131e+02   2.8436192010e+01    0.1980546    0.1568439  70.89 0.0004273522    1.225    0.184
       114  -9.8882    203.7016    167.4013   9.0252542233e+01   8.4915571911e+00    0.4664164     0.342629  43.38  0.001573375    1.364    0.267
       115  -8.0689    157.9911    168.9963   9.9941296233e+01   1.6988172559e+01    0.4185523    0.1651002  32.91  0.001400913    3.307    0.698
       116  -7.2641    213.3343    168.3242   8.8617380153e+01   6.5373718043e+00    0.1448757   0.09851787   7.81 0.0003492125    1.711    0.416
       117  -8.5433    140.6632    221.1114   1.1193632761e+02   1.0744919501e+01    0.2429262    0.1579799  38.24 0.0009325526    1.325    0.245
       118  -7.5508    186.6438    167.6582   9.3671427087e+01   1.1712847518e+01    0.1508086    0.1051816   7.24 0.0007038478    1.820    0.450
       119  -7.3677     64.3501    221.3186   1.2659883212e+02   2.1842914076e+01   0.09890168   0.09020194 -20.45  0.000704798    1.737    0.424
       120  -7.1299    183.3231    161.3068   9.3042759941e+01   1.3482095029e+01    0.1468562     0.107795   7.72 0.0005826661    1.644    0.392
       121  -7.1699    154.3242    160.2857   9.9032637946e+01   1.9379737558e+01    0.1435292    0.1118752   6.83 0.0006093012    1.602    0.376
       122  -8.2805    212.6241    164.2846   8.7913873352e+01   7.3121019777e+00    0.3150372     0.183611  14.18  0.001319592    2.487    0.598
       123  -8.1113     90.5678    155.8978   1.1319968400e+02   3.1649016657e+01    0.2994851    0.1482833  60.28  0.001179227    2.749    0.636
       124  -6.8951    167.3349    155.3179   9.5157716150e+01   1.7772098426e+01    0.1503876    0.1125709   5.70 0.0005086976    1.697    0.411
       125  -7.5342    151.4992    146.6081   9.6820383328e+01   2.2674204501e+01    0.1462559    0.1381492  28.86 -0.0005356817    1.042    0.040
       126 -11.8201    249.1777     96.2631   6.6316459584e+01   1.0794869832e+01     1.119943    0.4933487 -27.66  0.004621644    2.216    0.549
       127  -7.4456    165.6693    101.2924   8.2462028987e+01   2.8666006421e+01    0.1547385    0.1241917 -81.11 0.0006387532    1.630    0.386
       128  -9.2979    222.0069     95.0899   7.0097079146e+01   1.6749836068e+01    0.2591995    0.2385343  49.73 0.0007323585    1.167    0.143
       129  -7.5530    166.2701     74.9666   7.4795881043e+01   3.3334594257e+01    0.1929869    0.1328178 -35.46 0.0006279564    1.433    0.302
       130  -8.9455    123.0377     59.5626   8.0052016842e+01   4.6260564128e+01    0.2657661    0.2123192 -28.99 0.0002202873    1.235    0.190
       131  -7.6483    134.6576     56.7223   7.6129842065e+01   4.4062794911e+01    0.1557985    0.1129782  21.68 0.0007005084    1.625    0.384
