#   1 NUMBER                 Running object number                                     
#   2 MAG_AUTO               Kron-like elliptical aperture magnitude                    [mag]
#   3 X_IMAGE                Object position along x                                    [pixel]
#   4 Y_IMAGE                Object position along y                                    [pixel]
#   5 X_WORLD                Barycenter position along world x axis                     [deg]
#   6 Y_WORLD                Barycenter position along world y axis                     [deg]
#   7 A_WORLD                Profile RMS along major axis (world units)                 [deg]
#   8 B_WORLD                Profile RMS along minor axis (world units)                 [deg]
#   9 THETA_WORLD            Position angle (CCW/world-x)                               [deg]
#  10 FWHM_WORLD             FWHM assuming a gaussian core                              [deg]
#  11 ELONGATION             A_IMAGE/B_IMAGE                                           
#  12 ELLIPTICITY            1 - B_IMAGE/A_IMAGE                                       
         1 -13.7979    226.7293      3.7709   3.7212289514e+01   2.7725061840e+01     2.003062    0.8503331  57.42  0.005542668    2.438    0.590
         2 -14.5228    194.3160     38.3337   4.9726932402e+01   3.1633149841e+01     2.064545     1.514595  25.90  0.003369218    1.784    0.439
         3 -14.6422    203.2366     28.6057   4.5853716531e+01   3.0625113718e+01     1.739561     1.321257  35.30  0.001431553    1.620    0.383
         4 -12.5798     41.3024      8.6898   7.8598755112e+01   6.9148855471e+01    0.3944454    0.2247595  -8.07  0.002136539    1.879    0.468
         5 -12.1980     59.6921      3.1145   6.7904956634e+01   6.6976968756e+01     0.423379    0.2067165  42.99  0.002201989    1.895    0.472
         6 -10.1128     81.8738    194.9813   1.1272341710e+02   2.3651000092e+01    0.2263105     0.183383 -80.78  0.000497583    1.197    0.165
         7 -14.2400     61.4187    188.5833   1.1645827257e+02   2.7861948468e+01     7.644126      2.64793  29.55   0.02850723    3.958    0.747
         8 -14.3063     47.3713    220.7439   1.2220246375e+02   2.2952813078e+01     1.809868    0.9300876  88.17  0.006549613    1.941    0.485
         9 -16.3531     53.6321    203.5771   1.1957162820e+02   2.5648027037e+01     10.45769     2.272583  49.75   0.03711864    4.124    0.758
        10 -10.0412     95.2236    188.5320   1.0893685135e+02   2.3012153843e+01    0.2617815     0.224924  20.92  0.001539684    1.457    0.314
        11 -16.9868      1.5265    100.7166   1.2155116680e+02   5.3911532288e+01     15.49135          nan -72.20   0.02416057   19.525    0.949
        12 -16.5993     42.5824    249.6815   1.2497602129e+02   1.8196633154e+01     8.556074      2.35364  30.91   0.02196508   12.258    0.918
        13  -9.6305    153.5995    184.7536   9.5186543648e+01   1.3541264818e+01      0.19142    0.1381944 -62.31 0.0006198042    1.675    0.403
        14 -11.1107    146.1627    182.7719   9.6484762029e+01   1.5338624787e+01     0.353384    0.2489464  50.57 0.0009487667    1.376    0.273
        15 -11.5842    141.9928    175.4678   9.6102843893e+01   1.7623866727e+01    0.7338189    0.4648016  87.90  0.002768753    3.141    0.682
        16 -17.9706      8.0038    240.0787   1.3014132123e+02   2.3616724237e+01     7.642649     2.217057 -75.01   0.03795947    3.028    0.670
        17 -10.6900     99.3115    180.7728   1.0689653971e+02   2.4053347343e+01    0.2805252    0.2282896  37.07 0.0006142395    1.290    0.225
        18  -9.4431     43.0013    179.5424   1.1956851136e+02   3.2104885840e+01    0.1666944    0.1115292  44.20 0.0003744469    1.488    0.328
        19 -10.3639    204.4088    176.2433   8.2784159387e+01   5.3602699620e+00    0.3277077     0.254665 -53.25  0.001564497    1.624    0.384
        20  -9.2710    197.7992    177.3700   8.4343394803e+01   6.4237222971e+00    0.2090944    0.1225523  31.86 0.0009468778    1.707    0.414
        21 -12.2794     73.9617    174.7369   1.1196779231e+02   2.9260204482e+01    0.3864133    0.2666208 -37.42  0.001981345    2.055    0.513
        22 -12.2221     77.9604    169.8078   1.1034836586e+02   2.9817889070e+01    0.4072305    0.3061323 -37.24 0.0008553279    1.762    0.433
        23  -9.5831    188.4626    175.2344   8.5832503329e+01   8.6077731955e+00    0.1908141    0.1390516 -51.55  0.000770686    1.620    0.383
        24 -11.0664     47.5915    173.4252   1.1791595329e+02   3.2955900892e+01    0.3532201    0.2389911 -59.13  0.001333405    1.521    0.343
        25 -10.9609     53.7318    173.0537   1.1646784111e+02   3.2307702126e+01    0.2940265    0.2054504  75.04 0.0004851947    1.337    0.252
        26 -10.6301    152.2955    197.0501   9.7613023411e+01   1.1419698907e+01    0.3304885    0.2475664 -55.71  0.001562531    1.533    0.348
        27 -10.7639     55.5216    166.6592   1.1529887134e+02   3.3559652456e+01     0.396266    0.1777943 -46.21  0.001634973    3.049    0.672
        28 -10.2671    229.7688    166.0059   7.5788448334e+01   2.3288424239e+00    0.1832162    0.1073651 -33.36 0.0006151762    1.626    0.385
        29  -9.9933    236.5270    158.4811   7.2960255726e+01   2.3051088691e+00    0.1400127    0.1205755  -6.08  1.09744e-05    1.020    0.020
        30 -12.1972     92.1850    154.0007   1.0433954302e+02   3.1339412809e+01    0.6629471    0.4602723 -28.90  0.003081821    2.088    0.521
        31 -10.0826     93.9786    250.0000   1.1603880749e+02   1.1422824577e+01    0.1761588    0.1336683  54.40 0.0004803686    1.026    0.025
        32 -11.4234    133.8065    144.9216   9.1939922883e+01   2.5876334080e+01     1.225417    0.3164834 -54.64  0.002916805    5.674    0.824
        33  -9.0372    139.2941    150.6601   9.1819579147e+01   2.3492214647e+01    0.1545902    0.1203183  85.58 0.0004526915    1.654    0.395
        34 -11.1008    174.4050    148.5733   8.3145983213e+01   1.6606717783e+01    0.3468057    0.3028501 -73.01   0.00132526    1.377    0.274
        35  -9.1582    109.1871    147.2457   9.8701328896e+01   3.0035519644e+01    0.1971383    0.1636811  80.41 0.0003114956    1.301    0.231
        36 -10.5372    143.5088    145.5224   8.9674548042e+01   2.3767024446e+01    0.2898603    0.1470091 -58.89  0.001038747    2.524    0.604
        37 -10.5848     86.8408    145.6745   1.0425997427e+02   3.4171374903e+01    0.2926469    0.2192695  65.74 0.0006825426    1.427    0.299
        38 -11.2447    105.0117    138.9755   9.8128182002e+01   3.2732158253e+01    0.6043633    0.3681293 -32.79  0.002479914    2.248    0.555
        39 -12.3731     92.5824    139.4073   1.0155343001e+02   3.4755092758e+01    0.2806386    0.2487621 -49.33 0.0003031313    1.161    0.139
        40 -12.1545    112.2645    197.0528   1.0633782589e+02   1.8453921583e+01    0.5201392    0.3539966  34.60  0.002754632    1.498    0.332
        41 -13.8834     74.2207    156.1582   1.0926930080e+02   3.3550488380e+01    0.6574854    0.6086644 -50.63  0.001667251    1.233    0.189
        42 -10.8088    105.9250    130.6612   9.6109589821e+01   3.4541412222e+01    0.3867503    0.3076245 -67.64   0.00117708    1.290    0.225
        43 -10.7076    113.3900    129.8417   9.3896069231e+01   3.3350698141e+01    0.3526484    0.3064047  -1.71  0.000828626    1.388    0.280
        44 -11.6496    119.5266    123.9197   9.0852819284e+01   3.3543398082e+01    0.7202262    0.4654479 -22.49  0.002831374    2.341    0.573
        45 -11.0326    135.7878    127.4148   8.7409748071e+01   2.9417767478e+01    0.6309587    0.1960757 -49.52  0.001858324    3.361    0.702
        46 -10.5197    135.1280    119.9715   8.5735178195e+01   3.1228667116e+01    0.4337774    0.1799104 -48.29   0.00148262    2.431    0.589
        47  -8.7864     98.6181    130.2068   9.8021799804e+01   3.5944726761e+01    0.1482652    0.1072703  62.83 0.0005698173    1.592    0.372
        48 -10.3769    160.7923    127.7406   8.1325020058e+01   2.3900930214e+01     0.325718    0.2219646 -53.33   0.00122605    1.592    0.372
        49 -11.0630    100.5611    126.0451   9.6570814446e+01   3.6599432958e+01     0.306301    0.2469178 -29.12 0.0009518365    1.432    0.301
        50 -10.2317    109.0141    119.0223   9.2569438514e+01   3.6718436760e+01    0.2204665    0.2135841 -58.95  0.001195993    1.006    0.006
        51  -9.8359    167.4939    112.3192   7.5806483822e+01   2.5583391331e+01    0.3430866    0.2492789 -76.48  0.001220994    1.998    0.499
        52 -10.6354    134.5510    104.7944   8.1878510507e+01   3.4708211928e+01    0.7506158    0.1550297 -43.27  0.001808915    4.819    0.792
        53 -11.7738    118.2784    109.8291   8.7657736024e+01   3.7032396321e+01    0.6379374    0.4528816  56.67  0.002412925    1.591    0.371
        54 -10.2490    205.4386    110.0736   6.7311501598e+01   1.7171768355e+01    0.3175253    0.2289275  43.41 0.0008301592    1.448    0.310
        55  -9.2236     63.0286     98.9688   1.0169030722e+02   4.8882987586e+01    0.1644211    0.1536223 -50.49 0.0004417698    1.054    0.051
        56 -15.4465     11.3803    206.3865   1.2793932754e+02   2.9668466028e+01    0.6313267    0.5508628  31.70  0.003215816    1.628    0.386
        57  -9.6772     39.7760     88.4593   1.0707820330e+02   5.3999912393e+01    0.2194882    0.1331516 -54.02  0.001158886    1.358    0.263
        58  -9.9692    156.8230     81.1307   6.9467365833e+01   3.4315092595e+01    0.2382399    0.2189743 -74.40 0.0006017803    1.183    0.154
        59  -9.5893    184.3467     77.0054   6.2439081254e+01   2.8208796143e+01    0.2211105    0.1982676 -33.20 0.0006154077    1.114    0.103
        60  -9.2903     72.1210    230.2417   1.1831907499e+02   1.7966690492e+01    0.2956131    0.1891422 -60.96  0.001121238    1.814    0.449
        61 -13.9666    183.4971     47.1726   5.3943545186e+01   3.3180568510e+01     1.434371     1.042008  30.83 0.0008668312    1.677    0.404
        62 -15.6158     68.1781    143.9836   1.0892382593e+02   3.7307283383e+01     6.029913     3.186696  65.99   0.02450588    2.682    0.627
        63 -10.2947     56.8128    224.6640   1.2073427390e+02   2.1029065137e+01    0.1870008    0.1308141  79.58 0.0005396195    1.234    0.190
        64 -11.4000    153.1061     56.0428   6.2494004024e+01   3.9623858266e+01    0.3931479    0.2982196 -84.19  0.001806655    1.707    0.414
        65 -11.2289    155.8367     50.3215   6.0067956869e+01   3.9823667111e+01    0.3566495    0.2821525 -84.73   0.00106724    1.522    0.343
        66 -11.2931    108.2393    203.5390   1.0810348327e+02   1.7797307787e+01    0.2646759    0.1930673  61.66 0.0007477769    1.297    0.229
        67  -9.9029    189.7967     14.8749   4.3741471704e+01   3.5608618269e+01      0.20411    0.1827077  49.24  0.000704496    1.210    0.174
        68 -11.1457    113.3948    207.6319   1.0755002361e+02   1.6144045282e+01    0.2945374    0.2143833  67.41 0.0006717042    1.402    0.287
