#   1 NUMBER                 Running object number                                     
#   2 MAG_AUTO               Kron-like elliptical aperture magnitude                    [mag]
#   3 X_IMAGE                Object position along x                                    [pixel]
#   4 Y_IMAGE                Object position along y                                    [pixel]
#   5 X_WORLD                Barycenter position along world x axis                     [deg]
#   6 Y_WORLD                Barycenter position along world y axis                     [deg]
#   7 A_WORLD                Profile RMS along major axis (world units)                 [deg]
#   8 B_WORLD                Profile RMS along minor axis (world units)                 [deg]
#   9 THETA_WORLD            Position angle (CCW/world-x)                               [deg]
#  10 FWHM_WORLD             FWHM assuming a gaussian core                              [deg]
#  11 ELONGATION             A_IMAGE/B_IMAGE                                           
#  12 ELLIPTICITY            1 - B_IMAGE/A_IMAGE                                       
         1 -12.1444     89.2081     57.6823   7.5073666528e+01   5.3588700898e+01     1.518989     1.200383  76.74  0.007500244    2.035    0.508
         2 -13.3239     41.9722     45.5091   8.8759578071e+01   6.3065036637e+01     1.143872    0.6148407  42.72 0.0008183799    2.553    0.608
         3 -11.8222     26.5310     56.9228   9.9251137083e+01   6.2355314640e+01     1.405938    0.6001782 -46.54  0.006799773    1.835    0.455
         4 -12.0563    124.9365     28.0479   5.4133302807e+01   5.0213082955e+01     1.040262    0.5407152  37.88  0.002026113    2.007    0.502
         5 -12.7339    119.8027     37.9179   5.8889594651e+01   5.0178366458e+01    0.9369323    0.7277375 -88.10  0.003896942    1.802    0.445
         6 -11.7588    146.0057     46.3339   5.5725731977e+01   4.2756186687e+01     1.030599    0.4145172 -24.76  0.003437049    3.086    0.676
         7 -11.9978     60.7799     46.6324   8.1346654507e+01   6.0360226063e+01     0.874553     0.519319 -39.87  0.004473933    1.593    0.372
         8 -11.8534      5.3666      2.4599   8.8967068774e+01   7.3747058073e+01    0.9892448    0.5391874  20.27  0.005989344    1.840    0.456
         9  -9.9280     31.9260     12.1571   7.9195066613e+01   6.9676731380e+01    0.1930616    0.1575696  -6.90 0.0005389504    1.155    0.134
        10 -11.9437      4.9637     34.7087   1.0238899787e+02   6.8278879062e+01     1.562779    0.4427175 -49.45 0.0008420515    2.347    0.574
        11 -10.5356     47.1444     18.8182   7.5284432606e+01   6.6724919894e+01    0.3363315    0.2629866  -6.92  0.001452192    1.057    0.054
        12 -12.0843     35.9325     18.6782   8.0380979148e+01   6.8256760554e+01    0.6453378    0.4362674 -24.87  0.003617989    1.267    0.211
        13 -12.2300     48.9636     12.8290   7.1618891287e+01   6.7235475950e+01     0.713241    0.3061284  39.06  0.003494207    2.217    0.549
        14 -11.9213     20.1522     21.9916   8.9799904412e+01   6.9449273231e+01    0.7342044    0.2223739 -44.07  0.003264331    2.715    0.632
        15 -12.7106     17.1513     12.8404   8.7269439915e+01   7.1178702366e+01     1.056795    0.5512509 -16.15  0.004384036    1.930    0.482
        16 -10.9137    147.3333     17.3800   4.6117244516e+01   4.5928457485e+01    0.6558435    0.5079022 -23.31  0.003714375    1.436    0.304
        17 -11.0860    155.3691     23.6385   4.6746142676e+01   4.3280503896e+01    0.9726331    0.7478681  35.17   0.00533679    1.392    0.282
        18 -11.5071    136.9182     22.6769   4.9753538480e+01   4.7932645402e+01    0.8898697    0.3652139  50.25  0.003565516    2.133    0.531
        19 -12.3378    132.1230     15.1614   4.8111374836e+01   4.9866679633e+01     1.488191    0.5419351  63.18  0.005808835    2.487    0.598
        20  -9.8180    141.5315     12.0937   4.5383940141e+01   4.7866937606e+01    0.2256257    0.1842842  28.04 0.0006686393    1.300    0.231
        21 -11.2422    182.9555     25.3572   4.3131907473e+01   3.6250699704e+01    0.5538299    0.4346426  35.66  0.002881044    1.488    0.328
        22 -12.2756    104.7397     13.0049   5.3249601993e+01   5.6481143853e+01    0.5322629    0.4008151 -21.21   0.00183909    1.436    0.304
        23 -11.1718    105.9165     20.8084   5.6015673117e+01   5.5418023035e+01    0.4437634    0.2939969 -27.62  0.001392824    1.613    0.380
        24 -12.2584    113.2049     25.3252   5.5907747235e+01   5.3263501228e+01    0.8142094    0.4024215  51.60  0.002891961    1.786    0.440
        25 -10.7518    198.6448     29.4697   4.2219297463e+01   3.1956488600e+01    0.5915055    0.3980759 -27.89  0.002832833    1.614    0.381
        26 -10.7228    214.7829     23.1714   3.8838800170e+01   2.8898674770e+01    0.4179172    0.3234805   5.16  0.002375477    1.868    0.465
        27 -10.0970     14.0579     23.3959   9.3586241180e+01   6.9732262182e+01     0.425297     0.334514  13.29  0.002054104    1.407    0.289
        28 -10.6405     87.1131      7.3788   5.5567889969e+01   6.0828822005e+01     0.580502    0.3451768  53.55  0.002459905    1.550    0.355
        29 -11.3218     90.8414     21.1047   6.0307701352e+01   5.8642084131e+01    0.6367562    0.4606232  -6.61  0.003572649    1.416    0.294
        30 -11.3232     86.0032     14.2270   5.8848292736e+01   6.0391475559e+01    0.7648488    0.4208205  14.87  0.003151009    2.273    0.560
        31 -10.8414    178.7635     21.1104   4.2515720024e+01   3.7755438496e+01    0.5623338    0.2611215  47.03   0.00173023    2.332    0.571
        32 -11.9366     68.1050     18.0540   6.6488821596e+01   6.3413901488e+01    0.5436895    0.4866113  26.85  0.003029202    1.236    0.191
        33 -12.2711    237.5739     15.8789   3.5101980290e+01   2.4653646822e+01    0.8192484    0.5826126  77.16  0.005139174    1.357    0.263
        34 -10.6058    226.3561     15.6194   3.5986973556e+01   2.7131578498e+01    0.3945912    0.2229535 -50.19  0.002098689    1.595    0.373
        35 -11.6110    232.4565      7.3752   3.3668198712e+01   2.6680135568e+01     0.693575    0.3770321 -73.77  0.003715691    1.829    0.453
        36 -11.9528    246.9934      6.7534   3.2484928738e+01   2.3667897518e+01    0.5481308    0.4366369  -3.48  0.002462431    1.903    0.474
        37 -10.9726    218.8026      3.4097   3.3863725415e+01   3.0102306757e+01    0.3148037    0.2632635 -40.33 0.0009857186    1.283    0.221
        38 -11.3519    165.1246     17.9280   4.3498939019e+01   4.1465817469e+01    0.4689199    0.2696192  43.15  0.001485982    1.865    0.464
        39 -12.1868     22.8037     11.6715   8.3652096180e+01   7.0789042426e+01    0.5870606    0.3618728 -17.83  0.002954728    1.371    0.270
        40 -11.5597    192.5918      9.0708   3.7649299467e+01   3.5639712772e+01    0.9146243    0.5238574  -8.81  0.004365935    2.594    0.614
        41 -11.3761    241.7761      3.9716   3.2272480594e+01   2.5046957338e+01    0.5377234     0.245239  69.76  0.002854962    2.082    0.520
        42  -9.4808      4.4311     12.4740   9.4290704667e+01   7.2266902260e+01    0.2480129    0.1495526  22.86  0.001620687    1.865    0.464
        43  -8.9146      5.3098      9.3334   9.2356096461e+01   7.2707998711e+01    0.2507014   0.09988073 -31.96 0.0009190688    2.076    0.518
        44 -11.0017    223.4758      1.9663   3.3173280425e+01   2.9201958732e+01    0.5384881    0.2267687  82.28  0.002528535    2.337    0.572
        45 -11.3714    211.8833      9.6252   3.5894827144e+01   3.1048098459e+01    0.5166379    0.3297706   3.28  0.001744265    2.712    0.631
        46  -9.9642     66.0057     10.4568   6.3734147194e+01   6.4656199296e+01    0.3300726    0.1861203  44.74   0.00147572    1.650    0.394
        47 -10.2323     63.3529      6.5800   6.2843849915e+01   6.5538423118e+01    0.3016255     0.221179  14.82  0.001355425    1.164    0.141
        48  -9.7667    168.9320      9.6759   4.0576236615e+01   4.1339494144e+01    0.3509043    0.1595649  49.39  0.001554374    2.175    0.540
        49  -9.4972    163.2836     10.1461   4.1463244701e+01   4.2687675617e+01    0.2266947    0.2105261 -72.34 0.0009844191    1.118    0.106
        50  -9.3554     78.4754      7.5145   5.8189541179e+01   6.2578866226e+01    0.2299726    0.1597787  46.33 0.0006515158    1.312    0.238
        51 -11.2064     75.3415      3.3193   5.7250004879e+01   6.3583749976e+01    0.6664667    0.3026385  43.68  0.003077151    1.823    0.452
        52 -10.5825    183.5838      4.6331   3.7453917789e+01   3.8231101851e+01    0.3832277    0.2892068 -22.61   0.00194063    1.546    0.353
        53 -11.0567    176.7412      5.6761   3.8499983245e+01   3.9796857034e+01     0.398344    0.2152477  80.76  0.001157861    1.793    0.442
        54  -9.9471    169.3000      2.4851   3.8487105120e+01   4.1897556144e+01    0.2848924    0.1854928 -68.23 -0.0002014713    1.674    0.403
        55 -10.0060    153.6308      7.2347   4.1943110098e+01   4.5333029157e+01    0.6197077    0.1690521  68.58   0.00212068    3.340    0.701
        56 -11.0655    114.8007      3.5525   4.7353904674e+01   5.5006049937e+01    0.5946488    0.2873488  50.27 0.0008206164    1.701    0.412
        57 -10.9147     41.3479      4.5425   7.0794277518e+01   6.9361727968e+01    0.4590211    0.2428705  -3.16  0.002339939    2.218    0.549
        58  -9.8570    162.5180     44.8534   5.2010390501e+01   3.8879922480e+01    0.8232571    0.4380591 -24.70  0.003487097    2.143    0.533
        59 -12.2252    134.3919      2.5061   4.3391260180e+01   5.0430669259e+01    0.4273883    0.2587259  69.48 0.0006266749    1.502    0.334
        60 -10.1130    142.3991      3.2637   4.2366018331e+01   4.8424392439e+01    0.4311327    0.2235908  62.76  0.001678737    1.619    0.382
        61 -11.1383    106.7687      1.9588   4.8435455472e+01   5.6980440835e+01    0.5958146     0.264451  63.72  0.002002379    2.105    0.525
        62  -9.0734     55.0699      4.4286   6.4917998229e+01   6.7202762505e+01    0.1688529    0.1524346 -12.28 0.0006728806    1.370    0.270
        63 -10.8171    206.5792      2.4401   3.4666172375e+01   3.2987065632e+01     0.488353    0.2099167  82.75  0.001583526    2.331    0.571
        64  -9.8973    158.3419      2.3224   3.9809409424e+01   4.4596402765e+01    0.3754988    0.1665306  48.95  0.001685891    2.155    0.536
        65  -9.1632    151.8430      1.2448   4.0356628440e+01   4.6278065035e+01    0.2650941    0.1047795  75.89  0.000918708    2.605    0.616
        66  -9.1340    122.7754      1.3535   4.5009608555e+01   5.3303413290e+01    0.3349276   0.09990414  62.53  0.001276511    2.699    0.629
        67 -10.8519    138.0299     33.5867   5.3206977437e+01   4.6397263959e+01    0.5176452     0.392802 -51.08  0.001975355    1.515    0.340
        68 -10.0888    143.0546    249.0641   1.0231201082e+02   3.7158754956e+00    0.2260423    0.1862774 -31.49  0.001503557    1.484    0.326
        69 -11.4759     22.7211    127.1703   1.1473456028e+02   4.6383324683e+01    0.2565962    0.2183822  50.44 0.0002942535    1.327    0.246
        70 -11.8300     23.1510    135.2954   1.1565904643e+02   4.4376931956e+01    0.8737101      0.46699  46.97  0.004495823    2.071    0.517
        71 -11.9118     30.0129    132.9736   1.1343380591e+02   4.4358433093e+01    0.4868512    0.3210936 -83.84 0.0003230405    1.443    0.307
        72 -10.3652     47.3502    136.0385   1.0893818139e+02   4.1891573602e+01    0.4926565    0.1708859 -58.68  0.001277092    2.362    0.577
        73  -9.7403    216.4441    137.4379   6.6506424814e+01   1.0565415993e+01    0.3575851     0.215508 -37.04  0.001652573    1.532    0.347
        74  -9.8881     80.1139    136.8085   9.9635694891e+01   3.7467301309e+01    0.4827459    0.2887876 -27.99  0.001953845    2.483    0.597
        75 -10.5402     67.3296    135.8121   1.0313663683e+02   3.9521621924e+01    0.3631294    0.2326977 -44.60 0.0007116294    1.587    0.370
        76 -10.2518     40.1098    137.9163   1.1127679714e+02   4.2190318932e+01     0.232138    0.1991808  59.81  0.000406102    1.239    0.193
        77 -10.3648     92.8711    129.5874   9.4442350814e+01   3.7221529706e+01    0.4850373    0.2653427 -66.44    0.0018983    2.224    0.550
        78  -9.0227    108.2899    146.3932   9.3714641005e+01   3.0523455770e+01    0.2075057    0.1390653  47.77 0.0006396195    1.551    0.355
        79 -10.3768     74.2305    132.4746   1.0049297544e+02   3.9392236248e+01    0.3221978    0.2234627 -41.48  0.001576537    1.493    0.330
        80  -9.9839     61.8080    132.2262   1.0409384038e+02   4.1127732638e+01    0.4321268    0.2831444 -37.23   0.00209672    1.725    0.420
        81  -9.7127     39.0475    132.9903   1.1085429405e+02   4.3507190195e+01    0.2359458    0.2070186  13.33  0.001103481    1.377    0.274
        82  -9.3101    103.8885    130.8630   9.1563164489e+01   3.5018103813e+01    0.2187688    0.2005866 -11.15 0.0002965618    1.175    0.149
        83 -10.9100     10.5802    127.3807   1.1821037327e+02   4.7213099571e+01    0.5667289    0.2092717 -60.30  0.002294417    2.067    0.516
        84  -9.9912     81.5352    124.9907   9.6782794877e+01   4.0149272951e+01    0.4145848    0.3326474   9.22  0.002122728    1.488    0.328
        85 -10.6272     33.5145    144.5238   1.1399242494e+02   4.1219687317e+01     0.395986    0.2428324  50.74  0.001899358    1.753    0.430
        86  -9.1992    224.0077    126.9489   6.2718842400e+01   1.0933595650e+01    0.2185599    0.1673946 -61.81 0.0005399147    1.639    0.390
        87  -9.9296      2.9071    126.2752   1.2021995467e+02   4.7953290035e+01    0.3219953    0.2054799  76.59  0.001591478    1.597    0.374
        88  -9.8196      4.4996    121.2550   1.1923063388e+02   4.9052029075e+01    0.3043833    0.1667312  88.85   0.00124645    1.805    0.446
        89  -9.7073     49.4999    123.0042   1.0611284965e+02   4.4871133533e+01    0.3287196    0.2533537   7.45  0.001205029    1.603    0.376
        90 -10.9541     45.3854    120.1259   1.0685974053e+02   4.6025055469e+01    0.6847104    0.3566124 -83.10  0.002571729    2.626    0.619
        91  -9.5717     53.5959    124.7778   1.0518854556e+02   4.3967855487e+01    0.3347929    0.1967975 -61.72  0.001510167    1.503    0.335
        92  -9.8492     56.4783    122.4895   1.0388334751e+02   4.4190792059e+01    0.3504549    0.2465545  49.52  0.001814697    1.608    0.378
        93  -9.5114    214.7673    150.9269   6.9881050815e+01   8.4606768061e+00    0.2564306    0.2007752  79.74  0.001239131    2.074    0.518
        94 -12.0501    104.0456    122.3165   8.9519502494e+01   3.7025214546e+01    0.4792062    0.4143653 -31.38 0.0009813891    1.179    0.152
        95  -9.2802     94.4141    123.4781   9.2611667498e+01   3.8437682892e+01    0.1500449    0.1414912 -54.86 0.0001049783    1.027    0.026
        96  -9.2568     71.3511    120.8840   9.8991111802e+01   4.2647756923e+01    0.2101593    0.1698323 -52.51 0.0006720108    1.133    0.117
        97 -11.4013     51.1781     96.3950   1.0011041716e+02   5.1129318377e+01       1.3424    0.4405115 -60.13  0.004756371    2.924    0.658
        98 -11.7494     17.0612    101.0109   1.1262464808e+02   5.3098329623e+01     0.331637    0.2870855   7.97 0.0003518191    1.401    0.286
        99 -10.3208     26.0433     86.7297   1.0687200284e+02   5.5811242161e+01    0.8792277    0.5144755 -64.88  0.004655799    1.516    0.340
       100 -11.2945     42.2500     93.9082   1.0264947478e+02   5.2679915817e+01    0.3625556    0.2834148  89.39  0.001385864    1.582    0.368
       101 -11.6197      9.8852     96.9065   1.1434513872e+02   5.4514974208e+01    0.9312768     0.624225  85.90  0.005387443    1.670    0.401
       102 -11.9339      7.1412     88.6032   1.1394670460e+02   5.6604128252e+01    0.5245606    0.4541603  38.31  0.002961107    1.443    0.307
       103 -11.9422     35.0122     93.3939   1.0507767374e+02   5.3496407094e+01     1.373821    0.6680115 -66.71  0.005221418    1.989    0.497
       104 -11.2988     18.7504    106.0840   1.1288741328e+02   5.1772420369e+01    0.2465444    0.1937359 -42.48 0.0002420637    1.247    0.198
       105 -12.2643     24.9426    113.6002   1.1210893777e+02   4.9501732103e+01     1.199333    0.6334963  24.27  0.006127025    2.227    0.551
       106 -12.3467     25.1744    108.0134   1.1113682866e+02   5.0833209497e+01    0.9845322    0.6598595 -19.96  0.005445564    1.845    0.458
       107 -11.8510     22.6060     94.9412   1.0970294053e+02   5.4148071006e+01    0.4912456    0.3867552   4.45  0.001648292    1.513    0.339
       108 -11.9858     18.1561     89.8920   1.1031612631e+02   5.5646034900e+01    0.6154816    0.2578082 -57.38  0.002241155    1.796    0.443
       109 -10.9260     37.6843     86.1470   1.0250679060e+02   5.4938977352e+01    0.3269757    0.2746508  27.56  0.001336576    1.380    0.275
       110  -9.1107    221.2185    120.4290   6.1678212514e+01   1.2645295970e+01     0.188113    0.1432675  65.37 0.0006261647    1.645    0.392
       111  -9.2638    185.3277    119.3161   6.8265718345e+01   2.0533971791e+01    0.1590901    0.1203123   5.42 0.0005114267    1.676    0.403
       112  -8.7442     13.7361    118.9711   1.1627613789e+02   4.9020974797e+01    0.1529418   0.08990522 -69.27 0.0002759461    1.361    0.265
       113  -9.2561     58.5805    117.7433   1.0230255222e+02   4.5101211369e+01    0.2925536    0.1155781 -55.66  0.001149527    2.157    0.536
       114  -9.6991    113.6511    115.8989   8.5155597796e+01   3.6721991935e+01    0.2564324    0.2203084  15.70  0.000549587    1.264    0.209
       115 -10.5473    107.4723    112.1869   8.5985542240e+01   3.8761520954e+01    0.4463362    0.3722932 -78.29   0.00115993    1.450    0.310
       116 -10.9833    102.4723    109.6023   8.6793610532e+01   4.0291101809e+01    0.6268454    0.5080233 -13.68  0.002421941    1.411    0.291
       117 -10.0456      7.0514    114.4946   1.1768864988e+02   5.0511440999e+01    0.2486562    0.2165217 -76.45 0.0009313446    1.102    0.093
       118 -11.9355      2.1655    111.4643   1.1877529699e+02   5.1501454498e+01     0.391898    0.2199093 -72.53 0.0007440569    1.400    0.286
       119 -11.3954      3.8653    105.1349   1.1746201959e+02   5.2906507988e+01    0.4276446     0.365531  65.02  0.002192512    1.348    0.258
       120  -9.3444     79.4266    114.2792   9.5018182688e+01   4.3070076565e+01    0.2869817    0.1284405 -50.19  0.001117301    2.032    0.508
       121  -9.5565     66.8487    113.9948   9.8908837411e+01   4.4948504327e+01    0.3659334    0.2450543  77.79  0.001609714    2.270    0.559
       122  -9.7113     67.0160    110.6317   9.8106801661e+01   4.5740773511e+01    0.3450296    0.1787568  30.38  0.001491913    2.128    0.530
       123  -9.0688    126.9383    113.5201   8.0819613825e+01   3.4589300026e+01    0.2338992    0.1556173  41.19 0.0006971087    1.530    0.346
       124  -9.8739     94.7490    112.1977   8.9789591675e+01   4.1066565281e+01    0.3559275    0.2935558  21.85  0.001797695    1.315    0.239
       125  -9.8277     48.9387    112.4124   1.0429453882e+02   4.7530706401e+01    0.2541887    0.2306108  41.95 0.0009426376    1.247    0.198
       126 -10.5616    170.3308    110.4968   6.9229550927e+01   2.5650858532e+01    0.4405908    0.3561234 -34.87  0.001499899    1.213    0.175
       127  -9.9084    131.1031    110.0876   7.8772011327e+01   3.4472820028e+01    0.3302976    0.2811531  59.48  0.001615573    1.303    0.233
       128 -10.0691    120.4707    109.2991   8.1484734641e+01   3.6862778306e+01    0.3510939    0.2481111 -33.35  0.001572902    1.473    0.321
       129 -10.5564     90.0089    104.4890   8.9276016587e+01   4.3683504556e+01    0.4499974    0.3334698   6.07  0.001495637    1.693    0.409
       130 -10.3832     85.9797    103.9623   9.0410740720e+01   4.4479499876e+01    0.5048224    0.3087726 -22.28  0.001524477    2.335    0.572
       131 -10.7706     80.8401    107.8102   9.3018892161e+01   4.4398303515e+01      0.40476    0.3166496 -66.66 0.0006344602    1.375    0.273
       132 -10.8495     77.6510    108.6825   9.4246893541e+01   4.4681231905e+01    0.4891509    0.2941436  29.53  0.001512117    1.834    0.455
       133  -9.5504     58.4437    108.6638   1.0044167256e+02   4.7329740688e+01    0.2614861    0.1312149 -63.76 0.0008636992    1.985    0.496
       134  -9.5239    175.7448    107.2887   6.7195032879e+01   2.5046097016e+01    0.3414695    0.1898911 -38.03  0.001378425    1.756    0.431
       135  -9.7480    157.4381    106.5916   7.1148433628e+01   2.9380598733e+01    0.3843888    0.2762049  -4.43  0.001575816    1.927    0.481
       136 -10.0544    143.1746    105.9036   7.4466778347e+01   3.2741604482e+01    0.3220185    0.2857181  52.13   0.00161354    1.177    0.150
       137 -10.9859    145.5946    100.4250   7.2331277601e+01   3.3336256467e+01    0.5377846     0.421196 -27.44  0.001557289    1.330    0.248
       138  -8.5581     45.5449    105.5231   1.0401522581e+02   4.9568328720e+01    0.1383531    0.1184635 -52.46  0.000142759    1.017    0.017
       139  -9.1126    181.6899    104.3282   6.5157442630e+01   2.4251420456e+01    0.1570523    0.1217171 -72.64  0.000334667    1.663    0.399
       140 -10.0000     57.2310    102.5013   9.9463806305e+01   4.8960629847e+01    0.3667985    0.1679775 -53.00  0.001318216    1.875    0.467
       141 -10.2421     57.4902     97.9798   9.8317758469e+01   5.0002494074e+01    0.3361172    0.2151926  17.32  0.001637399    1.862    0.463
       142  -8.9727     82.4338    102.5021   9.1165246138e+01   4.5395056836e+01     0.148534     0.136494 -39.00 9.857003e-05    1.009    0.009
       143  -9.2023    208.8667    100.9391   5.9101319050e+01   1.8722432542e+01    0.2158718    0.1870346 -12.56 0.0004152697    1.228    0.186
       144  -9.6135    209.9822     97.7469   5.8110114243e+01   1.9035101940e+01    0.2333626    0.2033773   1.78  0.001248763    1.294    0.227
       145  -9.4451    120.9174    101.0683   7.9090254988e+01   3.8584603660e+01    0.2545158    0.1919851  -3.56   0.00112656    1.699    0.412
       146  -9.9902     63.8802     75.1287   8.9871132732e+01   5.4326149431e+01    0.5574459    0.3327006  43.85  0.001841509    2.016    0.504
       147 -10.0276     66.7339     88.6434   9.2735337631e+01   5.0945227069e+01    0.3591891    0.2281636 -22.29  0.001035465    1.931    0.482
       148 -11.0676     90.0281     89.4008   8.5095251388e+01   4.7091562612e+01    0.7412949    0.3765694 -32.60  0.002828974    2.335    0.572
       149 -11.7548     76.5864     80.1050   8.6842733438e+01   5.1357217178e+01     1.014709    0.7790175 -87.79   0.00484015    2.095    0.523
       150 -10.4578     67.0180     81.9209   9.0747115790e+01   5.2407285382e+01    0.4404418    0.3551361   7.98  0.002416061    1.326    0.246
       151  -9.9907     80.7450     98.4130   9.0638983302e+01   4.6612594219e+01    0.2971878     0.237603  -2.90 0.0009365578    1.432    0.302
       152  -9.6924     77.2734     96.6399   9.1309492097e+01   4.7564385458e+01    0.2655632    0.2158991  19.42 0.0006703393    1.329    0.248
       153 -11.4509     79.1321     92.8895   8.9674199901e+01   4.8131082835e+01    0.9031804    0.3219841  37.22  0.003206167    2.943    0.660
       154 -11.5647     67.2974     95.3922   9.4331627161e+01   4.9317625924e+01     0.469467    0.4364103   7.95  0.001623527    1.143    0.125
       155  -9.9662    117.5844     93.0863   7.7743003436e+01   4.0988526119e+01    0.3388377    0.2668525   1.21  0.001075994    1.516    0.340
       156 -10.7643    124.8275     93.7122   7.5881131422e+01   3.9324301402e+01    0.5882393    0.3481402  43.48  0.001650037    1.709    0.415
       157 -11.0671    121.0278     87.0926   7.4974531776e+01   4.1504399968e+01    0.7075179    0.4480629 -50.84  0.003035692    1.724    0.420
       158 -10.4189    104.6303     86.4950   7.9619547631e+01   4.4999504454e+01    0.5341768    0.3635867 -28.12  0.002420584    1.575    0.365
       159 -10.7857    113.6894     83.4884   7.5983531838e+01   4.3787059831e+01    0.4183795    0.3597219 -49.94  0.001366871    1.235    0.190
       160  -9.2009    160.4900     93.5075   6.6813412768e+01   3.1269034478e+01    0.2792805    0.1536225  62.45  0.001027508    2.345    0.574
       161 -10.2968    152.1202     91.7372   6.8262309391e+01   3.3571893969e+01     0.384781    0.3306214 -86.87  0.001527339    1.411    0.292
       162 -10.0604    183.8101     86.3344   5.9907582422e+01   2.7068738448e+01      0.63425    0.2221994 -41.95  0.002111464    2.760    0.638
       163 -10.4875    109.0406     80.9028   7.6558369838e+01   4.5267907167e+01    0.3791521    0.3434563 -22.74   0.00138456    1.062    0.059
       164 -10.2276    165.7148     83.6471   6.2852492351e+01   3.1872835681e+01    0.3984173     0.284386 -47.32  0.001384779    1.441    0.306
       165 -11.5112    143.0109     83.8707   6.8171083699e+01   3.7210396771e+01    0.4147435    0.3586874  30.68  0.000813399    1.178    0.151
       166  -9.9518    127.4611     82.6463   7.1836821251e+01   4.0987516436e+01    0.3711542    0.2603784 -37.83  0.001701806    1.416    0.294
       167 -10.0236    127.2856     77.0533   7.0146688597e+01   4.2102428356e+01    0.2791273    0.2709379 -65.56 0.0004510971    1.136    0.120
       168 -12.3158     52.5765     74.1502   9.3799223136e+01   5.6020312877e+01    0.6665098    0.3442898 -59.83 0.0009169537    2.158    0.537
       169 -11.3069     57.9747     77.7324   9.2816737159e+01   5.4560305615e+01    0.6428837    0.3484019 -67.03 0.0004001663    2.779    0.640
       170 -11.1122     47.0879     74.5551   9.6005608645e+01   5.6576175991e+01    0.3618136     0.235836 -56.81 0.0009245092    1.485    0.327
       171 -10.6751    103.7230     76.3959   7.6748441047e+01   4.7242027094e+01    0.7068368    0.3221301 -38.12  0.002697954    2.191    0.544
       172 -10.7991    100.6213     91.2573   8.2276296410e+01   4.4755367158e+01    0.5939323    0.3809719  52.24  0.002426034    1.852    0.460
       173 -11.9304     44.2639     84.9921   9.9823384893e+01   5.4543589124e+01    0.5217856    0.4325001   3.56  0.002090943    1.322    0.244
       174 -11.8876     14.1505     74.6010   1.0875549219e+02   5.9407749169e+01    0.5187327    0.3336381 -58.17  0.002433559    1.244    0.196
       175 -10.2986     14.9408     67.2540   1.0680991667e+02   6.0990704287e+01    0.3044028    0.2252022 -10.68  0.001393087    1.456    0.313
       176 -10.3702    232.3834     76.4117   4.9471514465e+01   1.7654824160e+01    0.6106532    0.2682768 -53.77  0.002342092    2.759    0.638
       177 -10.1874     94.1749     76.3393   7.9751212403e+01   4.9098507679e+01    0.5629597    0.3424584  32.09  0.001957206    1.739    0.425
       178 -11.6820     85.8965     73.6438   8.1624629697e+01   5.1146668039e+01    0.7522199    0.4920973  35.34  0.002879062    1.573    0.364
       179 -11.2525     79.7747     67.8771   8.1838091678e+01   5.3358539418e+01    0.6361141     0.488308  72.37  0.002631618    2.142    0.533
       180 -10.5168     84.1348     63.9970   7.9009644847e+01   5.3354585835e+01    0.5187684    0.2858232 -28.83  0.001121117    1.975    0.494
       181 -11.3270     91.2402     62.9038   7.6236079095e+01   5.2256517873e+01    0.6620601    0.4065806  53.00  0.002488316    2.019    0.505
       182  -9.4420    174.8694    246.6541   9.5738340892e+01  -7.7969915377e-01    0.2612282   0.09657286  31.61  0.001103608    2.528    0.604
       183 -11.5088     75.7371     56.9092   7.9481721043e+01   5.6134416927e+01    0.7823865    0.3018342 -47.35  0.002713043    2.880    0.653
       184 -11.7267     72.7251     47.6828   7.7170898914e+01   5.8278774129e+01    0.8241875    0.5446098 -47.18  0.004186599    1.744    0.427
       185 -10.8112     22.1994     65.7802   1.0350172377e+02   6.0815712964e+01    0.4318168     0.342626 -71.61   0.00110938    1.421    0.296
       186 -11.0619     12.8020     47.8459   1.0266323750e+02   6.5226017425e+01     1.061723    0.1535925 -40.77  0.003154289    5.598    0.821
       187  -9.6867     22.7719     37.1432   9.4481852058e+01   6.6562179460e+01    0.6382591    0.4234847  44.65   0.00363654    2.348    0.574
       188 -11.3262    127.6895    241.7510   1.0445486264e+02   7.2669595065e+00    0.3689273    0.3561345 -39.35  0.002625932    1.248    0.199
       189 -11.0717     33.8190     58.2313   9.6544231233e+01   6.1430641851e+01    0.4300928    0.2325905 -23.48  0.001038923    2.067    0.516
       190 -10.5815     25.9816     48.3477   9.6838505969e+01   6.4139514346e+01    0.3853212    0.1500042 -42.58 0.0004697132    2.052    0.513
       191 -12.0792     21.3260     47.0513   9.8529385850e+01   6.4779832237e+01    0.5047583    0.2929108 -54.66 0.0008229493    1.587    0.370
       192 -12.1493     48.7783     60.2429   9.1001506627e+01   5.9398536538e+01    0.8927485    0.6561943  43.93  0.004985109    1.750    0.429
       193 -11.3010     41.2020     57.2384   9.3132988250e+01   6.0877073314e+01     0.428663    0.3113125  55.97  0.001559236    2.202    0.546
       194 -10.8429    148.9970    237.6034   9.9606395589e+01   4.6507847702e+00    0.4423471    0.1937833  33.32  0.001985159    2.063    0.515
       195 -10.7023     20.2087     55.0755   1.0144745203e+02   6.3236052799e+01    0.2696483     0.254822  37.99  0.001904285    1.405    0.288
       196 -11.8079      1.8913     71.1360   1.1278045974e+02   6.0826284899e+01    0.5794489    0.1608638 -65.30  0.002425188    2.678    0.627
       197 -12.5333      6.1963     62.8741   1.0937023544e+02   6.2439891599e+01    0.8282379    0.4252703 -25.83  0.004484629    2.024    0.506
       198 -12.0443    186.3437     70.1180   5.4998537573e+01   2.9213086123e+01     1.085071    0.5857113 -39.78  0.003878397    1.792    0.442
       199 -11.6586     40.6882     70.5911   9.7373708583e+01   5.8131683797e+01    0.4856831    0.2828251 -52.27  0.001468125    1.497    0.332
       200 -11.5998     32.2551     72.0714   1.0109380838e+02   5.8618257340e+01    0.6514215    0.2699234  25.53  0.002176407    2.682    0.627
       201 -11.6122    122.8495     68.8697   6.8730144114e+01   4.4606644750e+01    0.5864312     0.481376  37.64  0.001515327    1.193    0.162
       202  -9.7199    161.9692     70.7207   5.9888886126e+01   3.5045649556e+01    0.2860219      0.22359 -46.73 0.0008889868    1.316    0.240
       203  -8.9118    154.0213     72.4737   6.2139395526e+01   3.6673031331e+01    0.2173536    0.1221282  32.00 0.0006181388    2.359    0.576
       204  -9.6154    172.4708     68.5003   5.7117262398e+01   3.2850769304e+01     0.327659     0.286418 -76.00  0.001554094    1.244    0.196
       205  -9.5162    172.0113     64.7905   5.6135513772e+01   3.3563376561e+01    0.4520779    0.3184855  85.45  0.002045252    1.820    0.451
       206 -11.4711    220.1283     66.3035   4.8709342928e+01   2.1892752833e+01    0.5556716    0.3825038  60.66  0.001940621    1.524    0.344
       207  -9.5741    192.4280     65.7306   5.2757708609e+01   2.8444837343e+01    0.2725662    0.2127829 -75.07 0.0007345527    1.443    0.307
       208 -10.8807     59.4760     63.5570   8.7870082863e+01   5.7344140549e+01    0.5296239    0.3656551  -6.95  0.002726844    1.640    0.390
       209  -9.9539     57.3169     61.3040   8.7960038136e+01   5.8091028843e+01    0.2833147    0.1982179  -4.24 0.0005919039    1.582    0.368
       210  -9.7772     53.0906     66.0287   9.1144028258e+01   5.7680898231e+01    0.2871992     0.185896  37.59   0.00107849    1.777    0.437
       211 -10.2255    200.5166     63.9254   5.0976483411e+01   2.6792211565e+01    0.5657204    0.2969013  78.66   0.00214928    2.808    0.644
       212  -9.8827    106.0201     64.1945   7.2006182837e+01   4.9085809189e+01    0.3563612    0.2747486 -42.59   0.00165679    1.357    0.263
       213 -10.8394    106.5758     58.5498   6.9891115116e+01   4.9962638906e+01    0.3758938    0.3281094  70.36 0.0007845676    1.434    0.302
       214  -9.2884    128.5596     63.6941   6.5514058084e+01   4.4216806063e+01    0.2771508    0.1484482 -30.10  0.001116933    1.999    0.500
       215 -11.3517    234.1958     61.1192   4.5647586891e+01   1.9560120254e+01    0.5222709    0.3850588  64.09  0.002235831    1.449    0.310
       216 -10.0049    158.9947     62.3075   5.7993235434e+01   3.7157092408e+01    0.5432459    0.2270641  44.97  0.001947055    2.507    0.601
       217  -9.4074     15.3518    233.5695   1.2536741551e+02   2.3338700101e+01    0.2008587    0.1101242 -79.58  0.001302368    1.651    0.394
       218 -11.0245    122.5900     59.5675   6.5713535832e+01   4.6278721105e+01    0.8173073    0.5208061  28.02   0.00358132    1.830    0.454
       219 -11.8536    117.4193     56.1362   6.5944891001e+01   4.8010028158e+01     1.258231    0.9261048 -85.07  0.005590547    2.261    0.558
       220 -10.4318    247.2229    231.4930   7.9772552478e+01  -9.1752866128e+00    0.2104451    0.1430731 -18.96  0.001029335    1.317    0.241
       221 -13.1024    117.1963     42.7443   6.1289745290e+01   5.0109989355e+01     1.034121    0.8560097  29.52  0.003751067    1.150    0.131
       222 -11.6610    114.0005     38.3409   6.0534808187e+01   5.1448814719e+01    0.5285288    0.3662529   7.49  0.001035391    1.732    0.423
       223  -9.4223    148.2897     60.7836   5.9825938549e+01   4.0015749873e+01     0.463822    0.1281081  57.44  0.001300959    3.999    0.750
       224 -10.4386    136.6980     56.3538   6.1078286689e+01   4.3511819154e+01    0.6683685    0.4246081   7.94  0.002670257    2.472    0.595
       225  -9.5537     23.7594    231.7647   1.2376374388e+02   2.2837247300e+01    0.1595574   0.09644683  64.43   0.00104901    1.322    0.244
       226 -10.8891    157.4345     55.2785   5.6172361480e+01   3.8634957678e+01    0.5467582    0.4261092 -60.98  0.002012551    1.467    0.318
       227 -10.4314    155.2476     49.7571   5.4908969287e+01   3.9991832264e+01    0.4278025    0.2850187  -2.53  0.001330411    2.107    0.525
       228  -9.7822     67.8967     32.7749   7.3009167224e+01   6.1473729095e+01    0.4512986    0.4474055  49.53  0.002957844    1.429    0.300
       229 -11.4020     60.8574     36.5477   7.7320717168e+01   6.2040294557e+01    0.5737503    0.3465835 -13.61 0.0006101649    1.857    0.462
       230 -11.7616     58.0050     30.0824   7.5750185101e+01   6.3482127612e+01     0.478481    0.3102747  11.40  0.001325567    1.600    0.375
       231 -11.7833     48.8685     30.1999   7.9645569018e+01   6.4809695810e+01    0.5997654    0.2741643  28.19  0.001979118    2.273    0.560
       232  -9.7516     68.0011    240.4792   1.1611600567e+02   1.6013462386e+01    0.1787189    0.0997207  39.21 0.0009652955    1.587    0.370
       233  -9.4637    187.8256     55.2028   5.0642895580e+01   3.1155734698e+01    0.2687283    0.1856658  58.53  0.001325589    1.424    0.298
       234  -8.7657    170.6308     77.7366   6.0132095330e+01   3.1738899816e+01    0.1565944    0.1156578  25.34 0.0004222799    1.654    0.395
       235 -10.9159    244.9638     51.0357   4.2132819996e+01   1.8696287027e+01    0.4211071     0.238869 -81.52  0.002002827    2.311    0.567
       236 -10.9104    240.3974     50.0572   4.2399099577e+01   1.9790774053e+01    0.3541501    0.2857483 -36.84  0.001219638    1.218    0.179
       237  -9.3338    211.8299     52.5674   4.6422677883e+01   2.5805563283e+01    0.2364865    0.1591088 -42.20  0.001215181    1.395    0.283
       238 -10.6965    201.4716     50.0079   4.7188681179e+01   2.8606298205e+01    0.6073698    0.3120943 -24.44  0.002432807    2.315    0.568
       239 -10.4590    200.9824     45.2357   4.6012411781e+01   2.9380999428e+01    0.5597161    0.2846484  80.56  0.002266273    2.543    0.607
       240 -10.6598    173.8150     48.2370   5.1008655493e+01   3.5604171153e+01    0.5308085    0.4066587  85.47  0.002714211    1.429    0.300
       241  -9.5670    176.3048     43.5665   4.9244873705e+01   3.5629801439e+01    0.3027182    0.1972322  72.56  0.001366361    1.586    0.369
       242  -9.2315    127.4096     49.2894   6.0975141269e+01   4.6793604433e+01    0.2678968    0.1444649 -26.36   0.00106241    2.035    0.509
       243  -9.9325     90.9947     47.8564   7.0880067640e+01   5.4914700353e+01     0.313083    0.2144722 -48.01  0.001540129    1.763    0.433
       244  -9.3987    108.1915    229.6974   1.0697236949e+02   1.2394722573e+01    0.1722252    0.1493567  70.55  0.000715191    1.154    0.133
       245 -10.9296    197.4868    232.0147   8.9070984341e+01  -2.0971123163e+00    0.5281601    0.1829714  33.93  0.002193029    2.587    0.613
       246  -9.4530    181.3217    228.3063   9.1668746331e+01   1.0024213056e+00    0.1323775   0.09055144   6.64  0.000640403    1.640    0.390
       247  -9.8749    234.2172    222.8328   8.0576625790e+01  -6.2634969414e+00    0.1769564    0.1201732   3.95 0.0007529699    1.321    0.243
       248 -11.9761     26.7428     27.8787   8.8945611867e+01   6.7835943429e+01    0.5027884     0.387583  12.44  0.002072968    1.315    0.239
       249  -9.7678     10.0747    217.5569   1.2546811629e+02   2.6979722899e+01    0.1743524    0.1301083 -76.78 0.0007370558    1.342    0.255
       250 -10.4479    164.9655    212.4279   9.2446761767e+01   6.3580365932e+00    0.2955339    0.2120845  46.90 0.0009613611    1.418    0.295
       251  -9.8579    153.3574    207.9424   9.4194236575e+01   9.1595585728e+00    0.2732889    0.1792979  50.26  0.001366478    1.601    0.375
       252  -9.4686     61.1502    206.8234   1.1440003150e+02   2.3639757254e+01    0.1942145    0.1450279  67.04 0.0006097704    1.194    0.163
       253 -10.1998    238.3507    204.5256   7.6491506613e+01  -4.2993773872e+00    0.2512937    0.1433773 -28.65  0.001350533    1.623    0.384
       254 -10.9737    155.6962     42.1405   5.2451984281e+01   4.0942848105e+01    0.5332555    0.4310395  26.75  0.002727928    1.372    0.271
       255 -12.1719      4.8320    184.2872   1.2452677086e+02   3.4442695909e+01    0.6308616    0.4266349  86.31  0.003175195    1.172    0.147
       256 -11.8258    153.0376     35.9300   5.1007416648e+01   4.2411349417e+01    0.3084275    0.2779799  32.50 0.0003474223    1.142    0.125
       257 -10.8487    144.5233     25.4855   4.9241437913e+01   4.5760261249e+01    0.7876457    0.3046725  59.23  0.003119608    2.252    0.556
       258  -8.8203    207.2929    201.3152   8.1747726336e+01   1.0874788349e+00    0.1381131   0.09415729   0.68  0.000502395    1.598    0.374
       259 -10.4558    245.6504    200.8917   7.4507043663e+01  -4.8526539369e+00    0.2183248    0.1492177  16.11 0.0006430995    1.352    0.260
       260  -9.1371    195.4359    199.9160   8.3863192188e+01   3.3181099252e+00      0.17381    0.1225529 -65.08  0.000806363    2.504    0.601
       261 -11.6435    159.8929     29.7572   4.7875014988e+01   4.1459621052e+01    0.4660242    0.4146102   7.65  0.001311872    1.274    0.215
       262 -11.7391    164.1514     27.8128   4.6588633670e+01   4.0626368559e+01    0.3055598    0.2642005 -30.90 0.0003895781    1.250    0.200
       263  -9.1729    193.5458     45.9973   4.7263275225e+01   3.1068108342e+01    0.2451829    0.1726907 -81.00 0.0007092471    1.618    0.382
       264 -10.6689    135.4763     45.6830   5.7827987833e+01   4.5405274077e+01    0.5293154    0.2156744  55.99  0.001558899    2.339    0.572
       265  -9.8341    139.5271     43.5238   5.6201218187e+01   4.4729712866e+01    0.2849639    0.2301922  47.69  0.001348578    1.161    0.139
       266  -8.8164    219.6515     45.2792   4.3633937732e+01   2.5010885605e+01    0.1411913   0.09255552 -68.69 0.0003257061    1.641    0.391
       267  -9.6443     94.7399     36.0935   6.5172943363e+01   5.5931570070e+01    0.2506565    0.1887758  61.84  0.001312476    1.646    0.393
       268 -11.0973     93.9596     41.2449   6.7414824557e+01   5.5348866052e+01    0.7482218     0.326801  49.39  0.003052678    2.310    0.567
       269  -9.6656    188.9959     42.0883   4.6869891604e+01   3.2702293193e+01    0.3410233    0.1692466 -31.58   0.00117653    2.060    0.515
       270  -9.8141     77.0000     41.9740   7.3400182978e+01   5.8477751254e+01     0.407874    0.1887244 -30.86  0.001237743    2.192    0.544
       271  -3.6928     86.1972     31.1893   6.5912431849e+01   5.8328711110e+01    0.4895907    0.3033504  45.63  0.002296384    1.555    0.357
       272 -10.3472     82.2522     40.3879   7.0931428102e+01   5.7764167554e+01    0.3650273     0.221017  47.76  0.001205333    1.768    0.435
       273 -11.1287     77.9154     34.7744   7.0181347639e+01   5.9407484524e+01    0.7123638    0.5091661   1.46  0.003858212    1.443    0.307
       274  -9.7158    231.5158     38.7329   4.0760491070e+01   2.3217123124e+01    0.2760238    0.1688645 -40.28  0.001479741    1.487    0.327
       275  -9.7298    193.8038     39.0145   4.5358187401e+01   3.1934718022e+01    0.2153947    0.1844978  73.22 0.0003502802    1.118    0.106
       276 -11.0596    176.6037     30.0004   4.5321207124e+01   3.7276495451e+01    0.4898547    0.2240077  52.67  0.001892859    2.081    0.519
       277 -11.2554    176.6119     36.2520   4.7101667995e+01   3.6508277144e+01    0.3971159    0.3711036  33.29  0.001268559    1.174    0.148
       278 -10.6953    234.3204    196.8891   7.5768427755e+01  -2.5615161231e+00    0.4077069    0.2784017  12.00  0.001646997    1.413    0.292
       279  -9.2504    227.1772     36.6972   4.0745122620e+01   2.4438909028e+01    0.2135146    0.1492436 -75.85   0.00112804    1.439    0.305
       280  -9.7560    206.9528     36.9732   4.3117608103e+01   2.9049480265e+01    0.2595952    0.1879932  61.08  0.001423861    1.379    0.275
       281  -9.5373    133.1266     36.9421   5.5400446246e+01   4.7159134635e+01    0.3789281    0.2399035  88.71  0.001560724    2.585    0.613
       282 -10.2407    134.5249     50.3322   5.9603767446e+01   4.4954875586e+01    0.3855222    0.3031484 -79.60  0.001893298    1.693    0.409
       283 -11.4205      6.6482    195.3006   1.2484674527e+02   3.1904479807e+01    0.7954416    0.1409489 -67.49  0.003084018    3.977    0.749
       284  -8.9162     83.5213    195.9728   1.0817594491e+02   2.2964107459e+01     0.188702    0.1266254 -66.11  0.000564533    1.507    0.336
       285 -11.9513    105.9735     32.6550   6.0572304969e+01   5.3995169405e+01    0.5862939    0.3221602  21.02  0.002395869    2.538    0.606
       286 -10.0247    169.8748    191.4930   8.7678678290e+01   9.3426222670e+00    0.3604903     0.214829  24.82  0.001259197    1.846    0.458
       287  -9.5669    240.4779     26.4554   3.7150360670e+01   2.2805499444e+01    0.2272929    0.1041623 -38.03 1.454323e-05    1.925    0.480
       288  -9.9318    240.0568    184.6196   7.2330414238e+01  -1.5871472959e+00     0.238367    0.1672307 -19.32 0.0005557945    1.263    0.208
       289  -9.0579    216.6328     32.2180   4.0818940142e+01   2.7390740461e+01    0.1687288    0.1241565 -22.24 0.0003908507    1.590    0.371
       290 -10.5344    240.1913     31.8562   3.8359059645e+01   2.2207834447e+01    0.4523493    0.2752942 -37.69  0.002425687    1.519    0.342
       291 -10.6696    189.4820     27.7498   4.2921969991e+01   3.4376773722e+01    0.4202777    0.2951651  12.45  0.002094731    2.099    0.523
       292  -9.3653    221.8140     29.7864   3.9686717367e+01   2.6506394062e+01    0.1795356    0.1728754 -64.17 0.0005657195    1.168    0.144
       293  -9.2335     99.5172     30.4687   6.1544117803e+01   5.5678135361e+01    0.2281001    0.1938259  47.49 0.0006416705    1.194    0.162
       294  -9.8542     97.8954     26.7795   6.0552291781e+01   5.6485112942e+01    0.2602225    0.2165139 -31.90 0.0009621828    1.337    0.252
       295 -10.0028    230.5144     27.3031   3.8249788836e+01   2.4862726276e+01    0.3376062    0.1745994 -37.71  0.001259718    1.774    0.436
       296  -9.7474    211.3977     27.7429   4.0305336479e+01   2.9146368483e+01    0.2658942     0.197746 -23.49  0.001071763    1.550    0.355
       297  -9.8260    211.7694    181.9781   7.7084116498e+01   3.5466793345e+00    0.2601375    0.1391841   9.22 0.0009008381    3.615    0.723
       298 -10.7194     61.8603     53.8294   8.3588582715e+01   5.8894429142e+01    0.8040604    0.2834022  39.99  0.003075201    3.119    0.679
       299  -9.7149    250.5883     25.6854   3.6129796412e+01   2.0783573725e+01    0.2151262    0.1117381 -29.82 0.0008810293    2.019    0.505
       300 -10.2994    250.4355    178.0174   6.9205777726e+01  -2.1949104125e+00    0.4038166    0.1117117 -34.58  0.001458636    3.287    0.696
       301 -10.2203     52.1759    173.9380   1.1285030114e+02   3.2153684570e+01    0.4366231    0.2063924 -89.88  0.001574391    2.916    0.657
       302  -9.5140     28.0033    175.9808   1.1879007840e+02   3.4270739397e+01    0.1981144    0.1576322  80.92 0.0008528768    1.070    0.066
       303 -10.0403    247.3250    174.1716   6.8957830853e+01  -1.1204164191e+00    0.4617037    0.2013224  25.13  0.001771782    3.424    0.708
       304  -9.1591     44.9341     24.3421   7.8807326039e+01   6.6246239909e+01    0.2005097    0.1580866 -34.88  0.001004795    1.411    0.291
       305  -9.4487    168.8304     23.8678   4.4700292139e+01   3.9909644573e+01    0.2125217    0.1750158  43.98 0.0006754753    1.261    0.207
       306 -10.2158     59.6430     23.9441   7.2390456900e+01   6.4102590407e+01    0.3147905    0.1987401  18.13  0.001266285    1.573    0.364
       307 -10.1463     60.0935     19.7816   7.0323341351e+01   6.4582690162e+01    0.2518517     0.226502 -40.51  0.001459815    1.546    0.353
       308  -9.9336    231.2915    175.4874   7.2059697756e+01   1.2825164149e+00    0.3962122     0.128703  41.25  0.001477758    3.200    0.688
       309  -9.1363    223.4844     22.0471   3.7715444139e+01   2.7047309699e+01      0.19902    0.1493757  81.49 0.0006698276    1.254    0.203
       310  -9.7863     39.2501    173.4108   1.1590124251e+02   3.3727740885e+01    0.2492615    0.1964071  64.02  0.001206318    1.197    0.164
       311  -9.5597     74.5216     19.5443   6.4877426133e+01   6.2057201560e+01    0.2093461    0.1627333   6.89 0.0005629942    1.159    0.137
       312 -10.0229    125.1993     21.0407   5.1576463933e+01   5.0932402211e+01    0.4289653    0.2001976  65.03  0.001795143    2.201    0.546
       313 -10.4979     35.5562    170.1355   1.1643885894e+02   3.4880072566e+01    0.3497877     0.197828 -82.01  0.001376229    1.636    0.389
       314  -8.6616    170.7174    172.0061   8.3653633242e+01   1.2981388159e+01    0.1835716     0.130231 -41.22 0.0007251581    1.439    0.305
       315 -10.0269      9.0358    156.0298   1.2146754784e+02   4.0529311186e+01    0.2937099    0.1553789 -66.71  0.001599452    1.563    0.360
       316 -11.6388      9.7538    167.2180   1.2222602614e+02   3.7885347889e+01     0.472753    0.3555228  85.38  0.002154129    1.087    0.080
       317 -11.2209     13.6346    159.7282   1.2068795526e+02   3.9312260337e+01    0.4824975    0.2378886 -66.29  0.001707634    1.684    0.406
       318  -9.0413    197.9768    168.0245   7.6954389692e+01   8.5343598287e+00    0.1782868     0.159588 -11.05 0.0008282083    1.035    0.034
       319  -9.7198    187.9859    167.9948   7.9039079042e+01   1.0442739162e+01    0.2967834    0.1870478 -14.54  0.001205833    2.120    0.528
       320  -9.5923    211.4339     18.9299   3.8159370784e+01   3.0154319800e+01    0.1855124    0.1563749  89.81 0.0003284834    1.071    0.066
       321  -8.6898    198.6195     17.6987   3.9203065744e+01   3.3305627548e+01    0.1351215   0.09138987  42.68 0.0007023544    1.772    0.436
       322  -8.8995    156.4666    166.4665   8.5766646927e+01   1.6875848977e+01     0.149386    0.1426032  13.97 0.0001385867    1.005    0.005
       323 -10.2261    186.3720     15.2122   3.9951163573e+01   3.6519972363e+01    0.2466624    0.2050566  85.27 0.0003393512    1.085    0.078
       324  -9.3083    114.9629     17.3091   5.2479396140e+01   5.3724577840e+01    0.2021085    0.1568517  46.84  0.001147286    1.129    0.114
       325  -9.4544    152.2439    166.5908   8.6785561274e+01   1.7669131628e+01    0.2002767     0.140256  28.71 0.0003251284    1.485    0.327
       326  -8.9261    174.2273     15.8624   4.1644411757e+01   3.9427197643e+01    0.1773153    0.1400331  49.77 0.0004165353    1.286    0.222
       327 -10.2743     19.0845    164.8570   1.1985176252e+02   3.7664428427e+01    0.2965261    0.2520678  -8.77  0.001596172    1.645    0.392
       328 -10.1038    205.1343    162.9992   7.4421615920e+01   8.1051229737e+00    0.3592869    0.2099736  38.11 0.0005870136    1.731    0.422
       329  -9.4663    208.4687    160.4968   7.3215154649e+01   7.9301803091e+00    0.2084672    0.1843184  -8.32  0.000967624    1.023    0.023
       330  -9.9226     27.5112    163.4975   1.1769683359e+02   3.7229184835e+01    0.2173847    0.1919148  57.89  0.001396399    1.206    0.171
       331  -9.1761     94.5315     12.4382   5.5656768774e+01   5.8779446355e+01    0.1315161    0.1132694  32.59 0.0001046242    1.035    0.034
       332  -9.7645     28.5301    160.5092   1.1713742087e+02   3.7841501943e+01     0.232883    0.1781604  80.22  0.001300699    1.189    0.159
       333  -9.7562     78.6258    159.6379   1.0412557845e+02   3.2106413119e+01    0.2737682     0.223328  76.36 0.0008914831    1.272    0.214
       334  -9.3906    215.4194    158.2474   7.1372794081e+01   7.0289624930e+00    0.2765276    0.1293469 -33.31  0.001124448    2.084    0.520
       335  -9.2534    223.8147    157.1181   6.9547716962e+01   5.6781517986e+00    0.2810784    0.1536927 -52.46  0.001151444    2.547    0.607
       336 -10.8079     22.1311    155.2573   1.1818140089e+02   3.9663325035e+01    0.5616984    0.2748201  46.83   0.00186751    2.111    0.526
       337 -10.9576     15.6105    147.7515   1.1906233808e+02   4.1981855824e+01    0.4757792    0.2898107  47.17   0.00269636    1.739    0.425
       338 -11.4929     13.0243    138.3304   1.1875600537e+02   4.4423125669e+01    0.9561616    0.4176993 -83.52   0.00439948    2.206    0.547
       339 -11.0798     21.2877    150.6918   1.1791876934e+02   4.0822714767e+01    0.2036076    0.1486827  70.20 0.0004071976    1.342    0.255
       340 -11.6610     24.0078    148.0013   1.1692601021e+02   4.1236540206e+01    0.3962944    0.2173196 -54.33  0.001022321    1.720    0.419
       341 -10.2876    104.3752    154.2874   9.6344310875e+01   2.9324596690e+01    0.3376336    0.2902429 -50.46   0.00179251    1.160    0.138
       342 -10.8316     31.8088    153.5477   1.1554024551e+02   3.9197020157e+01    0.4441417    0.3020942  78.64  0.002509766    1.464    0.317
       343 -11.6710      3.8907    147.6326   1.2199528915e+02   4.2854923838e+01    0.6643581     0.354711 -80.64  0.002762466    1.518    0.341
       344 -11.4777      3.0150    141.1030   1.2163554744e+02   4.4443902751e+01    0.6191084    0.3450529  71.17  0.002208513    1.859    0.462
       345  -9.9556     72.2809    151.6064   1.0450197577e+02   3.4958769109e+01    0.4602265    0.2969287  52.12  0.002240074    1.659    0.397
       346 -10.6531     63.0923    150.6690   1.0684662749e+02   3.6414690033e+01    0.4178139    0.3162946  -3.71  0.001699767    1.844    0.458
       347 -11.2410     45.5955    147.9691   1.1119085692e+02   3.9149645003e+01    0.7026512    0.4565868 -55.62  0.003760146    1.433    0.302
       348 -10.1305    234.5053    149.6859   6.6009226045e+01   5.0138532127e+00    0.3867407    0.1661715 -27.53  0.001472756    2.610    0.617
       349  -9.9197    239.7699    146.6030   6.4434194036e+01   4.5909099564e+00     0.250163    0.1723915 -32.03 0.0006644815    1.275    0.216
       350 -10.8804    249.6052    142.8917   6.2014562926e+01   3.4802280097e+00    0.6435644    0.2258143 -35.98  0.002528212    2.469    0.595
       351  -9.6617    133.1238    140.3695   8.5804524427e+01   2.7241838579e+01    0.3037874     0.233381 -52.30  0.001086767    1.325    0.245
       352 -11.9162     18.8382    122.2534   1.1520690241e+02   4.7871134454e+01    0.2467144     0.190313 -72.76 0.0003081081    1.072    0.067
