#   1 NUMBER                 Running object number                                     
#   2 MAG_AUTO               Kron-like elliptical aperture magnitude                    [mag]
#   3 X_IMAGE                Object position along x                                    [pixel]
#   4 Y_IMAGE                Object position along y                                    [pixel]
#   5 X_WORLD                Barycenter position along world x axis                     [deg]
#   6 Y_WORLD                Barycenter position along world y axis                     [deg]
#   7 A_WORLD                Profile RMS along major axis (world units)                 [deg]
#   8 B_WORLD                Profile RMS along minor axis (world units)                 [deg]
#   9 THETA_WORLD            Position angle (CCW/world-x)                               [deg]
#  10 FWHM_WORLD             FWHM assuming a gaussian core                              [deg]
#  11 ELONGATION             A_IMAGE/B_IMAGE                                           
#  12 ELLIPTICITY            1 - B_IMAGE/A_IMAGE                                       
         1 -11.4839      2.9583      7.2874   1.1333463235e+02   7.8229993136e+01    0.4731686    0.2367159 -37.64  0.001388717    1.785    0.440
         2 -10.3837     10.9122      5.8460   1.0449784015e+02   7.7733003752e+01    0.3595771    0.2032606 -23.00   0.00036843    1.905    0.475
         3 -10.6034     10.8321     10.2738   1.0747287163e+02   7.6960280811e+01    0.3512799    0.2340898 -14.13 0.0003897642    1.481    0.325
         4 -10.8648      5.4936     16.1851   1.1567745234e+02   7.6305898725e+01    0.5284162    0.2608514   3.29  0.001618039    2.219    0.549
         5 -10.7268     15.7286     14.1674   1.0552690274e+02   7.5720195561e+01    0.2587601    0.2057938  12.43 0.0003367078    1.162    0.140
         6 -12.1782     16.4177      7.5890   1.0070002903e+02   7.6779477614e+01    0.7684954    0.4507198 -42.66  0.004247147    1.728    0.421
         7  -9.9972     23.7833     11.4454   9.7309030778e+01   7.5142551785e+01    0.2068689    0.1622125 -13.17 0.0005414755    1.202    0.168
         8 -10.4311     28.7112     13.3458   9.4930520567e+01   7.4095597053e+01    0.2741626    0.1837649  38.88 0.0008395977    1.476    0.323
         9 -10.3982     32.5348     14.0587   9.2771399382e+01   7.3368714781e+01    0.2545685    0.1635008 -35.93 0.0008192694    1.607    0.378
        10  -9.8894     33.5050     10.5127   8.9814183611e+01   7.3735307856e+01    0.2354985    0.1597891   7.38 0.0008284107    1.674    0.403
        11 -10.6901     31.4087      5.4638   8.7681810347e+01   7.4803848111e+01    0.2383207     0.205593  13.37  0.000666676    1.027    0.026
        12 -10.0951     27.0343      2.0055   8.8124793396e+01   7.6018769755e+01    0.2970787    0.2118938  57.60  0.001501692    1.904    0.475
        13  -9.9523     37.9833     11.0012   8.7339502826e+01   7.2867227907e+01    0.2596118    0.1837968 -32.60 0.0008218292    1.497    0.332
        14 -11.3773     37.4500      6.1072   8.4342593583e+01   7.3617425014e+01    0.4524543    0.2880316  46.13   0.00165124    1.469    0.319
        15 -10.5533     53.5639      4.8955   7.5374922441e+01   7.0443422767e+01    0.3404554    0.2050841  30.52  0.001365447    1.715    0.417
        16 -10.2979     35.5350      2.0350   8.2564589665e+01   7.4478869135e+01    0.2780718    0.2212162  48.29  0.000369016    1.286    0.223
        17 -10.8840    105.0360    241.2921   1.2035139487e+02   1.2076124997e+01    0.3706049    0.2282786  15.86  0.001266065    1.689    0.408
        18 -12.8888    208.7349    244.7372   1.0011846339e+02  -1.4123147060e+00     1.071533    0.6072515  17.19  0.004937687    1.420    0.296
        19 -11.7456    204.7193    232.0107   9.8993829598e+01   5.9383134505e-01    0.4230924    0.2769931  -9.07 0.0006393479    1.380    0.275
        20 -13.0685    205.9583    205.2894   9.4605887499e+01   3.9646793461e+00     2.501183    0.8319704 -32.94   0.01079867    3.136    0.681
        21 -13.8041    221.0303    157.0561   8.3358801280e+01   8.7687385170e+00     6.571269     1.369462 -32.77   0.01828503    6.221    0.839
        22 -12.5016    216.4542    230.7075   9.6758004468e+01  -6.1740148009e-01     1.053073    0.4157282 -38.91  0.005593817    2.755    0.637
        23 -12.2526    225.2592    243.5576   9.7158433653e+01  -3.0762930194e+00     1.220964    0.2804709 -33.48  0.005252892    4.420    0.774
        24 -13.5221    221.5629    179.4789   8.7457715242e+01   5.4623867968e+00     2.818605     1.347129 -25.11   0.01418301    2.112    0.526
        25 -11.9879    233.4552    245.3484   9.6084308244e+01  -4.1222306883e+00    0.5426186    0.2430513 -22.63  0.003096281    2.129    0.530
        26 -12.0891    230.3555    234.0611   9.4945326628e+01  -2.5543082653e+00    0.5630291    0.2781518 -36.95   0.00348482    2.217    0.549
        27 -12.8319    226.4230    220.3156   9.3500815742e+01  -5.0518568125e-01     1.150863    0.6208619 -15.65  0.005928272    1.795    0.443
        28 -12.9211    227.2383    193.9641   8.9067069382e+01   2.7365666195e+00     1.320805    0.7581257 -20.54  0.007887668    1.595    0.373
        29 -13.4717    235.0304    145.8843   7.9055443030e+01   8.2827299944e+00     2.520252    0.8961484 -26.68  0.009746556    3.439    0.709
        30 -14.7399    245.5159     18.8766   5.1546598745e+01   2.2982555247e+01     5.997523     2.501037 -25.61   0.03007771    2.533    0.605
        31 -12.4837    248.7767    202.4798   8.7140301837e+01  -9.0404727129e-01    0.8266014    0.3081837 -20.71  0.003635801    3.524    0.716
        32 -13.0869    245.5104    145.9764   7.7601447585e+01   6.7541640035e+00     2.163443    0.9420953 -14.78  0.006767901    6.340    0.842
        33 -13.6933    248.1795    123.1447   7.2824105896e+01   9.4729837012e+00     2.599884    0.5504318 -34.21  0.009195175    3.948    0.747
        34 -12.4234    247.5322    224.4740   9.0805566912e+01  -3.2939765498e+00    0.5000299    0.2897268 -15.43  0.002737376    1.411    0.291
        35 -12.7007    247.9312    214.7671   8.9239097613e+01  -2.2436863310e+00    0.5381852    0.2572035 -24.33  0.002465903    1.801    0.445
        36  -8.7212    184.2384    249.9885   1.0523366091e+02   7.6962777784e-01     0.151704    0.1170725   4.58  0.000777891    1.108    0.097
        37 -11.3597    167.1938    250.0036   1.0846390277e+02   2.8171837528e+00    0.4371607    0.2234351  11.16 0.0006722216    2.226    0.551
        38 -10.5163    163.5485    244.9909   1.0853343728e+02   3.9457757885e+00    0.2456115    0.1882118 -17.78 0.0005174721    1.379    0.275
        39 -10.4499    152.0377    250.1023   1.1145736572e+02   4.6821940243e+00    0.4176295    0.1621199  40.11 0.0008026294    2.417    0.586
        40 -10.6287    151.8659    244.6520   1.1082168898e+02   5.4744301215e+00    0.3832249    0.1878589  26.40  0.001811245    1.643    0.391
        41  -9.2730    155.0103    241.0332   1.0972744876e+02   5.5905114155e+00    0.2054261    0.1423603  -7.11 0.0004633739    1.550    0.355
        42 -11.7793    140.4706    246.5836   1.1338299522e+02   6.6539137410e+00    0.3941725    0.2581128   0.95  0.000508069    1.732    0.423
        43  -8.9931    101.5218    250.7201   1.2203707489e+02   1.0975387061e+01    0.2102998   0.08246994  31.31 0.0005680425    1.914    0.478
        44  -9.5582     87.5252    249.9293   1.2498087748e+02   1.2836030774e+01    0.2129562    0.1402422  19.43 0.0005770324    1.463    0.316
        45  -9.3134     72.8728    250.6399   1.2820924661e+02   1.4475794902e+01    0.2512964   0.08856142  30.03 0.0008253455    2.179    0.541
        46  -9.9156     46.8341    250.4477   1.3380765591e+02   1.7449248549e+01    0.2255531    0.1196281  25.11 0.0006447949    1.700    0.412
        47 -10.7893    169.9341    240.5902   1.0670258929e+02   3.7461020364e+00    0.2659684    0.1804398   5.54 0.0004251914    1.353    0.261
        48  -8.6408      2.7803    242.6286   1.4280736172e+02   2.3139723912e+01    0.1597455   0.06908052  38.81 0.0003735637    1.601    0.375
        49 -10.2199    125.3798    240.0226   1.1579071682e+02   9.6238674555e+00        0.239    0.1912464  10.34 0.0004172839    1.206    0.171
        50 -10.4133     68.6066    240.1561   1.2835677112e+02   1.6820607896e+01    0.2523213    0.1940658  19.88 0.0005300645    1.322    0.244
        51  -9.9626     51.5334    240.4664   1.3219273558e+02   1.8731384768e+01    0.2141672      0.18528  15.66 0.0006544042    1.342    0.255
        52 -10.3787     25.7357    239.6817   1.3783383835e+02   2.1581389333e+01    0.3801062      0.23101  15.21  0.001511033    1.924    0.480
        53  -9.2716     17.6741    240.8835   1.3961971199e+02   2.2129489676e+01    0.1898707    0.1302007  28.51 0.0005787207    1.355    0.262
        54 -11.1800    183.8955    237.1026   1.0354294201e+02   2.4690538373e+00    0.2944636    0.1950496 -16.72 0.0004634658    1.510    0.338
        55  -9.9564    135.1397    238.9262   1.1357952784e+02   8.5073351321e+00    0.2162978    0.1711926  15.98  0.000432869    1.102    0.093
        56 -10.4066    118.3695    238.8683   1.1717530219e+02   1.0734741785e+01     0.333411    0.1939751  24.91  0.001227126    1.449    0.310
        57  -9.3230     35.4414    240.4706   1.3575013873e+02   2.0457615629e+01    0.1930159    0.1031316  16.69 0.0008102503    2.180    0.541
        58 -10.2453    148.8790    238.2000   1.1061651511e+02   6.8049611848e+00     0.245188     0.164645  16.01 0.0003807606    1.300    0.231
        59  -9.1424     62.1244    239.0844   1.2973137918e+02   1.7778568900e+01    0.1723276    0.1468808  16.48 0.0004892598    1.310    0.237
        60 -11.2445    159.4209    235.5862   1.0812038509e+02   5.8061133681e+00    0.3492385    0.2101627  14.85 0.0006849745    1.559    0.359
        61  -9.4799    165.7225    232.5718   1.0644254253e+02   5.4166873621e+00    0.2660922    0.1642209  -2.93 0.0004436029    1.874    0.466
        62  -9.3189    112.2968    237.6947   1.1837493805e+02   1.1729691396e+01    0.2253624    0.1527794  -4.71 0.0007513979    1.944    0.486
        63 -10.6239    190.6147    232.0872   1.0156829232e+02   2.2990584643e+00    0.4499677    0.2416847 -27.80  0.001747005    1.943    0.485
        64 -10.4056     91.3871    235.7684   1.2284430403e+02   1.4786625095e+01     0.329362    0.2102232  18.91 0.0005693253    1.558    0.358
        65  -9.2883     41.4923    236.8181   1.3421515983e+02   2.0506047539e+01    0.2156892     0.145412  10.06 0.0009130051    1.851    0.460
        66 -11.1940    177.5135    232.4588   1.0410704116e+02   3.9025446329e+00    0.3167625    0.2072771  -8.47 0.0005465009    1.577    0.366
        67 -10.1920    139.7394    234.7247   1.1208547938e+02   8.5495011975e+00     0.267413    0.1916718  16.16 0.0005321273    1.224    0.183
        68  -9.7298    129.6790    235.1622   1.1429153868e+02   9.8302454722e+00    0.2253853    0.1596532  -1.25 0.0006455273    1.611    0.379
        69 -10.0426     78.3276    235.6640   1.2579564072e+02   1.6453684812e+01    0.3179742    0.1711453  31.44  0.001227569    1.472    0.320
        70  -8.7587      3.4884    235.5103   1.4248158629e+02   2.4408129987e+01    0.1124344   0.08653882  50.19 0.0008097718    1.060    0.056
        71 -10.1791    171.0327    232.9396   1.0543982571e+02   4.6711556140e+00    0.2206652    0.1597396 -13.20 0.0003975327    1.384    0.277
        72  -9.6230    152.9946    232.8887   1.0907284643e+02   7.0561366291e+00     0.188255    0.1563681   2.88 0.0003684302    1.146    0.127
        73  -9.6095    108.4976    233.0199   1.1870714707e+02   1.3027089279e+01    0.2339559    0.1509694  18.28 0.0005900856    1.509    0.337
        74  -8.7072     65.3131    233.7099   1.2860637961e+02   1.8397392351e+01    0.1297081   0.07246926  51.07 0.0002651178    1.588    0.370
        75 -10.0714    145.5287    231.0198   1.1038334944e+02   8.3473089866e+00     0.257211    0.1660855  20.42 0.0005637581    1.330    0.248
        76 -10.3976    123.6216    230.7869   1.1508447583e+02   1.1366967663e+01    0.3278059    0.2054354   7.88 0.0008353434    1.900    0.474
        77 -10.8747     55.5863    230.7529   1.3062432543e+02   2.0096813152e+01    0.5427464    0.2407704  18.21  0.001256955    2.800    0.643
        78 -10.1334     36.1376    230.5307   1.3507562124e+02   2.2274561330e+01    0.3345922    0.2266171 -10.59  0.001508751    2.389    0.581
        79  -8.8446    185.9667    231.5021   1.0235435441e+02   2.9585465229e+00    0.1692927     0.094573  26.98 0.0003745813    1.474    0.322
        80 -10.0945    133.9209    230.3623   1.1278027711e+02   1.0031974673e+01    0.2124638    0.1727157 -19.10 0.0006239406    1.378    0.274
        81 -10.1897    100.7140    230.4090   1.2018403374e+02   1.4521002332e+01    0.3049654     0.195705  17.98  0.001028222    1.564    0.361
        82  -8.6397      9.7601    231.4132   1.4101109879e+02   2.4647637419e+01    0.1479324   0.09950498  18.61 0.0006463905    1.633    0.388
        83  -9.7572    158.4855    229.3514   1.0746259684e+02   6.8526216944e+00    0.2354578    0.1723741   1.65 0.0005659112    1.319    0.242
        84  -9.9591     45.4303    229.2618   1.3286964929e+02   2.1526694801e+01    0.3162938    0.1794498  20.08   0.00109866    1.842    0.457
        85  -9.6670     85.2783    231.3928   1.2381918416e+02   1.6357594516e+01    0.2370021    0.1819486  -0.60 0.0006914711    1.612    0.380
        86 -10.4683    113.7175    227.9400   1.1695669845e+02   1.3203836381e+01    0.3385398      0.20208  23.83 0.0007566451    1.494    0.331
        87  -9.4419     79.1428    228.3657   1.2495744076e+02   1.7699999886e+01    0.2123602    0.1785468   1.33 0.0003975835    1.413    0.292
        88  -8.6877     29.7787    228.9810   1.3644302323e+02   2.3228547349e+01    0.1585562     0.123696   8.20 0.0008676303    1.598    0.374
        89 -10.1898    174.4525    227.4460   1.0398601890e+02   5.0055549984e+00    0.2327989    0.1646497   4.61 0.0005169905    1.283    0.220
        90  -8.8912    169.4967    228.0688   1.0505628179e+02   5.5707871768e+00    0.1573118    0.1121974 -29.20  0.000456447    1.506    0.336
        91  -9.4368    152.8432    227.7827   1.0841341528e+02   7.8553507955e+00    0.2260318    0.1635589   0.04  0.000492866    1.403    0.287
        92  -9.3210    155.3354    223.3762   1.0727918179e+02   8.1969153876e+00    0.2053241    0.1690988  -4.96 0.0006253854    1.192    0.161
        93  -9.5418    107.1085    228.1363   1.1847817244e+02   1.4067427482e+01    0.1927592    0.1498111  14.38 0.0004721615    1.275    0.216
        94  -9.3944     92.8948    227.7279   1.2169979447e+02   1.6040550511e+01     0.186523    0.1676197  -4.24 0.0005201951    1.297    0.229
        95  -9.4034     19.7598    227.2943   1.3863819276e+02   2.4537653702e+01    0.1986948    0.1515275 -26.83 0.0009993741    1.978    0.494
        96 -10.6706    199.4437    224.8899   9.8878203327e+01   2.1510573843e+00    0.2633077    0.1854521  -6.84 0.0006403015    1.249    0.200
        97  -8.3893    195.6184    223.2853   9.9335095930e+01   2.8449120043e+00     0.106812   0.08658933  42.72 0.0007012399    1.733    0.423
        98 -10.4244    193.0437    207.9507   9.7409393971e+01   5.3182335572e+00    0.2727472     0.194816 -22.78 0.0005419258    1.339    0.253
        99 -10.7073    191.0860    223.5299   1.0021401065e+02   3.3895941163e+00    0.2960756    0.1818157 -19.00 0.0004676593    1.653    0.395
       100 -10.1386    184.5242    226.2057   1.0185389697e+02   3.8662044196e+00    0.3404182    0.1892659  13.75  0.001307393    1.795    0.443
       101 -10.5775    186.1707    219.3788   1.0051285111e+02   4.6071314684e+00    0.2782462    0.1926697 -18.31 0.0004677657    1.408    0.290
       102  -9.5795    185.9450    214.0098   9.9724828530e+01   5.4057752186e+00    0.2143032    0.1587754  -2.32 0.0004111286    1.212    0.175
       103  -9.9501    186.9387    209.3709   9.8798628919e+01   5.9461986797e+00    0.2563197    0.1709635 -23.04 0.0003738529    1.481    0.325
       104 -11.3056    193.4547    215.7951   9.8581885569e+01   4.1506794022e+00     0.292438    0.2129289  -7.93 0.0005912677    1.235    0.190
       105  -9.0757    189.6192    212.7590   9.8826184263e+01   5.0903326690e+00     0.183241     0.138383   5.61 0.0005293702    1.107    0.096
       106 -10.6842    163.4525    225.2069   1.0586509082e+02   6.8046652923e+00    0.2936471    0.2648918  16.37 0.0004207116    1.237    0.191
       107  -9.3454    165.8430    220.4162   1.0468294453e+02   7.2022670241e+00    0.2093306    0.1590297 -14.94 0.0003326026    1.327    0.246
       108  -9.5286    143.9272    226.2463   1.1008808418e+02   9.3208706396e+00    0.2088045    0.1687784 -13.11 0.0004080202    1.314    0.239
       109  -9.2192    139.0541    227.1294   1.1125271323e+02   9.8516914872e+00    0.1944882    0.1423506   9.95 0.0004266084    1.316    0.240
       110 -10.0917     68.5689    226.9384   1.2730512762e+02   1.9288103093e+01    0.3724098    0.1518893  28.62 0.0008825594    2.076    0.518
       111  -8.8183      4.6966    227.3505   1.4199929697e+02   2.5878452216e+01     0.184022   0.09198935  32.61 0.0006634249    1.604    0.377
       112  -8.9166      1.3818    227.2378   1.4272305180e+02   2.6179046428e+01    0.1556453    0.1286527  54.29 0.0004961211    1.122    0.108
       113  -9.4577      8.9174    225.4688   1.4100664952e+02   2.5885201546e+01    0.3371356    0.1155621  26.29  0.001598643    2.488    0.598
       114 -10.7267    206.3818    223.2992   9.7390345135e+01   1.5021742814e+00    0.2854391    0.1834255 -14.59 0.0006615922    1.439    0.305
       115  -9.6313    120.9898    224.7410   1.1493180228e+02   1.2758224011e+01    0.2353155    0.1534414  17.37 0.0008616538    1.500    0.333
       116  -9.4266    170.6938    223.8263   1.0420464853e+02   6.0313326387e+00    0.2078798    0.1504717   3.80 0.0005759106    1.269    0.212
       117  -9.9575    174.9345    221.2020   1.0297382783e+02   5.8455042464e+00    0.2211258    0.1650277   2.67 0.0003714537    1.197    0.165
       118  -9.6237    129.5435    223.8563   1.1290749584e+02   1.1716942933e+01    0.2741547    0.1596428  22.59 0.0007718166    1.567    0.362
       119  -9.6108    109.9326    224.0375   1.1736134575e+02   1.4412437411e+01    0.2012216    0.1594269  24.36 0.0006495896    1.098    0.089
       120  -9.1338    104.6075    223.8602   1.1856834253e+02   1.5174841773e+01    0.2208966     0.152497  22.16 0.0006484519    1.326    0.246
       121  -8.4148     89.6647    224.7085   1.2214254510e+02   1.7026125154e+01    0.1236523   0.09319849  -0.05 0.0007023351    1.638    0.389
       122 -10.6274     49.9009    222.3429   1.3136181510e+02   2.2393357433e+01    0.3139376    0.2433387  27.33 0.0007090688    1.243    0.195
       123 -11.1706     41.0258    220.8303   1.3336987919e+02   2.3679850458e+01    0.5849403    0.2695219  19.40  0.002444806    2.433    0.589
       124  -9.0959    135.6397    222.9552   1.1144334068e+02   1.1014026340e+01    0.2230564    0.1484201  20.38 0.0006290022    1.340    0.254
       125  -9.6407     97.9181    222.0488   1.1992358501e+02   1.6418996838e+01    0.2004109    0.1785733   1.91 0.0004689491    1.253    0.202
       126  -8.8858     82.8269    222.8606   1.2356869487e+02   1.8271368553e+01    0.1898122    0.1570406  16.17 0.0007281637    1.262    0.208
       127 -10.1662    180.7816    221.1298   1.0181678893e+02   5.0725412865e+00    0.2230299    0.1655294  -7.87 0.0004065867    1.256    0.204
       128  -9.1178    114.9688    221.7920   1.1593660356e+02   1.4115884463e+01    0.1980481    0.1534532  10.34 0.0006419121    1.318    0.241
       129  -9.0178     74.3424    222.1542   1.2551868074e+02   1.9495671054e+01    0.2098733    0.1501075  25.49 0.0004803294    1.288    0.224
       130  -9.0687     28.8447    221.8872   1.3630085137e+02   2.4733821449e+01    0.1694579    0.1524162  31.67 0.0006488676    1.243    0.196
       131  -9.3052     15.8590    221.3895   1.3928745877e+02   2.6079711682e+01    0.2116142    0.1640986 -36.88  0.000958933    1.860    0.462
       132 -10.0056    148.5911    220.4753   1.0829506419e+02   9.5989568262e+00    0.2450571    0.1827609   2.96 0.0006452879    1.338    0.252
       133  -9.3037    140.8364    220.2297   1.0993632456e+02   1.0735030935e+01    0.2083517    0.1689518  -4.54 0.0006388632    1.267    0.210
       134  -8.4975     92.4678    221.4726   1.2114420306e+02   1.7262243323e+01    0.1304945    0.1074364  32.20 0.0008088275    1.041    0.039
       135  -8.6729     68.4773    220.9969   1.2681723550e+02   2.0456746947e+01    0.1552393    0.0994675 -36.16 0.0004573681    2.256    0.557
       136  -9.4181     59.6819    220.6885   1.2890131721e+02   2.1587219841e+01    0.2041708    0.1757691  20.76  0.000591906    1.250    0.200
       137  -8.8716    128.9931    218.9957   1.1239332841e+02   1.2628565508e+01    0.1964467    0.1402759   1.04  0.000463892    1.597    0.374
       138  -9.2306    109.1723    219.1410   1.1695444380e+02   1.5406117813e+01    0.1939627    0.1541691  11.05 0.0004325572    1.291    0.225
       139  -9.7127    159.0292    217.6655   1.0568321810e+02   8.5772274813e+00    0.2378621    0.1719302   8.99 0.0005898749    1.293    0.226
       140  -8.4659    154.4839    218.5225   1.0676307025e+02   9.0818899921e+00    0.1292147    0.1030475  14.69 0.0002838594    1.054    0.051
       141  -8.6243    136.0105    218.2206   1.1072158388e+02   1.1759993708e+01    0.1751061   0.08934959  31.51 0.0003764236    1.624    0.384
       142  -8.7271    104.4478    218.4824   1.1798217283e+02   1.6186766058e+01    0.1313188    0.1093165  27.01 0.0002388533    1.061    0.057
       143  -9.2433    119.8882    216.8544   1.1418454448e+02   1.4306633058e+01    0.1961578    0.1571904  10.73 0.0005005703    1.241    0.194
       144  -8.3018     77.3419    217.2861   1.2433643925e+02   2.0068371257e+01    0.1241094   0.09611995  -2.77 0.0003336987    1.641    0.391
       145  -9.8928      8.7215    216.2050   1.4074090547e+02   2.7771585659e+01     0.377776    0.2001469  10.21  0.001944469    2.509    0.601
       146  -9.8076    179.8152    215.4355   1.0113646347e+02   6.0305863518e+00    0.2185757    0.1602013  -8.11 0.0002988308    1.296    0.228
       147 -10.3955    171.1715    213.9439   1.0262713301e+02   7.4499473619e+00    0.2956187    0.1952568 -23.87 0.0005486684    1.595    0.373
       148  -9.3139     83.1565    215.5670   1.2275256187e+02   1.9646779235e+01    0.2378105    0.1763216   5.44  0.000758489    1.624    0.384
       149  -8.4563     72.4580    216.5484   1.2545177375e+02   2.0841772192e+01    0.1304705    0.1076939  39.20 0.0001103678    1.024    0.024
       150 -11.0255     32.8074    214.5906   1.3496068371e+02   2.5828271871e+01    0.5246789    0.2028542  30.38  0.001986544    2.089    0.521
       151  -9.3268    165.7654    214.0522   1.0374600972e+02   8.1937969833e+00    0.2147468    0.1499066 -14.04 0.0007161578    1.519    0.342
       152  -9.5140    143.6308    214.3847   1.0850161905e+02   1.1313626742e+01     0.299639    0.1926476  15.00 0.0009828875    1.566    0.361
       153  -8.8842    124.2303    215.5820   1.1302031296e+02   1.3912099589e+01    0.1855408    0.1094711  22.49 0.0004135255    1.599    0.375
       154  -9.5009    132.1663    213.4745   1.1092677139e+02   1.3136368554e+01    0.2403202    0.1796645   3.46 0.0005963362    1.430    0.301
       155  -8.4917    111.3094    213.3276   1.1573351884e+02   1.6181664551e+01    0.1306055   0.09652489  -4.37 0.0003887143    1.660    0.398
       156  -9.7409     64.0106    212.9018   1.2719006896e+02   2.2640971715e+01    0.3550467    0.1670119  22.76  0.001113545    2.183    0.542
       157 -10.4144     52.2736    212.8737   1.3008659306e+02   2.4053262973e+01    0.3559427    0.1764532  18.78  0.001461983    2.295    0.564
       158 -10.1334     41.2832    212.8763   1.3279037618e+02   2.5289123319e+01    0.2365987    0.1692573  23.47 0.0006466616    1.400    0.286
       159  -8.7408    117.7212    212.4235   1.1410902443e+02   1.5426265347e+01    0.1878943    0.1120823  22.34 0.0007103233    1.610    0.379
       160  -9.1206     97.3346    212.1619   1.1893440360e+02   1.8383240060e+01    0.2331519    0.1590781  21.71 0.0007005358    1.408    0.290
       161  -8.7871    125.1875    210.8786   1.1216376263e+02   1.4620858468e+01    0.1792471    0.1414971   3.72 0.0004207143    1.335    0.251
       162  -9.7996     25.7758    210.5061   1.3643931649e+02   2.7391988180e+01    0.2825124     0.184227  22.97  0.001086605    1.542    0.352
       163  -9.6111     18.3362    210.8922   1.3825915461e+02   2.8018593563e+01    0.2849481    0.1664212   1.24  0.001307024    2.629    0.620
       164 -10.1032    176.9301    208.6117   1.0063664281e+02   7.4555573110e+00     0.263847    0.1911941 -14.28 0.0004475785    1.364    0.267
       165 -10.0385    161.3489    208.7163   1.0384436366e+02   9.6761880817e+00    0.2382721    0.1890186  -6.35 0.0005861972    1.229    0.186
       166  -8.8319    149.4636    210.1328   1.0660285135e+02   1.1179932058e+01    0.1690867    0.1259751 -38.11  0.000493684    1.501    0.334
       167  -8.7587    106.8493    210.1765   1.1639670759e+02   1.7418854036e+01    0.1789467    0.1431752   8.54 0.0004207252    1.330    0.248
       168  -9.1912     79.0190    208.7047   1.2305270551e+02   2.1578102496e+01    0.2539935     0.145851  27.46  0.001117882    1.572    0.364
       169  -8.6434    167.6257    208.1449   1.0244879113e+02   8.8579248057e+00    0.1700208    0.1088167 -26.60  0.000776686    1.676    0.403
       170  -8.6507    146.1634    207.7671   1.0697042952e+02   1.2069291923e+01    0.1786711    0.1356034   4.89 0.0004821554    1.322    0.244
       171  -9.5851    154.7414    212.4209   1.0580895506e+02   1.0031481051e+01    0.2330814     0.179447  -8.23 0.0005934036    1.329    0.248
       172  -8.4399    131.3538    208.2945   1.1038072358e+02   1.4178336237e+01    0.1358926   0.09470829   2.13 0.0003940158    1.687    0.407
       173  -9.0877    114.7989    206.7810   1.1404809568e+02   1.6911898776e+01     0.203705    0.1639708  10.26 0.0006997457    1.274    0.215
       174  -8.6389     73.0121    207.5086   1.2443372363e+02   2.2615723423e+01    0.1991983    0.1153224  29.19 0.0005256512    1.521    0.342
       175 -10.0379     47.3769    206.2808   1.3079874287e+02   2.6008925776e+01    0.4056388    0.1935052  23.24  0.001883198    2.093    0.522
       176  -9.5484    183.4282    205.7480   9.8893980057e+01   6.9732893587e+00    0.2272105    0.1515846  -6.09 0.0006555261    1.563    0.360
       177  -8.9643    171.5227    206.1266   1.0133009258e+02   8.6141666619e+00    0.1696967    0.1188948 -32.74 0.0005028326    1.496    0.331
       178  -8.9562    173.1790    202.1926   1.0035689208e+02   8.9955288523e+00    0.2059923    0.1552074 -16.97 0.0005619183    1.312    0.238
       179 -10.3968    124.1697    205.9405   1.1171243489e+02   1.5679764727e+01    0.2937424    0.1660456  28.99            0    1.549    0.354
       180  -9.2869    120.4844    206.4304   1.1264888531e+02   1.6137076154e+01    0.2298838    0.1716881  24.21 0.0005221604    1.187    0.158
       181  -8.3204     66.4917    206.5075   1.2597999020e+02   2.3662223722e+01    0.1321868     0.113285  39.75 2.727341e-05    1.052    0.049
       182  -9.0759     32.4347    206.6594   1.3457820024e+02   2.7544865811e+01    0.2172467    0.1039988  27.18 0.0008317478    1.880    0.468
       183  -9.1498    156.6687    205.0390   1.0426479918e+02   1.0970140401e+01    0.1759734     0.152075  -2.71 0.0004904475    1.118    0.105
       184  -9.3273    149.6933    204.9893   1.0577047747e+02   1.2019792989e+01    0.2212042    0.1581013  19.60 0.0004562367    1.258    0.205
       185  -8.8120    104.3318    205.3145   1.1638632346e+02   1.8728652879e+01     0.195694    0.1457569  -5.75 0.0005651882    1.692    0.409
       186  -9.4618     86.6902    204.8710   1.2070905254e+02   2.1324119834e+01     0.278154    0.1746562  16.86 0.0006497105    1.770    0.435
       187 -11.0795    198.1409    201.5616   9.5408418041e+01   5.5433114825e+00    0.3239283    0.2053824 -21.23  0.000536749    1.531    0.347
       188  -9.2658    193.5515    186.6201   9.3692648735e+01   8.4286726529e+00    0.2398395    0.1732684   4.17 0.0005837089    1.333    0.250
       189  -9.6153    193.0345    201.0012   9.6267875320e+01   6.3328176440e+00    0.2215669    0.1790289 -14.64 0.0004556633    1.153    0.133
       190  -9.5841    190.2670    191.1461   9.5112915620e+01   8.2159526746e+00    0.3851037    0.1679254 -38.90  0.001796552    2.312    0.567
       191 -10.0724    194.0154    192.9388   9.4712628314e+01   7.3970735439e+00     0.285741    0.1978848 -19.20 0.0008351341    1.380    0.275
       192  -9.8685    139.9491    203.0015   1.0763882264e+02   1.3837895508e+01    0.2803033    0.1848897 -41.67  0.001123324    1.695    0.410
       193  -9.8622      6.4633    204.0214   1.4084692674e+02   3.0523619293e+01    0.2539709    0.1660293   1.81 0.0009621055    2.096    0.523
       194  -9.6986     10.5044    203.4643   1.3984156230e+02   3.0302919980e+01    0.1812892    0.1727837  10.62 0.0006819044    1.332    0.249
       195  -9.9398    186.8020    201.3679   9.7518899500e+01   7.1568414927e+00    0.2411739    0.1797783 -19.26 0.0004185885    1.277    0.217
       196  -9.3763    179.1400    202.3396   9.9181975274e+01   8.1058410502e+00    0.2042791    0.1525471 -13.35 0.0003926552    1.294    0.227
       197  -8.5375    110.4754    202.4680   1.1450838524e+02   1.8385952603e+01    0.1370769    0.1171965  21.44 0.0008075386    1.095    0.087
       198 -10.0634     56.9109    201.9719   1.2800663589e+02   2.5818960994e+01    0.3666983    0.1731691  28.29  0.001173968    1.895    0.472
       199  -9.0251     21.0489    202.3368   1.3717912798e+02   2.9600932888e+01    0.1767652    0.1378195  41.49 0.0005673529    1.120    0.107
       200  -9.0983    170.1554    196.0677   9.9962818214e+01   1.0434206999e+01    0.2035903    0.1525587   2.29   0.00055665    1.301    0.232
       201 -10.3516    165.3529    199.9668   1.0160943496e+02   1.0515601600e+01    0.3333427    0.2194407   3.58 0.0007141979    1.716    0.417
       202  -8.6085    162.3008    197.3489   1.0182412354e+02   1.1413229420e+01    0.1364804    0.1172356  17.22 0.0003789879    1.051    0.048
       203  -8.9596    144.7830    200.6585   1.0618740106e+02   1.3518779293e+01    0.2080777    0.1465974  17.64 0.0007448455    1.351    0.260
       204  -9.4860    131.4828    200.3387   1.0918336051e+02   1.5615229174e+01    0.2363912     0.182527  25.15 0.0007096801    1.128    0.114
       205  -9.6157     98.4589    200.3704   1.1720406819e+02   2.0574787753e+01     0.236994     0.185948  27.07 0.0005787649    1.153    0.133
       206  -9.7535     69.8115    200.2864   1.2451106076e+02   2.4560615124e+01    0.2926034    0.1870216  27.97 0.0007097944    1.432    0.302
       207  -8.6520     33.8638    201.3754   1.3388188458e+02   2.8545014731e+01    0.1721232    0.1144569  15.05  0.000605965    1.712    0.416
       208  -8.5744    155.4139    200.4522   1.0380854556e+02   1.1934103089e+01    0.1325359    0.1107309  11.50 0.0001031472    1.052    0.050
       209  -8.8098     80.8439    199.1196   1.2153390913e+02   2.3332593647e+01     0.179265    0.1521831   8.66 0.0005176853    1.314    0.239
       210  -9.8739     50.0890    198.3082   1.2945718711e+02   2.7432246671e+01    0.3741367    0.1870091  21.58  0.001488832    2.100    0.524
       211  -9.3101     42.2197    199.2095   1.3157823593e+02   2.8126821997e+01    0.2269399    0.1597602  20.39  0.001001056    1.490    0.329
       212 -10.7424    202.2632    195.6627   9.3655882383e+01   5.8271739313e+00     0.292804    0.1979064 -24.09 0.0005175216    1.378    0.274
       213  -8.3082    104.3324    198.2775   1.1545694906e+02   2.0135854438e+01    0.1346763     0.101767  -0.16 0.0002560536    1.603    0.376
       214  -9.5260    176.3847    195.7106   9.8628809002e+01   9.5561517211e+00    0.2390245    0.1887489 -20.78 0.0009409206    1.239    0.193
       215  -9.0086    149.4518    196.6818   1.0451184051e+02   1.3504710366e+01    0.2205602    0.1457498  12.67 0.0006968586    1.630    0.386
       216 -10.0318    184.2039    194.4724   9.6861671724e+01   8.5920090021e+00    0.2813593    0.2170243  15.70  0.001349043    1.128    0.113
       217  -8.8717    125.0114    196.4833   1.1013333293e+02   1.7342207157e+01    0.2111359    0.1203727  31.16 0.0005562187    1.540    0.351
       218  -9.0912     89.6354    195.7220   1.1885679342e+02   2.2817950771e+01    0.2481711    0.1579767  20.06 0.0008096087    1.653    0.395
       219  -9.1944     61.2870    196.0437   1.2630903362e+02   2.6576739890e+01    0.2275317    0.1711773  22.31 0.0005610749    1.348    0.258
       220  -8.6687    140.9439    195.5130   1.0624624908e+02   1.5040576239e+01    0.2032041    0.1191244  30.76 0.0005395359    1.508    0.337
       221  -8.9938     17.2324    194.9947   1.3777188385e+02   3.1573384513e+01    0.2098531    0.1540103   7.80 0.0005869649    1.673    0.402
       222  -9.1974      2.4953    195.4937   1.4152376930e+02   3.2699378611e+01    0.2397846    0.1043838  25.40  0.001193193    2.113    0.527
       223  -9.2668    132.9601    193.3702   1.0776319346e+02   1.6694418281e+01    0.2003125    0.1949448  84.81  0.000497688    1.254    0.203
       224  -8.9492    112.9329    193.8380   1.1268920216e+02   1.9730999844e+01    0.2114828    0.1710375  10.56 0.0004988122    1.291    0.226
       225  -9.2418     54.9386    194.4985   1.2784130672e+02   2.7702581129e+01    0.2044227    0.1191832  29.14  0.001018842    1.555    0.357
       226  -9.0428     36.6868    192.9478   1.3256101110e+02   3.0127300360e+01     0.215272    0.1660675  20.82  0.000731785    1.375    0.273
       227  -8.7823     26.9957    192.0148   1.3506119501e+02   3.1328070179e+01    0.1864932    0.1507026 -27.55 0.0006414537    1.659    0.397
       228  -9.6561    205.1084    189.5380   9.2081347026e+01   6.3194637566e+00    0.2682171    0.1539025 -33.81  0.001076454    1.667    0.400
       229 -10.2138    198.9570    189.7139   9.3230474891e+01   7.1697016285e+00    0.2743006    0.1759607 -29.39 0.0007441124    1.484    0.326
       230  -9.6187    161.9900    190.3378   1.0071288720e+02   1.2656890191e+01    0.2338248    0.1779711 -22.94 0.0003352345    1.350    0.259
       231  -8.9146    146.2164    191.1933   1.0434148166e+02   1.4999438604e+01    0.1760457    0.1510663  44.67 0.0004251531    1.271    0.213
       232  -9.3896    185.7870    189.0379   9.5609993028e+01   9.2099235614e+00    0.2195591    0.1532239 -14.04 0.0004687047    1.445    0.308
       233  -9.5173    172.8048    189.2393   9.8248621025e+01   1.1156745449e+01    0.2329541    0.1738172 -23.10 0.0006083692    1.338    0.253
       234  -8.1987     97.3323    190.3015   1.1615069115e+02   2.2838253200e+01    0.1383306    0.1057911  -6.24 0.0003142937    1.653    0.395
       235  -9.6866     65.2865    189.8638   1.2460546291e+02   2.7444082474e+01    0.4075199    0.1849448  21.48  0.001347031    2.486    0.598
       236  -8.5086    152.2815    192.3379   1.0317022011e+02   1.3833495696e+01    0.1361526   0.09664806  -4.87 0.0003277524    1.622    0.384
       237  -8.7547     14.6541    190.6905   1.3822380602e+02   3.2770372275e+01    0.1186863   0.09312781 -36.00 0.0007044761    1.703    0.413
       238  -9.3735    179.0612    188.0910   9.6775240856e+01   1.0381913358e+01    0.2155721    0.1699344 -20.69 0.0005215328    1.224    0.183
       239  -8.6735    140.2079    189.5862   1.0545587524e+02   1.6255874271e+01    0.1911742     0.119144  23.42 0.0004349443    1.574    0.365
       240  -9.6867    134.2868    186.2215   1.0629346267e+02   1.7852264840e+01    0.4391208    0.2135368 -51.38  0.001920286    2.341    0.573
       241  -8.3001     90.3135    188.3072   1.1771796135e+02   2.4310305676e+01    0.1365058    0.1067241 -10.21 0.0002623016    1.624    0.384
       242  -9.2165    156.9607    186.7533   1.0118850636e+02   1.4083456586e+01    0.2128788    0.1627946   5.19 0.0006724441    1.328    0.247
       243  -9.2947      2.7189    187.7346   1.4119262414e+02   3.4415420754e+01    0.2704108   0.09178107  24.01  0.001180541    2.685    0.628
       244  -9.0750    128.8060    185.6576   1.0751914354e+02   1.8852153636e+01    0.2194535    0.1601903  14.35  0.000771699    1.443    0.307
       245  -8.4476     57.6607    186.6700   1.2634435345e+02   2.9140813881e+01    0.1346115    0.1036021 -23.27 0.0007051783    1.739    0.425
       246  -8.8973     21.1776    186.0666   1.3624627207e+02   3.3243475288e+01    0.2138324    0.1591471   5.89 0.0007232939    1.657    0.397
       247  -8.5994    151.0081    185.5117   1.0229769849e+02   1.5267808201e+01    0.2001496    0.1224398  31.28 0.0004693534    1.483    0.326
       248  -9.5329    191.3891    196.7388   9.5861191280e+01   7.2011696634e+00    0.2613009    0.1681968 -24.92 0.0007873602    1.522    0.343
       249  -8.8421    173.5192    183.9023   9.7160335257e+01   1.1937413872e+01    0.1827423    0.1247085 -35.23 0.0005324247    1.493    0.330
       250  -9.1585    166.8768    183.9043   9.8548514965e+01   1.2993470368e+01    0.2103589    0.1595916  -1.01  0.000580674    1.350    0.259
       251  -9.2250     35.9139    184.1420   1.3210090639e+02   3.2233773566e+01    0.3768927     0.159121  11.93  0.001354039    3.704    0.730
       252  -9.9529    205.1864    167.6771   8.8072215420e+01   9.5905022435e+00    0.3489914    0.1909312 -36.44 0.0007920507    1.722    0.419
       253 -10.3008    203.5077    181.5135   9.0940148822e+01   7.7374897945e+00    0.3185929    0.1972395 -25.80 0.0008504026    1.532    0.347
       254 -10.0351    205.2329    175.5961   8.9549009154e+01   8.3743144595e+00    0.2885062    0.1929981 -25.80 0.0005406743    1.379    0.275
       255  -8.9090    140.5426    183.2321   1.0431078432e+02   1.7404638993e+01    0.1832588    0.1272077 -30.06 0.0004236438    1.616    0.381
       256  -9.6527    183.8451    181.1904   9.4589602291e+01   1.0764836480e+01     0.238909    0.1705216 -22.65 0.0006350523    1.372    0.271
       257  -8.6944    155.1496    181.8224   1.0072548938e+02   1.5264553602e+01    0.1891983    0.1480486  -1.76 0.0004282623    1.332    0.249
       258  -8.7064     68.1205    182.6171   1.2301541388e+02   2.8718960650e+01    0.2030877    0.1273242  16.80 0.0009473524    1.826    0.452
       259  -9.1391    197.6376    181.0373   9.1925868920e+01   8.6797165648e+00    0.1802716    0.1378244 -19.19 0.0006209256    1.194    0.163
       260  -9.3625    176.9060    179.2555   9.5626647774e+01   1.2180856983e+01    0.2405321    0.1749537 -20.40 0.0006061053    1.382    0.276
       261  -9.0844     56.1999    179.9411   1.2604936347e+02   3.0884685889e+01    0.2424393    0.1767123   9.56  0.001255607    1.640    0.390
       262  -8.8215     14.8402    180.1497   1.3762777476e+02   3.5183865814e+01    0.1615627    0.1502133 -13.02  0.000847394    1.353    0.261
       263  -8.2638    160.4333    179.5197   9.9148682226e+01   1.4811715146e+01    0.1383582    0.1187408   6.58 0.0001140612    1.071    0.066
       264  -8.7599    145.6913    178.9633   1.0236631516e+02   1.7363999474e+01    0.1894317    0.1705619 -12.78 0.0005656868    1.124    0.111
       265  -8.2373     35.3157    179.3044   1.3188185811e+02   3.3434825870e+01    0.1268832    0.1008294 -32.38 0.0003492475    1.622    0.384
       266  -8.7916     20.7595    179.3936   1.3595472653e+02   3.4839604408e+01    0.1724354    0.1214735  10.03 0.0007317101    1.688    0.407
       267  -9.9030    190.7815    177.1058   9.2494573786e+01   1.0343222786e+01    0.2366422    0.1973759  -7.66 0.0005117015    1.063    0.060
       268  -9.4212    134.4901    177.4436   1.0475199748e+02   1.9539961748e+01    0.2322361    0.2177144  13.51 0.0005486825    1.057    0.054
       269  -8.3438     43.3302    178.3340   1.2953250575e+02   3.2792716763e+01    0.1340526    0.1017743 -31.14 0.0004725905    1.726    0.421
       270  -8.9045    169.6649    176.4517   9.6609033088e+01   1.3835178153e+01    0.2193358    0.1494099 -16.08 0.0006955219    1.655    0.396
       271  -9.1217     27.1957    177.5831   1.3403613506e+02   3.4663903189e+01     0.179105     0.124445   8.38 0.0009505535    1.747    0.428
       272  -9.6958    197.7381    175.2407   9.0842315134e+01   9.5632016503e+00    0.2451638    0.1849281 -11.87 0.0008008971    1.238    0.192
       273  -9.3749    187.7562    171.2575   9.1981317763e+01   1.1769143599e+01    0.2542732      0.19285  -9.18 0.0006607073    1.297    0.229
       274  -9.7374    182.5128    174.1659   9.3557194414e+01   1.2132496888e+01    0.2573133    0.1925976  -9.40 0.0007082814    1.347    0.257
       275  -9.1933    183.9861    169.9499   9.2468658047e+01   1.2596848618e+01    0.2787815    0.1774685 -29.95 0.0008304918    1.554    0.357
       276  -9.3111    150.4072    175.2904   1.0062035335e+02   1.7265283001e+01    0.2538667    0.1540052  26.17  0.001198964    1.651    0.394
       277  -8.8152    139.9660    175.0330   1.0301006551e+02   1.9088810851e+01    0.2208216    0.1623311  -1.42 0.0004870076    1.628    0.386
       278 -10.9074    175.4196    171.4606   9.4478788922e+01   1.3750851176e+01    0.4901485    0.3861501  23.85  0.002758109    1.183    0.155
       279 -10.3106    178.9402    166.6694   9.2843962236e+01   1.3988425133e+01    0.3714081     0.260003  -3.31  0.001338825    1.647    0.393
       280  -9.6047    161.4724    173.8471   9.7881691349e+01   1.5661823966e+01    0.2536312    0.1810348  22.00 0.0005872736    1.365    0.268
       281  -9.0796     17.3529    174.3809   1.3659840369e+02   3.6332616774e+01    0.3166459    0.1109753  24.33  0.001299893    2.663    0.624
       282  -9.6887    192.9978    171.4615   9.1018583073e+01   1.0899984336e+01    0.2622353    0.1667515 -28.94 0.0004597676    1.516    0.341
       283  -8.9231    129.0760    172.6885   1.0524373702e+02   2.1417900466e+01    0.2013868    0.1697146  26.16 0.0004107838    1.091    0.083
       284  -8.7962      3.3498    173.3018   1.4045390367e+02   3.7707528315e+01    0.1213972   0.09103537 -41.63 0.0007039105    1.695    0.410
       285  -9.1422     25.5747    171.8396   1.3408151086e+02   3.6197300254e+01    0.2867186    0.1525829   2.84  0.001220557    2.806    0.644
       286  -8.3630    107.6992    171.6144   1.1058249162e+02   2.5249646446e+01    0.1500002    0.1104484 -15.45 0.0007018055    1.785    0.440
       287  -9.2677    200.9667    170.0332   8.9275011752e+01   9.8778479048e+00    0.2449467    0.1578333 -32.39 0.0008027873    1.456    0.313
       288 -10.0131    197.2304    155.1007   8.7043674004e+01   1.2858438096e+01     0.365119    0.2002321 -28.55 0.0008133007    1.841    0.457
       289  -8.9875    197.2017    168.7675   8.9722859734e+01   1.0665862773e+01    0.2249653    0.1394996 -17.83 0.0007888893    1.759    0.431
       290 -10.0182    199.5642    163.0874   8.8196935032e+01   1.1192574475e+01    0.3798649    0.2095957 -38.39  0.001107941    1.740    0.425
       291  -8.8139    158.4853    169.0136   9.7629531035e+01   1.7057929428e+01    0.1881739    0.1137559 -18.38 0.0005082734    2.281    0.562
       292  -8.6474    143.5051    169.5047   1.0115802950e+02   1.9564246970e+01    0.1442374     0.128462  12.56 0.0008099909    1.057    0.054
       293  -8.9454    135.1673    167.7893   1.0284818982e+02   2.1363385820e+01    0.1997584    0.1622792   1.24 0.0005115783    1.347    0.258
       294  -9.1754    169.9622    166.7646   9.4714011087e+01   1.5493501684e+01    0.2131295    0.1688606   4.18 0.0006665274    1.278    0.218
       295  -8.8047    150.4862    167.0120   9.9056911193e+01   1.8828303080e+01    0.2018944    0.1373007 -39.45 0.0004521569    1.535    0.348
       296  -8.4022     85.3200    167.3194   1.1609972201e+02   2.9805385888e+01    0.1454239    0.1128107 -16.02 0.0003315534    1.665    0.399
       297 -10.0658    191.9906    163.2964   8.9639123850e+01   1.2387273324e+01    0.3678968    0.1912342 -28.58 0.0009577501    2.030    0.507
       298  -8.4155    165.3051    166.3157   9.5619415197e+01   1.6375194707e+01    0.1418886    0.1020516  -1.42 0.0003048771    1.624    0.384
       299  -8.7439    128.1364    165.8948   1.0424894039e+02   2.2986980295e+01    0.1966636    0.1648703   2.62 0.0004127542    1.288    0.224
       300  -9.3936    184.8434    163.9771   9.1146167900e+01   1.3457965098e+01    0.2797384    0.1680651 -28.75 0.0009121874    1.693    0.409
       301  -8.7879    159.5868    163.2434   9.6269784132e+01   1.7940767175e+01    0.1892792    0.1275123 -28.74 0.0004489662    1.592    0.372
       302  -9.1565    120.3611    163.1631   1.0574572051e+02   2.4932588818e+01    0.2481034     0.186971  25.88  0.000634126    1.302    0.232
       303  -8.7656    183.7951    158.9843   9.0364420494e+01   1.4482580078e+01    0.1976862    0.1172046 -27.52 0.0005340581    1.770    0.435
       304  -8.7345    172.5278    162.5108   9.3344705295e+01   1.5808893775e+01    0.1396068    0.1220458   2.04 0.0001894377    1.060    0.057
       305  -8.4451      5.7098    161.6530   1.3923846883e+02   4.0336292553e+01    0.1274461   0.09006663 -49.29 0.0004588362    1.661    0.398
       306  -8.9345    163.7621    160.2167   9.4754146093e+01   1.7763884313e+01    0.1922338    0.1527698   0.15 0.0003949747    1.333    0.250
       307  -9.0321     10.0280    161.0000   1.3792628789e+02   4.0176406802e+01    0.2038277    0.0710951  19.86  0.000801596    2.937    0.659
       308  -9.0739     33.0406    160.0000   1.3087244035e+02   3.8377488727e+01    0.2254961    0.0745224  23.86 0.0008074498    2.977    0.664
       309  -8.8335    191.5728    157.9048   8.8652942099e+01   1.3345361355e+01    0.1832766    0.1055142 -15.74 0.0008022244    2.329    0.571
       310  -9.6535    176.8738    157.0230   9.1353183901e+01   1.6022591023e+01    0.2658441    0.1841377 -30.53 0.0005067876    1.429    0.300
       311  -8.6005    168.3903    157.7427   9.3262515999e+01   1.7394403092e+01    0.1877089    0.1260268 -29.40 0.0006422081    1.542    0.352
       312  -8.9229    158.9846    158.0825   9.5377500928e+01   1.9019197774e+01    0.2216556    0.1632226  -2.53 0.0004892704    1.616    0.381
       313 -10.7750     23.9717    156.2446   1.3334816351e+02   4.0195072133e+01    0.3286907    0.2343315 -22.95  0.001711434    1.862    0.463
       314  -8.4813    128.3842    155.8009   1.0225804662e+02   2.5073282834e+01    0.1973799    0.1362339 -35.64 0.0003861732    1.604    0.377
       315  -8.3176     99.3732    156.2659   1.1023737887e+02   3.0116492458e+01     0.150763    0.1156128  -1.62  0.000408963    1.668    0.401
       316  -9.6718    187.8446    153.5735   8.8487306868e+01   1.4706352105e+01     0.362658    0.1709415 -34.07  0.001093272    2.122    0.529
       317 -10.3571    205.4486    159.7339   8.6493516034e+01   1.0781197468e+01    0.3124843    0.2134642 -20.21  0.001764455    1.411    0.291
       318  -9.4379    206.1169    152.7843   8.5002107266e+01   1.1762479216e+01    0.2694526     0.161209 -27.57 0.0008382462    1.597    0.374
       319  -9.4320     17.4823    154.4735   1.3522974836e+02   4.1205401897e+01    0.1326925    0.1193915  71.71 0.0002600797    1.034    0.033
       320  -9.3993      6.7229    154.1546   1.3853204590e+02   4.2112215620e+01    0.2694746    0.1334872 -17.31  0.001087093    3.412    0.707
       321  -8.7955    192.5166    153.0093   8.7489986756e+01   1.3998015010e+01     0.200073    0.1227019 -35.63 0.0008746946    1.548    0.354
       322  -9.3439    167.3039    153.3652   9.2600553519e+01   1.8392240510e+01    0.2209346    0.1203706 -20.83 0.0006443248    2.798    0.643
       323  -8.4523    171.4706    152.4708   9.1535815882e+01   1.7799897597e+01    0.1403085     0.126888   0.95 5.182901e-05    1.028    0.027
       324  -9.7474    145.0440    151.3162   9.7212748473e+01   2.2911277331e+01     0.274438    0.2377583  25.65 0.0007054285    1.103    0.093
       325  -9.3497    143.3250    147.7545   9.6881349651e+01   2.3958628800e+01    0.2983327    0.1997288 -44.09 0.0006497435    1.547    0.353
       326  -9.0682    202.4378    150.1942   8.5121616867e+01   1.2780813393e+01    0.2422543    0.1162526 -32.04 0.0009474302    2.021    0.505
       327  -9.3519    157.6288    150.8811   9.4203888030e+01   2.0641374201e+01    0.2278624     0.172994 -19.24 0.0007047518    1.446    0.308
       328  -8.6269    151.8528    151.3730   9.5622787634e+01   2.1624129360e+01     0.200519    0.1299436  28.82 0.0004153707    1.599    0.375
       329 -10.9513    133.1983    147.2332   9.9283549456e+01   2.5995733989e+01    0.6287708    0.4548111 -63.44  0.002699585    1.699    0.411
       330 -10.4497    132.1006    139.9624   9.8007153696e+01   2.7755310515e+01    0.4274577    0.3252399 -58.03  0.001491736    1.475    0.322
       331  -8.3124    108.3285    151.2930   1.0677147227e+02   2.9704448377e+01    0.1511048    0.1177346  -5.05 0.0004292119    1.626    0.385
       332  -9.4478    197.0311    148.5607   8.5751888712e+01   1.3960194910e+01    0.2773338    0.1638408 -28.04  0.000550254    1.681    0.405
       333  -8.1897    176.3442    150.3094   9.0083047784e+01   1.7307195455e+01     0.144808    0.1033641   2.62 0.0007044713    1.699    0.412
       334  -9.3154    182.1158    148.2295   8.8495399451e+01   1.6634462335e+01    0.2294527    0.1701063 -22.86 0.0003093513    1.350    0.259
       335  -9.5491     54.7850    149.3664   1.2277471940e+02   3.8563352376e+01    0.2031262    0.1371725  15.55 0.0007246386    1.697    0.411
       336  -8.2347    172.4470    148.4869   9.0501571949e+01   1.8344712125e+01    0.1398748    0.1281624  -2.35 0.0002542942    1.013    0.013
       337  -9.1270    161.9655    147.5950   9.2549366286e+01   2.0457286243e+01    0.2435713    0.1869833 -24.09  0.000616391    1.361    0.265
       338  -8.4045    122.4116    148.4682   1.0235014949e+02   2.7763664719e+01    0.1490725    0.1405788  13.91 0.0001633617    1.057    0.054
       339  -9.7151    191.0945    146.5988   8.6435774224e+01   1.5317291787e+01    0.2441089      0.17871 -26.53 0.0005092615    1.304    0.233
       340  -8.8136      3.3611    146.3173   1.3913978207e+02   4.4299337345e+01     0.134162   0.08953843 -43.62  0.000704253    1.763    0.433
       341  -9.8632    208.3642    143.4507   8.2726158928e+01   1.2859365037e+01    0.2830947    0.1910005 -16.76 0.0008198667    1.552    0.356
       342  -9.1503    176.4808    144.5190   8.8834735920e+01   1.8317069721e+01    0.2347927    0.1267277 -29.27 0.0006413622    2.064    0.516
       343  -8.6472    167.0000    145.0142   9.0909629434e+01   1.9995569307e+01    0.2279226   0.07899535 -42.26 0.0006699165    2.882    0.653
       344  -9.3306    218.7849    143.3784   8.1014692686e+01   1.1158836699e+01    0.2386964    0.1410979 -20.38 0.0006635208    1.786    0.440
       345  -9.3279    200.4347    143.2602   8.4048706030e+01   1.4239947541e+01    0.2212597    0.1633315 -24.90 0.0006104542    1.267    0.211
       346  -8.9036    149.8885    147.1809   9.5198512524e+01   2.2823667952e+01    0.2036377    0.1658825   9.10 0.0004369428    1.331    0.249
       347  -8.8832    171.7902    143.1828   8.9508612046e+01   1.9432807523e+01    0.1950204    0.1571216  -3.52 0.0004670248    1.339    0.253
       348  -9.3933    214.1505    141.2048   8.1312892552e+01   1.2245632391e+01    0.2308978    0.1507595 -24.93 0.0009878393    1.439    0.305
       349  -8.7614    194.5208    142.0374   8.4848776761e+01   1.5476240456e+01    0.2011593    0.1230208 -33.54 0.0006878502    1.541    0.351
       350  -9.4344    181.5565    140.5625   8.6976637306e+01   1.8079881148e+01     0.346428    0.1287042 -41.69  0.001311393    2.619    0.618
       351 -10.1945    139.5216    141.0552   9.6372602096e+01   2.6072612760e+01     0.368918    0.2511615  24.21 0.0009117924    1.659    0.397
       352  -9.2504    155.8931    140.8383   9.2445113374e+01   2.2917820145e+01    0.2310844    0.1893339   2.25 0.0007603971    1.353    0.261
       353  -8.8400    147.8470    141.4048   9.4433147999e+01   2.4373574993e+01    0.2129654    0.1346911  29.09 0.0005502851    1.717    0.418
       354  -8.7957    203.5250    140.0468   8.2841275215e+01   1.4225090130e+01    0.1965711    0.1185329 -32.55 0.0005801756    1.532    0.347
       355  -8.9641    186.8794    138.9225   8.5599887048e+01   1.7383061641e+01    0.2073637    0.1698834  -9.11 0.0004872009    1.240    0.194
       356  -9.0819    166.4818    138.6563   8.9637552961e+01   2.1281475013e+01    0.2315016    0.1666586  17.54 0.0008086076    1.633    0.388
       357  -8.5181    152.1827    137.7810   9.2617511949e+01   2.4246482904e+01    0.1996475    0.1677301  -3.60 0.0005382553    1.306    0.235
       358 -10.0694    208.2303    136.0953   8.1220323720e+01   1.4042461319e+01    0.2960618    0.2373196  29.59  0.001203475    1.316    0.240
       359  -9.9528    198.3871    134.0226   8.2451842573e+01   1.6112791397e+01    0.5510164    0.2266404 -40.57  0.002308742    2.275    0.560
       360  -9.6941    147.0201    136.7054   9.3587552867e+01   2.5485411035e+01    0.2053031    0.1880637  23.63 0.0004321475    1.064    0.060
       361  -9.5443     70.2110    136.6045   1.1569821666e+02   3.9651288815e+01    0.3467725    0.1967423  27.70  0.001321226    1.806    0.446
       362  -9.4913     67.6753    134.3478   1.1614321204e+02   4.0607824950e+01    0.2982021    0.1330136  37.10  0.001136476    2.070    0.517
       363  -9.6421    192.9249    134.9873   8.3631218337e+01   1.6944356265e+01    0.2774195    0.1764501 -31.14  0.000699144    1.508    0.337
       364  -8.3689    183.3389    136.3113   8.5707716988e+01   1.8493350205e+01     0.143517    0.1044852   3.53 0.0007045434    1.691    0.409
       365  -9.5261    172.5784    135.1416   8.7584680391e+01   2.0752899933e+01    0.2581664    0.2087938  -7.93 0.0007973611    1.343    0.256
       366  -9.8055    137.8478    136.2044   9.5714138327e+01   2.7416003975e+01    0.2946375    0.1801476 -33.83  0.001258189    1.856    0.461
       367  -9.1327    187.8444    133.8910   8.4325064607e+01   1.8069883685e+01    0.2153024    0.1737693  -8.27 0.0005863517    1.301    0.231
       368  -9.2442    163.8126    133.4491   8.9046005684e+01   2.2784379523e+01    0.2733349    0.1826035 -21.20 0.0006587027    1.807    0.446
       369  -8.5812    155.8515    134.4005   9.1018676528e+01   2.4184035713e+01    0.2046809    0.1344998  31.06 0.0005193383    1.633    0.387
       370  -8.3628    150.2848    133.3387   9.2055865610e+01   2.5509443417e+01    0.1505168    0.1151865  -4.04 0.0004061904    1.631    0.387
       371  -8.4318    120.3135    133.3143   9.9670214207e+01   3.1526973186e+01    0.1552951    0.1214163  -4.17 0.0003918737    1.639    0.390
       372  -9.8929    179.7353    129.9317   8.4988783511e+01   2.0304946524e+01    0.2937401    0.2444246  -2.50 0.0008228382    1.288    0.224
       373  -9.6744    129.9917    113.9893   9.2413949879e+01   3.3751100194e+01    0.3373856    0.2058561  30.01  0.001056195    1.969    0.492
       374  -9.3746    136.6001    130.2705   9.4672459204e+01   2.8914560556e+01    0.3061582    0.2097948 -34.73  0.001085709    1.580    0.367
       375 -11.1491    134.9998    123.3168   9.3431567227e+01   3.0711337613e+01    0.7864303    0.2730044 -46.29  0.002571033    2.962    0.662
       376  -8.7080    114.6157    131.1115   1.0076731458e+02   3.3144782906e+01    0.2132221    0.1421321 -37.31 0.0004065065    1.680    0.405
       377  -9.2730    205.7383    129.5829   8.0247765024e+01   1.5514925124e+01    0.2438014    0.1490744 -26.02  0.001090288    1.635    0.388
       378  -9.1260    160.9495    130.0643   8.8894515660e+01   2.4001144135e+01    0.2287905    0.1747497   0.83 0.0006160092    1.624    0.384
       379 -10.9099    133.9771    107.5013   8.9698920212e+01   3.4240567730e+01     0.685455    0.3146929 -36.08  0.002436853    2.527    0.604
       380  -9.3777    211.9819    127.7040   7.8837258832e+01   1.4708454946e+01    0.2917648    0.1554536 -41.56 0.0008937331    1.746    0.427
       381  -9.6959    143.0049    129.0121   9.2790940884e+01   2.7866160879e+01    0.2404399    0.1840027   0.08 0.0005223116    1.681    0.405
       382 -11.1238    133.9913    114.0460   9.1390601721e+01   3.2875713763e+01    0.7724797     0.312591 -33.96  0.002361922    3.540    0.717
       383  -9.4691    192.7069    127.3440   8.1993563944e+01   1.8271578135e+01       0.2696    0.1725915 -26.66 0.0008651885    1.595    0.373
       384  -9.1614    186.5061    127.4864   8.3152731035e+01   1.9426424617e+01    0.2317167      0.17343  -1.81 0.0006402674    1.613    0.380
       385  -9.2459    172.0814    127.3058   8.5912526762e+01   2.2284091854e+01    0.2433079    0.1919242 -19.67  0.000579032    1.342    0.255
       386  -9.0820    154.9771    128.5017   8.9860652968e+01   2.5515750416e+01    0.2227948    0.1433581  42.94 0.0005214484    1.545    0.353
       387  -9.4191    121.6356    126.6910   9.7782528060e+01   3.2737504643e+01    0.2455908    0.1874828  -1.79   0.00100172    1.755    0.430
       388  -9.0998    200.0155    125.0340   8.0213287011e+01   1.7289922316e+01    0.2073476    0.1536304  -2.15 0.0004002604    1.614    0.380
       389 -10.3009    152.1734    124.4736   8.9550429187e+01   2.6886655557e+01    0.2781375     0.226758  -8.87 0.0007932258    1.421    0.296
       390  -9.7178    180.1820    122.0197   8.3095996039e+01   2.1618361152e+01    0.3655108    0.2390617 -15.03  0.001290764    2.010    0.502
       391  -8.5139    108.3727    123.8129   1.0089655862e+02   3.6051169911e+01    0.2088691    0.1437318 -38.59 0.0003284184    1.602    0.376
       392  -8.9695    170.3583    122.8628   8.5231023518e+01   2.3446079206e+01    0.2053688     0.130036 -28.53 0.0004503693    1.712    0.416
       393  -9.4102    188.0943    121.2646   8.1451798521e+01   2.0187984810e+01    0.2312692    0.1794727 -21.38 0.0005184571    1.314    0.239
       394 -10.1337    212.6473    120.3786   7.7157654589e+01   1.5730563977e+01    0.2953606    0.2059148 -17.19  0.001211684    1.535    0.349
       395  -9.2329    203.1180    119.6911   7.8515105212e+01   1.7580274304e+01    0.1838506    0.1658152 -13.99 0.0007723787    1.070    0.065
       396  -9.2904    194.1777    119.2492   7.9916882658e+01   1.9347666502e+01    0.2395402    0.1686451 -25.63 0.0005873455    1.425    0.298
       397  -9.8120    157.1686    118.2429   8.6923413804e+01   2.7055594160e+01    0.2527777    0.1996548 -25.84  0.000588804    1.347    0.258
       398  -8.6176    184.3621    117.8192   8.1337305629e+01   2.1518051196e+01    0.1976959    0.1251211 -26.92 0.0004067565    1.680    0.405
       399  -9.0370    174.0654    117.9267   8.3322090774e+01   2.3586456825e+01    0.2260631    0.1725429   2.00 0.0007863747    1.652    0.395
       400  -9.1725    117.6280    120.6596   9.7457198424e+01   3.4901506213e+01    0.2432766    0.1890934  -2.57   0.00109624    1.705    0.413
       401  -9.1812    147.7180    116.0427   8.8530053861e+01   2.9503800445e+01    0.2127792    0.1984032 -35.15 0.0006404601    1.077    0.072
       402  -8.7989    163.3980    114.7747   8.4732913959e+01   2.6394089044e+01    0.2040403    0.1370257 -28.30 0.0005255878    1.625    0.385
       403  -8.4211    199.6675    115.6714   7.8178981464e+01   1.8882246289e+01     0.138326    0.1024445   4.04 0.0007051784    1.718    0.418
       404  -8.2746    212.4121    114.4884   7.5906541517e+01   1.6685963275e+01    0.1313259    0.1136331 -21.62 0.0001911289    1.082    0.076
       405  -8.9354    203.3092    113.9802   7.7205889181e+01   1.8461185394e+01     0.196888      0.15456 -28.66 0.0005735045    1.182    0.154
       406  -9.4204    185.9093    113.2917   7.9995885919e+01   2.1986070875e+01    0.2651595    0.1913488 -27.29 0.0005607998    1.397    0.284
       407  -8.6895    181.3284    114.3296   8.1077989531e+01   2.2736920914e+01    0.1451865    0.1093415   5.35 0.0004405405    1.710    0.415
       408  -8.8937    153.3356    114.3064   8.6806998643e+01   2.8636445331e+01    0.1529245    0.1179028   8.02 0.0005830713    1.672    0.402
       409  -8.9209     22.0026    114.3112   1.2976342957e+02   5.1258296152e+01    0.2186897   0.09853811 -15.57  0.000703097    4.146    0.759
       410  -9.4722    193.9822    112.0916   7.8308038479e+01   2.0574975256e+01    0.4103642    0.2425293  27.28  0.001796067    2.439    0.590
       411  -9.7492    122.1411    113.1813   9.4323894465e+01   3.5609881462e+01    0.2175117    0.1870765  80.30 0.0006578091    1.338    0.253
       412  -9.5389    114.6315    112.6524   9.6314088212e+01   3.7318330788e+01    0.2405038    0.1898488  -2.99  0.001070151    1.665    0.399
       413  -9.2021    208.4692    111.5880   7.5861587165e+01   1.7866876214e+01    0.2368101     0.119411 -25.72 0.0008617688    2.233    0.552
       414  -9.0440      6.6613    112.6863   1.3559744260e+02   5.2761035487e+01    0.1425968   0.08933954 -43.67 0.0007046876    1.696    0.410
       415  -8.4916    168.3112    110.3174   8.2624658976e+01   2.6171672213e+01    0.1469273    0.1141231   6.05 0.0003078097    1.641    0.391
       416  -9.3069    218.8875    107.9678   7.3531730236e+01   1.6500766436e+01    0.1978209    0.1588803 -13.01 0.0005781926    1.308    0.236
       417  -8.7264    201.4187    107.7648   7.6091353066e+01   1.9819607906e+01    0.1880591    0.1212155 -25.15 0.0006722133    1.613    0.380
       418  -9.0629    190.0486    107.4717   7.7894540880e+01   2.2130970330e+01    0.2180225    0.1731638 -34.54 0.0006335413    1.179    0.152
       419  -9.0176    176.8410    108.2377   8.0451927913e+01   2.4734269974e+01    0.1952393    0.1665719   0.25 0.0005819047    1.329    0.247
       420  -8.4387    155.3221    108.3144   8.4853352239e+01   2.9359738985e+01    0.1517147    0.1181717   7.88 0.0007040654    1.659    0.397
       421  -8.1615    150.6503    108.6927   8.5993894403e+01   3.0313885975e+01     0.155112    0.1190056  10.37 0.0007043169    1.708    0.414
       422 -10.1999    123.5709    107.9949   9.2579870542e+01   3.6424753185e+01     0.303906    0.2189219  26.79  0.000755675    1.619    0.382
       423  -8.8607    183.1782    106.8690   7.8954177387e+01   2.3644990782e+01    0.1949513    0.1630176  -6.65 0.0005210804    1.347    0.257
       424  -8.8086     37.9487    107.5055   1.2234916583e+02   5.1523829337e+01    0.2070132    0.1203718 -14.31 0.0008088333    2.591    0.614
       425  -9.9129    165.0298    104.5041   8.1831697113e+01   2.7941779029e+01     0.324222    0.1450941  51.37  0.001248284    2.300    0.565
       426  -9.6631    113.0130    105.7012   9.4963362379e+01   3.9211320967e+01    0.2283562    0.2035282  44.01 0.0005130117    1.091    0.084
       427  -9.3132    222.3199    103.4979   7.2080933606e+01   1.6543643281e+01    0.2578117    0.1408293 -36.98   0.00104861    1.569    0.363
       428  -9.9503    218.9126    103.0538   7.2446343896e+01   1.7231044664e+01    0.2972725    0.2056165   9.33  0.001335182    2.113    0.527
       429  -9.6046    213.9659    103.2788   7.3188072247e+01   1.8116638947e+01    0.2312659     0.157112 -19.64 0.0006923525    1.603    0.376
       430  -8.9076    205.7481    103.5929   7.4463744207e+01   1.9637410290e+01     0.236078    0.1516781 -24.36 0.0005764115    1.632    0.387
       431 -10.2126    119.5592    101.9770   9.2070497516e+01   3.8598394148e+01    0.3193341    0.2596744 -11.03  0.001187789    1.536    0.349
       432  -8.8879     66.1725    103.5702   1.1030494237e+02   4.8701536859e+01    0.2198799     0.148569  16.56 0.0009490846    1.775    0.437
       433  -8.3997    201.3210    101.8407   7.4734686610e+01   2.0782115610e+01    0.1907752    0.1160502 -27.45 0.0004471107    1.679    0.404
       434  -8.8365    190.2724    102.3670   7.6638506082e+01   2.2932744728e+01    0.1394051    0.1064753  -1.45 0.0004641044    1.668    0.400
       435  -8.5333    195.4389    101.5136   7.5585735495e+01   2.2015242881e+01    0.1362097    0.1249499 -26.61 0.0001383772    1.059    0.055
       436  -8.1776    185.3349    101.3004   7.7221583404e+01   2.4137974916e+01    0.1405333    0.1089755  11.48 0.0007034402    1.656    0.396
       437  -8.2405    176.3051    100.3696   7.8604808986e+01   2.6221808020e+01    0.1474212    0.1122813   4.53 0.0007034008    1.753    0.430
       438  -9.5619    141.4478    100.0699   8.5864442341e+01   3.4064069865e+01    0.2972604    0.2093251  32.57 0.0008152334    1.620    0.383
       439  -9.4157    130.9567     99.8364   8.8408579615e+01   3.6494119446e+01    0.2645902    0.1789988  21.18  0.001073407    2.099    0.524
       440  -8.5840    209.4010     98.8059   7.2827473742e+01   1.9669420343e+01    0.1824359    0.1173467 -25.48 0.0008117951    1.589    0.371
       441  -8.8885     18.5182     99.5323   1.2922431369e+02   5.5436168946e+01    0.1372358    0.1280634 -80.64 0.0005605927    1.013    0.013
       442  -8.2494    167.2963     98.3645   7.9806985345e+01   2.8548906579e+01    0.1491371    0.1153379   4.52 0.0007031523    1.717    0.418
       443  -8.6816    160.3293     98.3413   8.1202317543e+01   3.0110961281e+01    0.1528114    0.1174705   9.63 0.0007051444    1.742    0.426
       444  -8.3137    189.2881     97.2989   7.5575889585e+01   2.3971388949e+01    0.1341689    0.1077209   6.40 0.0002865161    1.556    0.357
       445  -8.4493     89.8203     97.6222   1.0012822598e+02   4.5874495083e+01    0.2183008    0.1418247  49.35 0.0005827112    1.563    0.360
       446  -9.0117    203.2823     96.1245   7.3100296334e+01   2.1288500111e+01    0.2108315    0.1530236 -20.41  0.000464426    1.492    0.330
       447  -8.8206    195.4881     95.4787   7.4136255291e+01   2.2974948306e+01    0.1358322    0.1260559 -31.01 0.0001396226    1.051    0.049
       448  -8.4832    183.5025     94.4690   7.5849880728e+01   2.5668632657e+01    0.1391298    0.1324256 -23.40 0.0001427913    1.073    0.068
       449  -8.9686    153.8352     94.3916   8.1516137909e+01   3.2313596705e+01      0.21085    0.1368847  41.39 0.0007015941    1.645    0.392
       450  -8.5728    220.3698     92.8481   6.9981159979e+01   1.8464352483e+01    0.1778452    0.1105119 -25.58 0.0004194836    1.622    0.383
       451 -12.0438    235.8716    227.0298   9.3005309291e+01  -2.3481106272e+00    0.4151972    0.2739238 -15.54 0.0009005261    1.242    0.195
       452  -8.6057    207.3025     93.3402   7.1864922088e+01   2.0915771095e+01    0.1315216    0.1017863   3.66 0.0007038575    1.673    0.402
       453  -8.1060     76.3113     93.3660   1.0380417608e+02   4.9471034381e+01    0.1620658     0.120856 -17.31 0.0007038399    1.760    0.432
       454  -8.6669    164.8540     92.1713   7.8664696780e+01   3.0195243738e+01    0.1963787    0.1737425   5.67 0.0004370559    1.310    0.236
       455  -8.7586    188.5732     91.2051   7.4194383641e+01   2.5114699755e+01    0.1918801    0.1296544 -24.09 0.0006836028    1.625    0.384
       456  -8.6947    210.1242     89.8429   7.0657763781e+01   2.0884628670e+01    0.1751315    0.1498713  -8.87 0.0007123579    1.312    0.238
       457  -8.4548    121.3343     90.2670   8.8248672334e+01   4.0655374630e+01      0.15525    0.1228542  16.92 0.0002211767    1.587    0.370
       458  -8.2809    203.3319     89.3288   7.1488569436e+01   2.2326415009e+01    0.1337521    0.1035844   9.85 0.0007051742    1.717    0.417
       459  -8.7974    158.4076     88.7155   7.9018618523e+01   3.2287977670e+01    0.2016383    0.1425081 -26.32 0.0006774591    1.588    0.370
       460  -8.1359    183.3463     88.3324   7.4331519553e+01   2.6712596899e+01    0.1438414    0.1100945  14.22 0.0007049551    1.764    0.433
       461  -9.0703    151.1744     86.0845   7.9794432039e+01   3.4452273174e+01    0.2385111    0.1746955  -1.71 0.0005788493    2.007    0.502
       462  -8.8816    222.1696     84.6280   6.7911356390e+01   1.9306751733e+01    0.2963109    0.1503491 -19.02  0.001243885    2.844    0.648
       463  -9.1526    225.2482     80.7692   6.6680882010e+01   1.9265616024e+01    0.2223528    0.1553582  -6.80 0.0006843393    1.952    0.488
       464  -9.3286    217.5221     83.5756   6.8245404104e+01   2.0351448770e+01    0.3547457    0.1486713  44.22  0.001467849    3.185    0.686
       465  -8.8513    206.3291     82.9231   6.9548599249e+01   2.2680345455e+01    0.1892677    0.1156913 -24.26 0.0005462233    1.787    0.440
       466 -11.9335    238.4517    217.7757   9.1169887358e+01  -1.5593725008e+00     0.491188    0.2750531 -22.61  0.001100778    1.529    0.346
       467  -8.3023    185.7155     81.6382   7.2243728911e+01   2.7265902325e+01    0.1385676    0.1095306   6.90 0.0006345008    1.683    0.406
       468 -12.6910    248.7343    179.1325   8.3199344645e+01   1.9674187579e+00     1.097577    0.2633858 -36.73   0.00450273    3.599    0.722
       469  -8.5907    159.3983     79.7892   7.6354185867e+01   3.3613604673e+01    0.1986409    0.1418105 -24.11 0.0005714861    1.611    0.379
       470  -8.7579    215.3949     78.7175   6.7391286840e+01   2.1465515469e+01    0.1752837     0.115057 -25.02 0.0006753664    1.581    0.367
       471  -8.5832    151.0457     77.2232   7.7292498906e+01   3.6052842278e+01    0.1944139    0.1207032  55.63 0.0003828887    1.596    0.373
       472 -13.3997    236.9357    193.8506   8.7504951112e+01   1.5422821739e+00      2.89468    0.3821362 -34.91  0.008301714    7.447    0.866
       473  -8.5205    167.3293     75.3646   7.3652884252e+01   3.2476871943e+01    0.1494973    0.1140956  16.90 0.0007037569    1.807    0.447
       474  -8.4072    211.6487     74.7042   6.6915157095e+01   2.2790700886e+01    0.1258937    0.1003735  17.97 0.0007033462    1.684    0.406
       475  -8.6393    157.5437     73.5171   7.4934706588e+01   3.5115079111e+01    0.1446741     0.141711 -81.52 0.0002357753    1.045    0.043
       476 -13.1692    245.8591    162.7276   8.0678835614e+01   4.4591119801e+00     1.619734    0.4678682 -30.15  0.006459282    3.457    0.711
       477 -10.5262      1.6178     68.2603   1.3280814513e+02   6.4485466920e+01    0.5298026     0.119109 -69.91  0.001442686    3.357    0.702
       478  -8.7578    163.5679     69.2221   7.2601659599e+01   3.4363914638e+01    0.1942825     0.141603 -20.88  0.000680625    1.621    0.383
       479  -8.1875    116.3022     69.3427   8.3093267825e+01   4.5948224578e+01    0.1565252    0.1227086  13.64  0.000470544    1.679    0.404
       480  -8.9733     92.5258     69.5076   9.0429152563e+01   5.1482986588e+01    0.1536417    0.1479373  45.56 0.0001876261    1.003    0.003
       481  -8.7750    170.8335     68.2032   7.1074840799e+01   3.2788411704e+01    0.1880351    0.1678071  28.26 0.0004242348    1.318    0.241
       482 -14.3018    248.1513     80.7003   6.4216865430e+01   1.5169036228e+01     4.429693     1.684599 -24.02   0.01728445    3.646    0.726
       483  -8.2703    152.7070     64.6444   7.3260276147e+01   3.7746966110e+01    0.1479968    0.1164999  18.68 0.0007030436    1.688    0.407
       484  -8.5465    146.6163     63.7140   7.4165637584e+01   3.9409431180e+01    0.1546792    0.1127333  30.76 0.0007011517    1.740    0.425
       485  -8.7234     68.9999     63.7723   9.7308046339e+01   5.7593204544e+01    0.2064416    0.1208275  40.09 0.0008799332    1.661    0.398
       486  -9.4735    121.4920     61.5069   7.9100894536e+01   4.6073844363e+01    0.2576898    0.2312205  55.06 0.0005222473    1.075    0.070
       487  -8.3563    157.5626     59.4540   7.0828225758e+01   3.7357412545e+01    0.1436453     0.136723 -83.41 0.0001565424    1.030    0.029
       488  -8.2591    165.2609     57.3993   6.8932781386e+01   3.5770650673e+01    0.1413218    0.1120933  14.19 0.0004539892    1.717    0.418
       489  -8.5966    147.4259     56.4928   7.1777659751e+01   4.0346095713e+01     0.144825    0.1396836  78.13 0.0001807369    1.063    0.059
       490 -10.8362      2.4146     53.7957   1.2988543898e+02   6.8030307441e+01    0.3664292    0.2651723  85.61  0.001875641    1.541    0.351
       491 -11.7337      9.3710     49.0913   1.2443051580e+02   6.8802398148e+01    0.5756429    0.3781691 -28.59  0.002807199    1.484    0.326
       492  -8.2085    163.3307     51.3155   6.7469599904e+01   3.7127708350e+01    0.1432392    0.1094372  31.16 0.0003772436    1.681    0.405
       493 -10.0506      1.9773     45.7053   1.2845715803e+02   6.9988983720e+01    0.2971339    0.1813164 -41.93 0.0007822881    1.444    0.307
       494  -9.9966      4.8425     41.4981   1.2545932733e+02   7.0840201715e+01    0.2313968      0.18702 -38.18 0.0003681149    1.085    0.078
       495 -12.2151    249.9805    152.4337   7.8208574323e+01   5.2719659875e+00     1.085644     0.152917 -37.26  0.003362347    5.643    0.823
       496 -13.6093    245.5045    242.3669   9.3770413363e+01  -5.0108636742e+00     1.203091    0.5847098 -25.23  0.008074973    1.798    0.444
       497  -9.4966     17.6699     40.3357   1.1623014508e+02   7.0194860935e+01     0.232468    0.1144596  31.40 0.0008364595    2.078    0.519
       498 -11.1393     10.4522     39.8662   1.2105573545e+02   7.0875399509e+01    0.5107613    0.2708669  -6.67  0.000823808    2.156    0.536
       499 -13.4282    242.8073    198.4360   8.7371483696e+01   2.6734694761e-01     1.573572    0.4651287 -27.57  0.006392633    3.867    0.741
       500  -9.3584     11.6419     35.6169   1.1877701352e+02   7.1742617956e+01    0.2082178    0.1251138 -31.48 0.0008085042    1.598    0.374
       501  -9.2806    200.7789     34.7644   5.8365912690e+01   3.0395944912e+01    0.2206915    0.1527329  75.59 0.0009647143    1.455    0.313
       502 -10.1887      5.6990     33.2344   1.2237634070e+02   7.2673775116e+01     0.322464    0.1545331 -30.42  0.001171042    2.085    0.520
       503  -8.4459     25.6974     33.7348   1.0810649108e+02   7.0767426687e+01    0.1335361   0.09311262 -16.01 0.0001888983    1.523    0.343
       504  -8.5903     30.3307     31.2966   1.0388247080e+02   7.0662894220e+01    0.1391206   0.09585033 -11.33 0.0006197187    1.639    0.390
       505  -9.5239     23.3179     27.9486   1.0705899841e+02   7.2218088486e+01     0.184899    0.1570806 -28.04 0.0005828656    1.094    0.086
       506  -9.3808     12.8370     27.6404   1.1475541671e+02   7.3365161562e+01    0.1973951    0.1420779  -8.77 0.0005471648    1.353    0.261
       507 -10.8943      4.0198     27.6044   1.2175947861e+02   7.4012782788e+01    0.4469444    0.2404547   8.40  0.001928124    1.893    0.472
       508 -10.1783      4.0445     23.4972   1.2018958558e+02   7.4894646231e+01    0.2717584    0.1688188 -26.31 0.0007804199    1.494    0.331
       509 -11.2279    209.8053     26.4953   5.5558382090e+01   2.9359282668e+01     0.324932    0.1846709 -72.20  0.001718072    1.767    0.434
       510 -10.6709     17.9827     25.6044   1.0985991526e+02   7.3286293598e+01    0.2937615     0.215979  -2.76 0.0006641592    1.332    0.249
       511  -9.4908     28.9577     19.7278   9.8668783887e+01   7.2995964688e+01    0.3572813    0.1472742  40.92  0.001519085    2.501    0.600
       512 -10.7577    124.4810    246.9282   1.1675928729e+02   8.6579247951e+00    0.2989244    0.1904401  31.59 0.0005480409    1.204    0.169
       513  -8.7584    108.3999    248.8519   1.2038311898e+02   1.0409935047e+01    0.1388496    0.1091468 -30.96 0.0004659307    1.608    0.378
       514  -9.9771     61.5012    248.6190   1.3053193453e+02   1.6143866302e+01    0.2150099    0.1788378  13.53 0.0007326642    1.375    0.273
       515 -11.5707     11.4478     18.4424   1.1155342777e+02   7.5356514235e+01     0.751864    0.2349638  25.17  0.003054079    3.033    0.670
       516  -9.3207     16.4871    248.9467   1.4014677297e+02   2.0766888439e+01    0.1899277    0.1407708  14.27 0.0008176643    1.619    0.382
       517  -9.2712      8.3991    248.3004   1.4179502694e+02   2.1618513834e+01    0.1681588    0.1448178  37.96 0.0006510602    1.269    0.212
       518 -12.0858    191.6293    244.5829   1.0314484748e+02   5.7235665538e-01    0.3435306    0.2174824   3.65 0.0005701146    1.416    0.294
       519  -8.5626     47.3365     18.3407   8.6633460435e+01   7.0053901225e+01    0.1440869   0.09710368  14.05 0.0007050739    1.760    0.432
       520 -10.0244     22.8805     15.6359   1.0066152804e+02   7.4565236516e+01    0.2294751    0.1670443 -28.39 0.0003642325    1.317    0.241
       521  -9.0332    186.5438    245.4964   1.0420533934e+02   1.0607236753e+00    0.1664406   0.09902394 -28.70 0.0005668772    1.776    0.437
       522  -9.0145     37.7352     15.4489   9.0336055091e+01   7.2266326694e+01    0.1772565    0.1137207  29.68  0.000283655    1.487    0.328
       523 -10.0447     32.7968    247.2401   1.3664656539e+02   1.9488799891e+01    0.4177168    0.1628647  26.70  0.001481705    2.197    0.545
       524 -11.5685    176.8551    243.8600   1.0580587085e+02   2.4445570888e+00    0.3274117    0.2118739  -3.92 0.0004875301    1.554    0.357
       525 -10.5446    156.9441    245.9180   1.0996042118e+02   4.6494183949e+00    0.2498777    0.1829165   6.74 0.0004512655    1.229    0.187
       526  -8.6324     50.5083     13.4718   8.2112947633e+01   7.0089606632e+01    0.1356214    0.1182346  28.39 0.0001968172    1.008    0.008
       527 -10.2181    133.1068    245.3600   1.1476864054e+02   7.7853235115e+00    0.2374463    0.1731324  16.53 0.0003806182    1.191    0.160
       528 -10.4599     80.5348    244.2542   1.2603082951e+02   1.4655884863e+01    0.3760716    0.1913559  21.72  0.000528361    1.942    0.485
       529 -10.2577    113.6683    244.2235   1.1877636871e+02   1.0479137251e+01    0.2506628    0.1880537  11.37 0.0005245706    1.334    0.251
       530 -10.5644     93.6303    244.4525   1.2316403645e+02   1.2998578810e+01    0.4279705     0.186652  24.77   0.00198415    2.112    0.527
       531  -9.4573     41.3351    244.6656   1.3467981124e+02   1.9070603299e+01    0.2122332    0.1574522  15.40 0.0007548122    1.531    0.347
