#   1 NUMBER                 Running object number                                     
#   2 MAG_AUTO               Kron-like elliptical aperture magnitude                    [mag]
#   3 X_IMAGE                Object position along x                                    [pixel]
#   4 Y_IMAGE                Object position along y                                    [pixel]
#   5 X_WORLD                Barycenter position along world x axis                     [deg]
#   6 Y_WORLD                Barycenter position along world y axis                     [deg]
#   7 A_WORLD                Profile RMS along major axis (world units)                 [deg]
#   8 B_WORLD                Profile RMS along minor axis (world units)                 [deg]
#   9 THETA_WORLD            Position angle (CCW/world-x)                               [deg]
#  10 FWHM_WORLD             FWHM assuming a gaussian core                              [deg]
#  11 ELONGATION             A_IMAGE/B_IMAGE                                           
#  12 ELLIPTICITY            1 - B_IMAGE/A_IMAGE                                       
         1 -12.3698    193.4267     34.2985   6.6438226756e+01   3.2851119711e+01    0.7690252    0.5059353 -60.85  0.004061874    1.563    0.360
         2 -12.5624    198.9251     30.5050   6.4803422399e+01   3.2024662076e+01    0.6090696    0.4773699 -65.39  0.003628546    1.216    0.178
         3 -13.4361    211.4100     14.4627   5.9716946334e+01   3.1023228083e+01     1.101868    0.8624092  40.19  0.006771042    1.749    0.428
         4 -12.5309      2.2134      5.6485   1.1020827803e+02   7.1653472544e+01     1.182956    0.2725604 -41.97  0.005514125    3.568    0.720
         5 -10.2745     14.9900     12.5312   1.0699562978e+02   6.9692059519e+01     0.150206   0.09015564  19.73 0.0005366458    1.588    0.370
         6 -11.6346    138.8258    249.2435   1.2448174261e+02   2.8298431455e+00    0.4077265    0.2669939  40.72  0.002287049    1.317    0.241
         7 -12.4639    127.3925    244.8952   1.2617991040e+02   5.5371270359e+00    0.7598422    0.5183285   3.92  0.003477806    3.023    0.669
         8 -10.6637     41.1868    206.3232   1.3926345829e+02   2.6544259877e+01    0.2607365    0.1934893  62.41 0.0002427216    1.212    0.175
         9 -14.2839      9.0720    242.7052   1.4793165384e+02   2.2535092155e+01      2.52738     1.437569  56.47   0.01710349    1.430    0.301
        10 -15.4225     10.6577    155.0702   1.4068478524e+02   4.1443090704e+01     10.91015     4.799283  74.26   0.04583792    3.272    0.694
        11 -12.3311     33.1321    227.9824   1.4273430668e+02   2.2829008834e+01    0.3200322    0.2460951 -74.34 0.0007330171    1.338    0.253
        12 -11.0496     51.1301    234.4936   1.3992995945e+02   1.9232965540e+01     0.264344    0.2218502 -14.70  0.001606294    2.232    0.552
        13 -13.8805     39.7084    219.8477   1.4081248465e+02   2.3761582935e+01    0.8726137    0.7837934  70.06  0.003242985    1.280    0.219
        14 -11.1952     60.2832    195.0538   1.3397266941e+02   2.6663064540e+01    0.3404313    0.2424158 -51.24 0.0005798713    1.620    0.383
        15  -9.4644    193.6756    196.0225   1.0432991719e+02   2.8484621529e+00    0.2278212    0.1163914 -63.26 0.0007049824    4.401    0.773
        16 -12.1271    100.8805    248.7341   1.3185787218e+02   9.1442595521e+00    0.6350834    0.2082684  39.30  0.002569118    2.790    0.642
        17 -13.6874      8.9726    207.3858   1.4566795241e+02   2.9805937846e+01     1.227249    0.7829696  86.93   0.00561359    1.213    0.176
        18 -11.3329     66.5958    187.3443   1.3156820801e+02   2.7594523861e+01    0.2881029    0.2373832 -52.58 0.0006956499    1.376    0.273
        19 -10.4716     76.6199    175.1981   1.2745680860e+02   2.9038840027e+01    0.2550068    0.2191395 -68.61  0.000383427    1.116    0.104
        20 -12.7971     63.4685    172.7863   1.3027841527e+02   3.1504287667e+01    0.5380588    0.2826884 -45.51  0.001849147    2.289    0.563
        21 -11.3316     84.1900    166.5319   1.2418543164e+02   2.9975505261e+01    0.5687635    0.5164593 -60.77  0.003266115    1.133    0.118
        22 -10.1810     53.2411    228.9203   1.3902620093e+02   2.0112593725e+01    0.2337043    0.1331009  63.48 0.0006792136    1.572    0.364
        23  -9.5394     97.4202    150.6926   1.1785719616e+02   3.1653036126e+01    0.2735605    0.2611576 -43.11 0.0009020962    1.135    0.119
        24  -9.4068    134.3646    147.8745   1.0775299783e+02   2.5299850693e+01    0.4545097    0.1470466 -55.51  0.001256684    3.852    0.740
        25 -11.9433     67.6616    143.9636   1.2451303684e+02   3.7943367436e+01    0.6739002    0.4749211  70.58  0.002334181    1.686    0.407
        26 -11.6901     85.8201    149.7758   1.2073856087e+02   3.3806449657e+01    0.3057358    0.2516842 -45.65 0.0005090139    1.259    0.206
        27  -8.4094    192.3466    144.2239   9.3606525573e+01   1.3600412921e+01    0.2109375    0.1376905 -51.45 0.0003815978    1.561    0.359
        28  -9.2809    109.4502    136.3296   1.1160498932e+02   3.2948716457e+01    0.3385077    0.2383584 -21.16  0.001445805    2.037    0.509
        29 -10.9610     58.2791    134.2281   1.2530034620e+02   4.1551737044e+01    0.4259413    0.1835341 -70.68  0.001575214    2.827    0.646
        30 -10.0838     96.3862    133.4339   1.1450674476e+02   3.6002803209e+01    0.2760647    0.2377571 -27.45 0.0007586144    1.303    0.233
        31 -10.4382     50.1322    129.9612   1.2680535119e+02   4.3567668107e+01    0.2705651    0.1879791  50.15 0.0006796002    1.643    0.391
        32  -8.6858    106.5081    123.1419   1.0932955580e+02   3.6605160319e+01    0.2103287    0.1451715 -50.75  0.000285528    1.392    0.281
        33 -11.5520     63.3500    246.9449   1.3876556243e+02   1.5077619819e+01    0.4516234    0.2853808  86.95  0.000740463    1.497    0.332
        34  -9.7438    167.8772    113.1306   9.1351804172e+01   2.5641111810e+01    0.3426788    0.2682769 -80.14 0.0008169448    1.544    0.352
        35 -10.7661      2.0000     45.5590   1.2422253670e+02   6.5472547232e+01    0.3672622   0.05020929 -56.92  0.001161665    5.988    0.833
        36  -9.2135    249.6560    249.6930   1.0336688126e+02  -1.4734349702e+01     0.123226   0.07524111   4.24 0.0007043047    1.693    0.409
        37 -10.3842    244.2048    249.3871   1.0428288039e+02  -1.3955332651e+01    0.1623689   0.09896291  39.33 0.0009590156    1.714    0.417
        38 -11.2208     81.5454    248.8796   1.3556271531e+02   1.2083109580e+01    0.3164578    0.1762784  51.03  0.001760125    1.486    0.327
        39 -11.2366     53.6833    238.5344   1.3980807302e+02   1.8070437601e+01    0.2549016    0.1967354  79.19 0.0009296217    1.054    0.051
