#   1 NUMBER                 Running object number                                     
#   2 MAG_AUTO               Kron-like elliptical aperture magnitude                    [mag]
#   3 X_IMAGE                Object position along x                                    [pixel]
#   4 Y_IMAGE                Object position along y                                    [pixel]
#   5 X_WORLD                Barycenter position along world x axis                     [deg]
#   6 Y_WORLD                Barycenter position along world y axis                     [deg]
#   7 A_WORLD                Profile RMS along major axis (world units)                 [deg]
#   8 B_WORLD                Profile RMS along minor axis (world units)                 [deg]
#   9 THETA_WORLD            Position angle (CCW/world-x)                               [deg]
#  10 FWHM_WORLD             FWHM assuming a gaussian core                              [deg]
#  11 ELONGATION             A_IMAGE/B_IMAGE                                           
#  12 ELLIPTICITY            1 - B_IMAGE/A_IMAGE                                       
         1 -14.8832    158.9633     43.1642   8.3958441684e+01   4.0263627902e+01     1.490655     1.064424 -21.55  0.003983521    1.379    0.275
         2 -14.6178    171.3844     10.3453   7.0691833851e+01   4.0812665891e+01     1.246368     1.037791  41.41  0.004442362    1.222    0.182
         3 -12.5644    189.3631     13.3766   6.9636288988e+01   3.5983615119e+01    0.5317172    0.2189545 -28.70  0.002156307    2.167    0.539
         4 -10.9397    167.9804    241.0156   1.2522438719e+02   7.9847197072e+00     0.160281    0.1198447  26.09 0.0003887094    1.022    0.021
         5 -13.1369    189.4917    249.6006   1.2263292690e+02   4.3472356351e+00    0.4989125    0.1929084  31.03  0.001904524    1.984    0.496
         6 -13.7577    198.0665    245.7305   1.2076110670e+02   3.6715645015e+00    0.4207598    0.3694645  42.36  0.003526671    1.692    0.409
         7 -12.0429    176.2422    248.9146   1.2474122313e+02   6.0667594121e+00    0.2036044      0.16387   0.10 0.0007518165    1.312    0.238
         8 -20.2446     80.6881    181.2996   1.3543797264e+02   2.8570063970e+01     14.02381     5.868471 -66.39   0.06784405    2.686    0.628
         9 -13.8166    195.6814    171.1413   1.0980532778e+02   1.2848659044e+01    0.7020813     0.391929 -43.69  0.002741995    2.248    0.555
        10 -14.1541    207.5480    178.1274   1.0893598613e+02   1.0045987897e+01    0.8125174    0.5499234 -27.14  0.004257011    1.506    0.336
        11 -12.2626    203.0336    172.4529   1.0870774053e+02   1.1492056929e+01    0.3326524    0.2330506 -37.98  0.001532616    1.679    0.405
        12  99.0000     13.0825    242.8400   1.5237857922e+02   2.5006804353e+01    0.2191649    0.0867991 -57.12  0.001285273    4.049    0.753
        13 -11.7964    129.9808    181.7591   1.2474039451e+02   2.1644721621e+01    0.1894456    0.1837452 -16.03 0.0005186583    1.155    0.135
        14 -14.5387    177.5368    172.1520   1.1343113036e+02   1.5654691405e+01    0.8395471    0.5768874 -45.61  0.004811341    1.788    0.441
        15 -10.9870    150.9659    241.5665   1.2823228581e+02   1.0098554576e+01    0.1752963    0.1569289 -46.21  0.001466364    1.536    0.349
        16 -12.4377    185.7249    168.0860   1.1111045587e+02   1.4905884617e+01    0.3916491    0.1977793 -37.43  0.001949115    2.109    0.526
        17 -10.7357     28.7591    240.8926   1.4969658573e+02   2.3941179691e+01    0.1266431   0.07403782  61.33 0.0004245062    1.354    0.261
        18 -12.0653    230.1652    166.6281   1.0295062763e+02   7.9688503169e+00    0.2765026    0.1474346 -40.83  0.001419428    2.447    0.591
        19 -11.1631     21.8880    239.2886   1.5080079895e+02   2.4791729254e+01     0.117033   0.09646714  55.35 0.0005013034    1.195    0.163
        20 -11.8481    201.2655    165.1243   1.0765353622e+02   1.2763153909e+01    0.2648575    0.2252358 -47.97 0.0009474052    1.666    0.400
        21 -11.1867    222.7679    162.1880   1.0332158362e+02   9.6678344760e+00    0.2611311    0.1774874 -43.18  0.001033188    2.011    0.503
        22 -14.0365    163.1001    157.3561   1.1360974089e+02   2.0382607665e+01    0.5030662    0.4629491 -56.45  0.003165919    1.371    0.271
        23 -10.9977     29.1989    156.7379   1.4510366604e+02   3.9074940790e+01    0.2347314    0.1668773 -73.25  0.001027642    1.349    0.258
        24 -12.8295    195.8019    236.0179   1.1989479953e+02   4.9508155848e+00    0.2571272    0.1567404   0.03  0.001681056    1.834    0.455
        25 -14.0363    152.4854    144.8284   1.1342583622e+02   2.4376641633e+01    0.5985091     0.477946 -84.90  0.003149983    1.953    0.488
        26 -11.4390    139.5405    148.9688   1.1713738337e+02   2.5902361556e+01    0.2783977    0.2146701  25.57 0.0003599148    1.270    0.213
        27 -10.1611     22.8458    156.1690   1.4659078343e+02   3.9737879864e+01    0.1406138    0.1249622 -69.12 0.0004331006    1.266    0.210
        28 -10.9737    191.8748    154.0857   1.0723682954e+02   1.5907800980e+01    0.3401913    0.1882063 -11.35  0.001498676    2.519    0.603
        29 -11.1030     16.7719    154.0378   1.4790926108e+02   4.0673969719e+01    0.2957743    0.1950149 -22.84  0.001754579    2.444    0.591
        30 -14.4756    143.4602    143.6904   1.1521610186e+02   2.6184503982e+01    0.9578544    0.5087596 -55.35  0.004159787    2.453    0.592
        31 -12.8838    174.2072    148.6340   1.0960139683e+02   1.9850865928e+01    0.3767783     0.319249 -47.58  0.001533614    1.439    0.305
        32 -14.3223    134.0385    146.2530   1.1788216454e+02   2.7349892397e+01     1.290648    0.4072399 -54.22  0.004030331    4.680    0.786
        33 -10.3460    182.4273    149.1915   1.0807034910e+02   1.8300386961e+01    0.1760946    0.1241295 -44.82 0.0008082123    1.679    0.405
        34 -10.3702      7.6719    236.8273   1.5310975894e+02   2.6359378013e+01    0.1007817   0.06601015  70.10 0.0003913998    1.246    0.198
        35 -12.9568    199.0462    222.7129   1.1754344518e+02   5.9581856007e+00    0.3192287    0.1864878  32.65 0.0006540837    1.359    0.264
        36 -11.9400     27.4529    145.5471   1.4466098015e+02   4.1623492695e+01    0.2896597    0.2658706 -79.81  0.001082794    1.175    0.149
        37  -9.9783     17.1798    224.0166   1.5108645504e+02   2.7590295189e+01    0.1036422   0.06336677  89.62 0.0004232891    1.589    0.371
        38 -12.2642    175.7221    142.2905   1.0797558044e+02   2.0597862904e+01    0.2225726    0.2147358  41.52 0.0006895882    1.258    0.205
        39 -12.7656    134.5632    109.1603   1.0961133960e+02   3.4423720061e+01     1.375338    0.1638577 -43.96  0.002775436    8.430    0.881
        40 -13.9338    135.9384    128.0710   1.1370565436e+02   3.0477513718e+01     1.352972    0.3024599 -49.21   0.00357003    5.598    0.821
        41 -11.0088     30.6861    206.4608   1.4784004304e+02   2.9354615921e+01    0.1984691    0.1723399  11.31  0.001605098    1.566    0.361
        42 -13.0700     11.6172    206.0909   1.5146859488e+02   3.1062351111e+01    0.4465952    0.2171641  26.68  0.002467966    2.136    0.532
        43 -11.8036    156.0509    132.7153   1.1008323546e+02   2.5870789583e+01    0.2004377    0.1744214  27.46 0.0003962908    1.085    0.079
        44 -13.5116    160.6820    128.2413   1.0806494980e+02   2.5783136917e+01    0.5006605    0.4240775  33.50   0.00227531    1.141    0.123
        45 -12.0691    168.8653    202.3717   1.2000246070e+02   1.2695485368e+01    0.2196288    0.1684496  49.92 0.0006763017    1.548    0.354
        46 -12.6148    155.8002    190.8309   1.2079988094e+02   1.6290986444e+01    0.3931496    0.2268269  51.35  0.001152776    2.067    0.516
        47 -13.2304    154.3751    185.9712   1.2033811211e+02   1.7246058730e+01     0.423198    0.2660215  44.28  0.002068997    1.525    0.344
        48 -12.5157    154.1838    195.8906   1.2187031310e+02   1.5780715061e+01    0.3921994    0.3116744  82.02  0.002411424    2.073    0.518
        49 -13.4162    157.5136    202.3943   1.2215977610e+02   1.4349577414e+01    0.4686222    0.4148312  66.95  0.002322636    1.535    0.348
        50 -12.2287    163.9218    203.0516   1.2103310862e+02   1.3323920643e+01    0.2545292    0.2389428  -0.91 0.0003781049    1.240    0.194
        51 -12.8575    161.6865    197.8804   1.2070569001e+02   1.4378303267e+01     0.351825    0.3065298  51.53  0.001754584    1.392    0.282
        52 -11.9926     16.3456    250.1307   1.5205534957e+02   2.3661545152e+01    0.1209367    0.0901715  68.49  0.001113711    1.198    0.165
        53 -12.5984    179.1472    243.1361   1.2357670468e+02   6.3216389122e+00    0.2382875    0.1447262  38.55  0.001670835    1.410    0.291
        54 -10.8772    205.4282    110.1717   9.4932478119e+01   1.9865126441e+01     0.297684    0.1873234  35.51 0.0009861058    1.609    0.379
        55 -10.2472     24.5623    202.5175   1.4883862107e+02   3.0598361620e+01    0.1030349   0.08024917  61.52 0.0001647741    1.020    0.020
        56 -11.6068     24.3883    106.7810   1.4172846540e+02   5.0720802120e+01      0.33575    0.2085156   2.55  0.001645454    2.248    0.555
        57 -12.0050     41.3383     93.1676   1.3411863452e+02   5.2483230374e+01    0.6271288      0.37436 -23.37  0.002941976    2.467    0.595
        58 -12.0091     48.5318     92.4432   1.3150164719e+02   5.1904249722e+01    0.3655238    0.2545567  12.79  0.001671284    1.795    0.443
        59 -12.6937    138.2608    198.4081   1.2537586521e+02   1.7735819339e+01    0.5474173      0.36915  54.88  0.003034425    1.712    0.416
        60  -9.4838    160.2862    243.3184   1.2681012302e+02   8.7034308778e+00     0.102388   0.06813625  11.50 0.0004483379    1.591    0.371
        61 -11.5678      4.4570     89.6852   1.4643055484e+02   5.6066576665e+01    0.3492608    0.1603122 -15.53   0.00157587    3.520    0.716
        62 -12.5934    147.3963    189.2573   1.2224279554e+02   1.7802188584e+01     0.429482    0.2353403  16.71  0.001702687    2.609    0.617
        63 -10.8000    142.8088     80.1734   9.9554382364e+01   3.8193719570e+01    0.2214527    0.2075678 -47.50 0.0006328775    1.149    0.130
        64 -14.4338    148.2648     57.6830   9.1085077757e+01   4.0752860214e+01     1.213443    0.9831552  -7.00  0.000931024    1.284    0.221
        65 -10.1292    160.1453    247.7964   1.2732836061e+02   8.2073961233e+00    0.2068683    0.1184258   9.91  0.001211043    2.360    0.576
        66 -13.2486    162.5712     34.6468   8.0374982325e+01   4.0461577372e+01    0.4872623     0.426587   3.89 0.0009238575    1.154    0.134
        67 -10.7915     13.4298     59.8669   1.3884676468e+02   6.2736116027e+01    0.1819364      0.16709  62.05 0.0004122129    1.257    0.205
        68 -11.3241    168.3816    244.5011   1.2555872503e+02   7.5392756937e+00    0.1807911    0.1336139   7.45 0.0006261299    1.356    0.262
