#   1 NUMBER                 Running object number                                     
#   2 MAG_AUTO               Kron-like elliptical aperture magnitude                    [mag]
#   3 X_IMAGE                Object position along x                                    [pixel]
#   4 Y_IMAGE                Object position along y                                    [pixel]
#   5 X_WORLD                Barycenter position along world x axis                     [deg]
#   6 Y_WORLD                Barycenter position along world y axis                     [deg]
#   7 A_WORLD                Profile RMS along major axis (world units)                 [deg]
#   8 B_WORLD                Profile RMS along minor axis (world units)                 [deg]
#   9 THETA_WORLD            Position angle (CCW/world-x)                               [deg]
#  10 FWHM_WORLD             FWHM assuming a gaussian core                              [deg]
#  11 ELONGATION             A_IMAGE/B_IMAGE                                           
#  12 ELLIPTICITY            1 - B_IMAGE/A_IMAGE                                       
         1  -9.9507      3.8705     30.6966   1.1595109186e+02   6.8964745138e+01    0.6475651   0.07446234 -52.23  0.002453136    3.554    0.719
         2  -8.5476     84.6534     21.5626   7.8688991327e+01   6.0676414532e+01    0.2433086    0.1866093 -22.94 0.0004539033    1.160    0.138
         3  -9.4189     19.3693     19.7205   1.0473136953e+02   7.0140506627e+01    0.3402504    0.1333636 -50.07  0.001607488    1.872    0.466
         4  -8.4897     80.5554     12.7150   7.5699265161e+01   6.2732534535e+01    0.3182957    0.1868711 -49.36 0.0008295135    2.277    0.561
         5  -8.7998     50.5137     12.1986   8.6644676855e+01   6.7907942805e+01    0.3152063    0.2271799 -57.28  0.001755627    2.006    0.502
         6  -7.9007    163.0257     11.7195   5.6715458275e+01   4.3185723213e+01    0.2738064    0.1269734  25.14 0.0008820869    3.402    0.706
         7  -8.6082     15.8207     10.8456   1.0265144931e+02   7.2120110790e+01    0.1754899    0.1191054 -35.47 0.0002618427    1.160    0.138
         8  -9.3555     38.8407      6.9436   8.9011807981e+01   7.0340316652e+01    0.2577535    0.2270855  46.96  0.001490121    1.629    0.386
         9  -9.5568     14.1406      3.4394   9.9885441172e+01   7.3594352028e+01    0.4819794    0.1619948 -39.63  0.002279736    2.334    0.571
        10  -7.9367     18.2855      2.7018   9.7165185144e+01   7.3345038750e+01    0.1632604    0.1267227 -21.05 0.0003899904    1.137    0.121
        11  -8.4720     60.0072      2.9268   7.7683238772e+01   6.7748830559e+01    0.1890805    0.1592248  -9.26   0.00121172    1.053    0.050
        12  -8.6520     40.4308      1.9129   8.5383336637e+01   7.0891934651e+01    0.3715112    0.1509262  31.01  0.001663691    3.127    0.680
        13  -7.7807     67.5509      1.5407   7.4118863974e+01   6.6596425885e+01    0.1312048    0.1092218  -5.97 5.492662e-05    1.016    0.016
        14  -7.9890    146.5293    242.4488   1.1397329434e+02   8.9599749041e+00    0.1066613   0.07945626  46.14 8.486077e-05    1.027    0.026
        15  -9.5582    249.0154    249.7412   9.9288770067e+01  -6.4778446665e+00    0.3523056    0.1161443  37.53  0.001991022    2.187    0.543
        16  -9.5779    245.4795    247.4906   9.9490246854e+01  -5.8269894026e+00    0.1696145    0.1303276  16.73  0.001424779    1.162    0.139
        17  -9.9014    233.6297    249.7499   1.0151124675e+02  -4.3940395081e+00    0.1989443      0.13541  34.28 0.0004056282    1.144    0.126
        18  -8.5012    227.0771    250.6273   1.0258439245e+02  -3.5624602348e+00    0.2103194   0.07592515  46.75  0.001114875    2.579    0.612
        19  -9.2390    208.1217    249.6284   1.0527150985e+02  -8.0254753452e-01    0.1459095    0.1346791  21.45 0.0008368898    1.358    0.264
        20  -9.6132    192.9584    248.6356   1.0744337700e+02   1.4762765615e+00     0.213175     0.158827  -2.25  0.001150849    1.685    0.407
        21  -8.6780    188.5010    250.3480   1.0832344388e+02   1.9481590332e+00    0.2121251   0.07499899  39.87  0.001146655    2.113    0.527
        22  -9.2953    186.5348    244.9800   1.0799302785e+02   2.7901322951e+00    0.1799673    0.1386176   9.02  0.001391985    1.514    0.339
        23  -9.0863    184.4523    249.4807   1.0884037242e+02   2.6233490304e+00    0.2055882    0.1356404  26.53 0.0009258702    1.455    0.313
        24  -8.8051    180.6910    249.6496   1.0943514606e+02   3.1513076990e+00    0.1830482    0.1369071  12.77 0.0008774131    1.586    0.370
        25  -9.0532    175.0238    250.2626   1.1037237386e+02   3.9076485887e+00    0.1562999    0.1028234  42.16  0.001158598    1.110    0.099
        26  -9.8307      4.9151    248.8397   1.3569657965e+02   2.5300438742e+01    0.1890608     0.111601  81.29  0.001475214    1.314    0.239
        27  -8.2335    201.4530    239.8298   1.0505172124e+02   1.1227116038e+00    0.1952569    0.1070921  21.28   0.00100431    2.168    0.539
        28  -7.4296    114.2815    242.3556   1.1906228067e+02   1.3556160159e+01    0.0894468   0.07655865  22.50 0.0002974909    1.662    0.398
        29  -8.6220    184.0557    235.2114   1.0718992222e+02   4.2219836793e+00    0.2231827    0.1365045  16.05  0.001337494    2.271    0.560
        30  -9.9740    188.5914    232.6817   1.0614937602e+02   3.8160037557e+00    0.3538528    0.2409222 -35.07  0.002368012    1.880    0.468
        31  -7.4299    214.5297    239.4700   1.0299864220e+02  -7.6503879772e-01    0.1081801   0.07804181  29.75 0.0001038822    1.035    0.034
        32  -7.5810    130.5481    234.5251   1.1572551041e+02   1.2313397066e+01    0.1072785   0.08257583  49.29 0.0001675248    1.056    0.053
        33  -7.8687    170.5071    233.4773   1.0914134478e+02   6.4792727608e+00    0.1106414   0.08378632  37.06 0.0001404599    1.092    0.084
        34  -8.0705    194.9896    236.9201   1.0568365172e+02   2.3876868307e+00    0.1657979    0.1085106  17.69 0.0009527481    1.705    0.413
        35  -7.6073    248.7199    232.6896   9.6924847875e+01  -5.0580839048e+00    0.1067604   0.06131143  17.40 0.0002209814    1.563    0.360
        36  -7.8772    178.6093    235.1405   1.0804669687e+02   5.0548417175e+00    0.1262031   0.09842855 -11.25 0.0004894236    1.685    0.407
        37  -7.7843      4.3594    228.6854   1.3515835613e+02   2.8415189444e+01     0.104093   0.04068267  62.74 0.0007043175    1.751    0.429
        38  -7.8362    241.5792    230.1460   9.7607952619e+01  -3.8258135400e+00    0.1391663   0.08552782  -2.10 0.0008116125    1.742    0.426
        39  -7.5954    109.3172    227.3182   1.1850621545e+02   1.6376366338e+01   0.09498861   0.08077174  23.40 0.0004074266    1.656    0.396
        40  -8.4971    159.3506    235.8470   1.1121255222e+02   7.8782961717e+00    0.2237762    0.1144808  32.79  0.001293061    1.998    0.499
        41  -7.7848    126.9916    225.2597   1.1536125176e+02   1.4123875693e+01     0.143526   0.07581645  45.30 0.0005037445    1.487    0.328
        42  -7.6377    147.5338    221.4855   1.1149128234e+02   1.1546948875e+01    0.1129525    0.0893633  47.47 0.0001306907    1.013    0.013
        43  -8.3422      8.4622    220.7767   1.3427293118e+02   2.9309202313e+01    0.1724616   0.07028133 -89.57  0.001143472    2.059    0.514
        44  -7.7811    242.4388    219.7896   9.5917309467e+01  -3.0072482063e+00    0.1382853   0.08894745  -1.40 0.0005249796    1.582    0.368
        45  -7.8059    195.0048    218.0263   1.0313362663e+02   4.4926194516e+00    0.1311111    0.1124844  24.99 0.0003619419    1.113    0.102
        46  -7.7123    150.8013    216.4017   1.1032181477e+02   1.1741460514e+01    0.1549115   0.09043155  37.37 0.0003043958    1.543    0.352
        47  -7.7297    248.6059    215.1696   9.4261773870e+01  -3.4863930325e+00    0.1411329   0.08785138  -3.10 0.0003011008    1.624    0.384
        48  -7.6015    204.5422    215.5267   1.0121785820e+02   3.2639808561e+00    0.1159665   0.08938379  28.74 0.0002665379    1.053    0.050
        49  -7.7524    170.4084    210.7370   1.0622632755e+02   9.3736049785e+00    0.1405237    0.1103009 -22.33 0.0009457506    1.628    0.386
        50  -7.9317    186.6537    210.7076   1.0346743203e+02   6.7263326619e+00    0.1184726   0.07842711  21.52 0.0006488788    1.664    0.399
        51  -8.0321    108.3504    209.3018   1.1688582314e+02   1.9295893086e+01    0.1019917   0.08674365  19.11 0.0007039066    1.696    0.410
        52  -7.7742     77.8164    209.3480   1.2224116000e+02   2.3519571106e+01    0.1392911   0.08946831  40.20 0.0003058991    1.590    0.371
        53  -7.7350    147.0231    208.4735   1.0997624171e+02   1.3476338729e+01    0.1702978   0.09598175  43.64 0.0003734992    1.462    0.316
        54  -7.4937    139.6771    204.7181   1.1079366082e+02   1.5214555998e+01    0.1098582   0.08610819  22.20 0.0002805325    1.592    0.372
        55  -8.5438    250.4917    198.1194   9.1149078726e+01  -2.1248492397e+00     0.269058    0.1039545 -20.63  0.001255775    3.073    0.675
        56  -7.2906    238.2778    198.6759   9.3133671668e+01  -2.6855520210e-01   0.09523391   0.09361825  61.34 0.0005260474    1.586    0.370
        57  -8.4789    230.7288    197.9188   9.4199461989e+01   1.0237943256e+00    0.2145207    0.1304102  22.15 0.0006394644    1.552    0.355
        58  -7.4794    210.6863    198.6792   9.7589695412e+01   4.2335485452e+00    0.1228513   0.07980725  16.83 0.0007039179    1.654    0.395
        59  -7.8142    150.8698    198.1945   1.0791785720e+02   1.4386344022e+01    0.1568419    0.1275298  30.06 0.0004513506    1.287    0.223
        60  -7.7018    243.7663    196.6118   9.1923676534e+01  -9.2100734890e-01    0.1179712   0.07331672   7.65 0.0006908056    1.639    0.390
        61  -7.6583    203.3629    194.7920   9.8179320378e+01   5.9467991072e+00     0.153867    0.1082829 -15.96 0.0005279153    1.640    0.390
        62  -7.7763    224.7031    189.6164   9.3743992359e+01   2.9622894703e+00    0.1281056   0.08038394  12.10 0.0007018839    1.768    0.434
        63  -7.6188    173.3155    187.7201   1.0228962506e+02   1.2124501882e+01    0.1185814    0.0919221  68.32 0.0002762778    1.573    0.364
        64  -8.7619    230.1550    184.9503   9.2027321021e+01   2.5909686530e+00    0.1994244    0.1489258  29.62 0.0004250626    1.131    0.116
        65  -8.4083    250.0752    182.1938   8.8368395166e+01  -4.0087856263e-01    0.1835902    0.1288103  17.23 0.0003432084    1.213    0.176
        66  -7.4617    211.5035    181.5344   9.4514213525e+01   6.2328560210e+00    0.1262218    0.1049616  23.20 0.0001691561    1.021    0.021
        67  -7.7207    182.7562    179.9549   9.9290664392e+01   1.1591170431e+01    0.1502484     0.108045 -35.89 0.0006001951    1.566    0.361
        68  -8.0863    176.7366    176.9648   9.9875276263e+01   1.3129007845e+01    0.1709304    0.1604166   6.23 0.0005961613    1.126    0.112
        69  -8.1796    242.3210    176.0224   8.8426005530e+01   1.5709765696e+00    0.1986072   0.08973897  -7.51 0.0007050024    4.356    0.770
        70  -8.3694    246.9602    167.0255   8.5956773655e+01   1.8234264494e+00     0.212211    0.1270715  16.28 0.0009207433    1.754    0.430
        71  -7.8904     65.0125    141.4865   1.1755158164e+02   3.8359713908e+01    0.1678518   0.08593398  62.60 0.0003944938    2.175    0.540
        72  -8.5607    241.8030    132.6082   7.9487776753e+01   7.0764620560e+00    0.2598499    0.1000433 -26.41  0.001019841    2.567    0.610
        73  -8.4975    232.0184    128.3240   8.0074603390e+01   9.5947507686e+00    0.2636448    0.1761696   2.91  0.001222216    1.705    0.413
        74  -8.7044    182.0000    124.5105   8.8171205612e+01   2.0743446595e+01    0.3221146   0.08179745 -38.03 0.0009387014    3.967    0.748
        75  -8.6023    248.2738    116.2835   7.4705744596e+01   7.9820579036e+00    0.3314125    0.1851926   2.96  0.001371976    2.537    0.606
        76  -8.6538    240.4867    116.0103   7.5823988299e+01   9.5894019454e+00    0.2135696    0.1262709 -25.26 0.0005551611    1.561    0.359
        77  -9.7777    219.7020    113.6474   7.8607822724e+01   1.4304650174e+01    0.4759398    0.2428884  24.74  0.001702722    3.123    0.680
        78  -8.4569    249.8163    106.1250   7.2033161427e+01   9.0297297039e+00      0.19799    0.1496347   4.64  0.001067248    1.327    0.246
        79  -8.8398    241.4875    105.9423   7.3218458055e+01   1.0774503990e+01    0.2178142    0.1276557 -24.91 0.0009470274    1.564    0.361
        80  -8.4837    217.6240    106.6905   7.7214017539e+01   1.5815505053e+01    0.1572542    0.1063948  17.53 0.0002670235    1.782    0.439
        81  -8.4970    190.3986    105.8067   8.1875635821e+01   2.2105410056e+01    0.2147913    0.1404941 -21.28  0.000687978    1.679    0.405
        82  -7.7430    154.6990    106.3257   8.9359860749e+01   3.0070997683e+01    0.1517393    0.1185016 -77.62 0.0003337914    1.637    0.389
        83  -8.8743      4.3351    106.0642   1.2829001465e+02   5.2172667815e+01    0.1707638    0.1157345 -83.84 0.0009464875    1.085    0.078
        84  -9.0086    193.8452    110.7109   8.2486255146e+01   2.0494105214e+01    0.2460707    0.1811194  29.03  0.001058281    1.468    0.319
        85  -9.2300    133.9780    108.8511   9.4743352320e+01   3.3969836917e+01    0.4610088     0.180936 -52.87  0.001568753    2.897    0.655
        86  -8.9574    187.0006    102.0012   8.1524948194e+01   2.3538510519e+01    0.1923207    0.1743629 -25.44 0.0009048221    1.068    0.064
        87  -8.4598    248.5176     96.9792   6.9959566535e+01   1.0529078414e+01    0.2097041    0.1138001  -2.37 0.0008104044    2.641    0.621
        88  -9.0716    203.2068     95.7830   7.6853464203e+01   2.0808852209e+01    0.3551449   0.09233885 -38.46  0.001038918    3.536    0.717
        89  -8.6970    183.0000     95.9708   8.0672905669e+01   2.5515854847e+01    0.2577727   0.08472189 -34.98 0.0008039454    2.953    0.661
        90  -8.6194    170.3292     95.5790   8.3119324753e+01   2.8551923977e+01    0.2661571    0.1827293 -15.02 0.0007623981    1.808    0.447
        91  -7.6693    182.3470    108.3388   8.4097065740e+01   2.3500069414e+01    0.1597147    0.1154228  12.35  0.000704719    1.784    0.439
        92  -9.6853    188.8809     94.2308   7.9060633009e+01   2.4430246548e+01    0.4157594    0.1703493 -47.98   0.00135194    3.048    0.672
        93  -9.3498    177.1498     91.9836   8.0724652312e+01   2.7595690765e+01     0.391376     0.184237 -21.70  0.001256108    3.164    0.684
        94  -8.5935     22.8959     91.7867   1.2142328713e+02   5.4057691988e+01    0.2034982    0.1352078 -72.26 0.0003722273    1.158    0.137
        95  -8.8831    242.2364     91.0155   6.9344347188e+01   1.2683246165e+01    0.1951884    0.1093115 -26.76 0.0005984495    1.606    0.377
        96  -8.9155      3.7830     91.5657   1.2692984337e+02   5.5454944523e+01    0.1409175    0.0958996  52.41 0.0007149348    1.640    0.390
        97  -7.7685    168.4756     89.4833   8.1790072701e+01   3.0096304857e+01    0.1537803    0.1477938 -15.03  0.000203164    1.022    0.021
        98  -8.2348    224.6621     88.6955   7.1369484715e+01   1.6934547269e+01    0.1540138    0.1084889  17.29 0.0004809899    1.672    0.402
        99  -8.5218    216.3031     92.3698   7.3694599684e+01   1.8304632287e+01    0.1584143    0.1106151  11.18 0.0007033018    1.748    0.428
       100  -7.8812    150.4970     86.5370   8.4851991698e+01   3.4841888440e+01    0.1532155    0.1474289 -18.71 0.0001940892    1.041    0.040
       101  -8.9612    212.2071     84.2179   7.2150364813e+01   2.0511601070e+01    0.2047072    0.1742769 -56.18 0.0005327935    1.315    0.240
       102  -8.4602    158.1006     81.7843   8.1751464657e+01   3.3962878184e+01    0.4036841    0.2133069 -20.17  0.001381082    2.807    0.644
       103  -7.7915    170.4980     81.5081   7.9047048307e+01   3.1043827320e+01    0.1554242    0.1486175 -13.26 0.0008104881    1.027    0.026
       104  -8.3684      2.7755     81.5524   1.2602961824e+02   5.7771775408e+01    0.1352942   0.09944113  54.37 0.0004449259    1.563    0.360
       105  -7.7508    175.3241     80.3257   7.7721279533e+01   3.0079556103e+01    0.1621369    0.1201979  14.32 0.0007048656    1.690    0.408
       106  -8.5932    214.5256     79.5176   7.0466789169e+01   2.0674688631e+01    0.1516095    0.1395659 -10.82  0.000809679    1.030    0.029
       107  -9.3727    184.1323     77.6144   7.5207743169e+01   2.8382553007e+01    0.3041247    0.2253419 -21.45  0.000762862    1.374    0.272
       108  -8.7576    219.5190     76.9871   6.8975997438e+01   1.9861837818e+01     0.216573    0.1269032  -0.19  0.000809946    2.517    0.603
       109  -8.3276    167.0174     76.7123   7.8320650308e+01   3.2736172766e+01    0.3263324    0.2012159  -3.57  0.001172244    2.687    0.628
       110  -7.5813     54.5384     76.5624   1.0866903661e+02   5.4410879680e+01    0.1329199    0.1110617 -63.98 -1.393634e-05    1.027    0.026
       111  -8.2002    174.4506     75.5065   7.6447615981e+01   3.1124643314e+01    0.1561053    0.1481173 -13.00  0.000131005    1.032    0.031
       112  -8.4125    212.3160     74.3246   6.9355543424e+01   2.1987133278e+01    0.1577269    0.1135504  16.77 0.0007043427    1.668    0.401
       113  -8.9838    211.7807     69.8251   6.8151602691e+01   2.2788397264e+01    0.2744377    0.1539978  20.61  0.000964314    2.915    0.657
       114  -8.1484    102.7342     70.0049   9.1979827304e+01   4.8333245069e+01     0.237403    0.1644647 -70.97 0.0006153435    1.946    0.486
       115  -7.9085    133.3376     68.1682   8.3226603338e+01   4.2278224713e+01    0.3165399    0.1404158 -30.56  0.001084196    2.566    0.610
       116  -7.4532     36.3177     67.6794   1.1260277836e+02   5.8409186937e+01     0.124825   0.08924154  84.50 0.0004607596    1.663    0.399
       117  -7.4850    139.3015     66.3640   8.1187766819e+01   4.1243942467e+01    0.1607509    0.1207548   4.61 0.0007035463    1.729    0.422
       118  -7.4122    151.3273     65.3502   7.8088865896e+01   3.8565332151e+01    0.1646185    0.1210534  11.98 0.0007048563    1.761    0.432
       119  -7.3631    164.3165     63.3537   7.4670892711e+01   3.5707322664e+01    0.1654895    0.1205367  14.28 0.0007046226    1.741    0.426
       120  -8.0936    208.6535     62.3122   6.6446150889e+01   2.4665920650e+01     0.160267    0.1127935 -60.76 0.0007046292    1.712    0.416
       121  -8.8062    205.5112     60.5094   6.6398326218e+01   2.5716083451e+01     0.153086    0.1438753 -18.45 0.0008104555    1.017    0.017
       122  -8.3691    194.5435     60.4916   6.8165491461e+01   2.8495196705e+01    0.1548489    0.1459236 -10.84 7.116774e-05    1.039    0.038
       123  -8.1754      1.4497     59.4828   1.2324470110e+02   6.2806815797e+01    0.1173849   0.08620275 -74.00 1.657582e-05    1.064    0.060
       124  -8.4152     66.2191     58.1690   9.9607418584e+01   5.6955562958e+01    0.1986913    0.1608415 -38.86 0.0004316281    1.135    0.119
       125  -9.5139     33.3048     57.4722   1.1115245787e+02   6.0989503409e+01     0.230351    0.1740629 -51.65 0.0002900782    1.104    0.094
       126  -8.4962    126.0560     55.0673   8.0565544173e+01   4.6352465356e+01    0.2348073    0.2151371 -40.36 0.0004504045    1.066    0.062
       127  -9.3884     94.9136     52.7002   8.8398240998e+01   5.3300369093e+01    0.2937496     0.207724 -43.73 0.0005561561    1.291    0.226
       128  -7.6641    176.2901     53.6627   6.9187711285e+01   3.4218041504e+01     0.162746    0.1157674 -58.20 0.0007022545    1.639    0.390
       129  -8.3190     44.2921     51.8789   1.0547266497e+02   6.1097548464e+01    0.1868632    0.1743648  64.63 0.0004566489    1.320    0.242
       130  -9.3251     96.2824     45.6255   8.5322780214e+01   5.4374768581e+01    0.2846832    0.2404625 -15.23  0.001073752    1.186    0.157
       131  -7.4266    116.0060     43.9545   7.9052443400e+01   5.0554615199e+01    0.1782062    0.1567552 -27.13  0.000945879    1.055    0.052
       132  -8.0500     54.5716     44.1839   9.9026671652e+01   6.1478935843e+01    0.1936867    0.1032055 -41.12 0.0004635249    1.629    0.386
       133  -8.3072      3.3401     44.3203   1.1958926158e+02   6.6064478166e+01    0.1238332   0.06251594 -45.81 0.0004268311    1.716    0.417
       134  -8.2167    188.6897     43.3307   6.3697716651e+01   3.2493576487e+01    0.1633386     0.112204 -57.72 0.0007042142    1.669    0.401
       135  -8.7453     10.1478     41.6011   1.1612910601e+02   6.6270075658e+01    0.2248508    0.1223432 -73.82  0.001255958    1.717    0.418
       136  -8.1676     77.1900     40.1593   8.9319073934e+01   5.8872494086e+01    0.2063704    0.1673338 -20.17 0.0003833867    1.203    0.169
       137  -8.3581     41.4703     39.7254   1.0254617408e+02   6.3979942905e+01    0.2285267    0.1070985 -54.78 0.0005714219    1.829    0.453
       138  -8.7330     21.1353     40.0828   1.1108715423e+02   6.5829014875e+01    0.1807575    0.1403365 -57.83 0.0004191297    1.069    0.064
       139  -8.2074     74.0353     45.6437   9.2538965385e+01   5.8341688330e+01    0.1809136    0.1681074 -12.26 0.0003654837    1.125    0.111
       140  -7.8893     73.4804     37.5365   8.9539558185e+01   5.9982160505e+01    0.1381915     0.119789 -34.71 0.0002397889    1.050    0.048
       141  -7.4268      8.2966     37.2932   1.1578999155e+02   6.7310849037e+01    0.1199793   0.06558967 -44.07 0.0002342345    1.561    0.360
       142  -7.9169     92.3137     36.7130   8.2966962462e+01   5.6737992658e+01    0.1841705    0.1337662  32.84 0.0002354976    1.513    0.339
       143  -8.4003     94.9254     33.8241   8.0950507520e+01   5.6712746674e+01    0.2155725    0.1741053  -1.25 0.0004204949    1.300    0.231
       144  -9.1272     15.3028     34.3344   1.1186284565e+02   6.7484078959e+01    0.2235273    0.1692721 -88.03 0.0009674926    1.640    0.390
       145  -9.0525     17.5656     32.4657   1.1026102130e+02   6.7710918608e+01    0.1788223    0.1565377   0.20 0.0008540851    1.405    0.288
       146  -7.1709    124.5202     34.5635   7.3174779766e+01   5.0117402395e+01    0.1500168     0.139109  -2.06 0.0001856501    1.033    0.032
       147  -9.4658    201.7957    249.1463   1.0616452416e+02   1.4983540458e-01     0.274512    0.1368977  27.14   0.00116603    2.055    0.513
       148  -8.2793    155.7717     24.9807   6.2856337628e+01   4.3597790874e+01    0.2946323     0.123626  34.50  0.000891902    3.593    0.722
       149  -8.4409     91.3399     24.9582   7.8155406028e+01   5.8846419739e+01     0.207589     0.198449  57.51 0.0004250719    1.261    0.207
       150  -7.7897    172.3501     24.6680   5.9962967038e+01   3.9245845161e+01    0.1650801    0.1093018 -58.99 -8.620715e-05    1.774    0.436
       151  -8.8528     21.9259     31.9877   1.0814724586e+02   6.7467332442e+01    0.1793139    0.1365002 -47.64 0.0002908907    1.017    0.017
       152  -7.8622    137.4633     21.9730   6.5194094048e+01   4.8690670178e+01    0.2123836    0.1414275 -25.44 5.422091e-05    1.448    0.310
       153  -8.5446    144.1708    248.8002   1.1498296247e+02   8.5231076954e+00    0.2051166    0.1289904 -17.98  0.001096101    4.334    0.769
       154  -7.8851     10.0095     27.4927   1.1211744249e+02   6.9270502396e+01    0.1360214    0.1134125  -3.28 0.0003636642    1.471    0.320
       155  -7.5867    161.3825     18.8751   5.9621403159e+01   4.2845343044e+01    0.2081098    0.1407806  -4.32 0.0008406442    1.640    0.390
       156  -7.7007    151.7100     18.2739   6.1031133901e+01   4.5465775996e+01    0.1472635     0.111708 -58.89 0.0001997974    1.515    0.340
       157  -7.4300    128.6330    249.2536   1.1743438646e+02   1.0661179294e+01    0.1061223   0.05923746  58.63 0.0006962381    1.630    0.387
       158  -8.7114     74.7410     16.2152   7.9408547445e+01   6.3328395137e+01    0.1981547     0.190789  52.43  0.000861514    1.328    0.247
       159  -8.4075    146.1875     14.2435   6.0435082147e+01   4.7359967962e+01    0.2111444    0.1870596  28.40 0.0003742367    1.111    0.100
       160  -9.9789    156.7198    245.6030   1.1270106251e+02   7.0940064786e+00    0.2739303    0.2035949   3.95  0.001954042    2.092    0.522
       161  -7.1733     62.6651    247.6768   1.2738434254e+02   1.9418265410e+01   0.07938842    0.0729285  41.47 0.0003775739    1.710    0.415
       162  -8.0630    151.1392     12.7962   5.9010987748e+01   4.6222169103e+01    0.2060127    0.1620357  27.21 0.0004316093    1.314    0.239
       163  -8.6193    186.3126    240.2972   1.0746271667e+02   3.3229851509e+00    0.1692274    0.1266645  -7.82  0.001252049    1.747    0.428
       164  -7.2867    130.2632     11.6932   6.2401282907e+01   5.1704477638e+01    0.1429943    0.1075031 -51.20 0.0001810307    1.527    0.345
       165  -8.2687    211.7810    246.3382   1.0430828654e+02  -1.0183441753e+00    0.1521705   0.07002564  36.18 0.0004894034    1.637    0.389
       166  -9.5055    171.2304    245.8206   1.1046203946e+02   4.9466747957e+00     0.158895    0.1182459  47.13  0.001228812    1.128    0.113
       167  -9.5420    168.6187    242.3713   1.1048092728e+02   5.7216876123e+00    0.1957777    0.1328636 -45.38  0.001433544    1.978    0.494
       168  -8.8424    164.9604    246.0631   1.1146457997e+02   5.8375612924e+00     0.160861    0.1178307  40.99 0.0003639151    1.046    0.044
       169  -7.5464    136.3378    246.2637   1.1595654418e+02   9.9516288204e+00   0.09776769   0.06895012  30.37 0.0004060323    1.588    0.370
       170  -7.5255    119.3590    246.3057   1.1861198741e+02   1.2328401816e+01    0.0955302   0.07236012  27.22 0.0007039965    1.727    0.421
