#   1 NUMBER                 Running object number                                     
#   2 MAG_AUTO               Kron-like elliptical aperture magnitude                    [mag]
#   3 X_IMAGE                Object position along x                                    [pixel]
#   4 Y_IMAGE                Object position along y                                    [pixel]
#   5 X_WORLD                Barycenter position along world x axis                     [deg]
#   6 Y_WORLD                Barycenter position along world y axis                     [deg]
#   7 A_WORLD                Profile RMS along major axis (world units)                 [deg]
#   8 B_WORLD                Profile RMS along minor axis (world units)                 [deg]
#   9 THETA_WORLD            Position angle (CCW/world-x)                               [deg]
#  10 FWHM_WORLD             FWHM assuming a gaussian core                              [deg]
#  11 ELONGATION             A_IMAGE/B_IMAGE                                           
#  12 ELLIPTICITY            1 - B_IMAGE/A_IMAGE                                       
         1 -13.1649     65.1912    141.3585   1.3445573814e+02   3.8748946464e+01     2.285494     1.036785  89.59  0.003742449    5.267    0.810
         2 -12.7180      2.3527     41.3391   1.3464344496e+02   6.6316544308e+01     2.169738     0.109602 -63.00  0.005135622    9.839    0.898
         3 -13.8862      6.4621     11.1401   1.2293895716e+02   7.1725047437e+01     1.842077    0.8628148 -43.15   0.01124247    1.535    0.348
         4 -14.3334    195.5377     14.5036   6.9949153973e+01   3.4274935632e+01     2.776754     1.649603  26.07   0.01200273    2.303    0.566
         5 -11.2580    197.2560    242.9393   1.2292494066e+02  -6.2367819690e-01    0.4934421    0.3114129 -64.19  0.002648734    3.494    0.714
         6 -11.6063    140.1884    249.8145   1.3324429678e+02   7.5059563539e+00    0.4203156    0.1709004  46.21  0.002284879    1.851    0.460
         7 -11.2457     82.1541    249.1857   1.4258957148e+02   1.5969868621e+01    0.2827635    0.1404224  58.32  0.001217735    1.590    0.371
         8 -10.8652     46.3012    248.4028   1.4807014208e+02   2.0557893845e+01    0.3128073    0.1584885  79.07  0.001095483    1.781    0.439
         9 -11.8147     35.6369    244.1293   1.4943569836e+02   2.2441317709e+01    0.4439279    0.3762812 -68.32  0.003881281    1.774    0.436
        10 -10.7850     28.9060    249.0919   1.5067839826e+02   2.2388868092e+01    0.2057872    0.1648808  79.04 0.0003397724    1.338    0.253
        11 -10.5666     29.4852    243.0904   1.5030008795e+02   2.3277656519e+01    0.2727544    0.1895457  71.02  0.001178543    1.055    0.052
        12 -14.7481      7.2707    239.2541   1.5338001421e+02   2.6151023718e+01     3.775642    0.6794103 -72.18   0.01844676    4.488    0.777
        13 -13.7600     11.2644    206.8860   1.5129863810e+02   3.1312758111e+01     1.106214    0.7565225  78.00  0.004333182    1.026    0.025
        14 -15.4583     42.2728    196.1414   1.4524004382e+02   3.0116764271e+01     10.68709     4.219011  71.95   0.04878128    3.194    0.687
        15 -10.8824    233.3384    236.3761   1.1605666434e+02  -5.5568927376e+00    0.3137751    0.1993529 -55.43  0.001651986    3.743    0.733
        16  -9.1002     23.6329    234.2056   1.5073608534e+02   2.5344588923e+01    0.1196124   0.07415582 -78.60 0.0002730056    1.560    0.359
        17 -12.6750     47.1607    233.6622   1.4705287873e+02   2.2838910375e+01    0.2878337    0.2280396 -88.27 0.0007952948    1.328    0.247
        18  -9.8631    177.0806    227.0089   1.2415598751e+02   4.6641524521e+00    0.1982084    0.1641063  84.41 0.0009341773    1.655    0.396
        19 -11.1272    173.1750    221.4154   1.2405337071e+02   6.0945570632e+00    0.3753562    0.2661916  62.09  0.001506206    1.609    0.378
        20 -10.1055    161.7990    226.6054   1.2678291989e+02   7.2759554424e+00     0.180875   0.09199081  50.45 0.0009578165    1.715    0.417
        21  -9.9547     95.0039    241.0051   1.3985010077e+02   1.5470612672e+01    0.1635855    0.1266542  61.26 0.0003667054    1.059    0.056
        22  -9.8328     27.3136    221.2708   1.4947696299e+02   2.7156864012e+01    0.2131997    0.1040448  61.79  0.000810548    1.572    0.364
        23  -8.5787    152.4684    212.9698   1.2660332400e+02   1.0889716060e+01    0.1501099    0.1237554 -55.10 0.0003411907    1.448    0.309
        24 -10.1559     32.3895    205.6555   1.4767715665e+02   2.9416529868e+01    0.2341718    0.1464227  63.54 0.0009902328    1.248    0.199
        25 -11.5574     70.4463    198.6164   1.4024843336e+02   2.6181910683e+01    0.3127969    0.2614636 -72.16  0.001740799    1.345    0.256
        26 -11.6382     75.5011    191.1806   1.3852119528e+02   2.6928059564e+01    0.2505529    0.2164614 -60.71 0.0008450337    1.437    0.304
        27 -10.3347    194.3436    198.0040   1.1655079892e+02   5.7179253119e+00    0.3109487    0.1980466 -69.51  0.001344415    3.551    0.718
        28 -11.0029     84.0563    178.5229   1.3534316491e+02   2.8232498097e+01    0.2237401    0.1907456  86.75 0.0003835076    1.067    0.063
        29 -13.2262     71.7733    176.3003   1.3759925241e+02   3.0403435131e+01    0.4320399    0.2635379 -45.51  0.001602584    2.299    0.565
        30  -9.4147    173.2139    174.9568   1.1646022765e+02   1.3350770109e+01    0.1977622    0.1766173  71.17 0.0004723735    1.246    0.197
        31 -12.0519     90.8103    168.9513   1.3265716132e+02   2.9189216246e+01     0.791995    0.4918079  58.39  0.004300846    1.556    0.357
        32 -10.6000    153.4440    248.9374   1.3095810986e+02   5.5731020585e+00    0.3224564    0.1085616  54.14  0.001305741    3.647    0.726
        33 -10.2845    195.3273    159.1749   1.0899995928e+02   1.1602832667e+01    0.3275973    0.2599533 -79.00  0.001266439    1.863    0.463
        34 -10.0130    102.0899    152.4138   1.2760895990e+02   3.0888535198e+01    0.2739044    0.2466163 -72.82 0.0007768586    1.101    0.092
        35  -9.3424    104.5650    148.2016   1.2631224672e+02   3.1379124616e+01    0.2297847    0.1759464 -15.67  0.001109123    2.113    0.527
        36 -12.0931     91.0345    151.9563   1.3006021926e+02   3.2750550069e+01    0.2556424    0.2422472 -49.34 0.0005228129    1.271    0.213
        37  -9.5830    236.3353    151.6802   9.9909793497e+01   4.5254478114e+00    0.1285062    0.1105085 -70.85 0.0007049497    1.703    0.413
        38 -11.3880    184.2460    238.9900   1.2456705478e+02   1.9345960796e+00    0.3390431    0.1826145  52.99   0.00190592    1.865    0.464
        39 -12.8577     32.1787    142.2746   1.4227625521e+02   4.2274207380e+01    0.5575328    0.3184257 -62.52  0.003325898    1.553    0.356
        40  -8.7406    192.0082    144.0197   1.0637148078e+02   1.4883394701e+01    0.1705358     0.162019  -3.10 0.0004089955    1.047    0.045
        41 -10.2329    177.3877    140.5615   1.0855174113e+02   1.8643714014e+01    0.3326215    0.2554207  84.95 0.0008307435    1.828    0.453
        42  -9.8541     90.3730    138.9451   1.2802505118e+02   3.5695671107e+01    0.2419558    0.1669663  61.27  0.000758272    1.523    0.343
        43  -9.7417    111.9131    137.4631   1.2257604153e+02   3.2426219746e+01    0.3099172    0.2390551 -12.68  0.001378058    1.995    0.499
        44 -10.6959     99.8340    135.0622   1.2501869592e+02   3.5028719628e+01    0.3464907    0.2427559 -58.07  0.001091633    1.362    0.266
        45  -9.7252    170.5227    134.2296   1.0854565459e+02   2.1314633278e+01    0.2623652     0.220828  88.73 0.0008724107    1.460    0.315
        46  -8.6933    117.6343    129.6874   1.1960055293e+02   3.3068715859e+01    0.1435703     0.115697  -5.83  0.000703882    1.763    0.433
        47  -9.1826    108.6458    124.0549   1.2060306036e+02   3.5932380437e+01    0.1904966     0.167574 -59.60 0.0003829566    1.089    0.082
        48 -10.7928    168.0233    113.2542   1.0396345612e+02   2.5889658652e+01    0.3785526    0.3063535 -77.54   0.00100926    1.552    0.356
        49  -9.5822    145.6145    112.9880   1.0896239330e+02   3.0947935729e+01    0.4757529    0.2862175  78.28  0.001581841    3.543    0.718
        50  -9.0676    203.4342    111.5070   9.6344552877e+01   1.7996699220e+01    0.1514826    0.1416643   0.66 0.0001153194    1.049    0.047
        51  -8.7960    250.6795    171.6958   1.0170521972e+02  -8.8159014355e-01    0.1346495   0.08698593  12.16 0.0002527548    1.633    0.387
        52 -10.9010    131.0924    102.7818   1.0982883978e+02   3.6149339776e+01    0.6036822    0.3700418  75.05  0.001692544    3.002    0.667
        53  -8.4397     90.9540     98.0587   1.1926236699e+02   4.4711457767e+01    0.1623087    0.1454815 -56.83 0.0003007445    1.023    0.022
        54  -9.0141     77.9221     88.8940   1.2070663886e+02   4.8766872647e+01    0.1730882    0.1541605  87.31 0.0004239629    1.252    0.201
        55  -8.6643    184.4981     77.4784   9.0671950798e+01   2.8427390426e+01    0.1550431    0.1489457   8.84 0.0001478283    1.054    0.051
        56  -9.7892    154.4161     75.1984   9.6269549408e+01   3.6257812802e+01    0.2218173    0.1406487 -46.38 0.0004536578    1.638    0.389
        57  -9.6811     25.6939     69.1658   1.3258523053e+02   5.9021769313e+01    0.1699864    0.1570415  66.87 0.0004062025    1.328    0.247
        58 -13.9490     53.3962    224.1496   1.4540217359e+02   2.3711701940e+01     0.974242    0.5939387  86.25  0.005526395    1.448    0.309
        59  -9.9935    173.4956    248.4957   1.2758500636e+02   2.4813950928e+00    0.1142391   0.08639126  42.11 0.0008106582    1.006    0.006
