#   1 NUMBER                 Running object number                                     
#   2 MAG_AUTO               Kron-like elliptical aperture magnitude                    [mag]
#   3 X_IMAGE                Object position along x                                    [pixel]
#   4 Y_IMAGE                Object position along y                                    [pixel]
#   5 X_WORLD                Barycenter position along world x axis                     [deg]
#   6 Y_WORLD                Barycenter position along world y axis                     [deg]
#   7 A_WORLD                Profile RMS along major axis (world units)                 [deg]
#   8 B_WORLD                Profile RMS along minor axis (world units)                 [deg]
#   9 THETA_WORLD            Position angle (CCW/world-x)                               [deg]
#  10 FWHM_WORLD             FWHM assuming a gaussian core                              [deg]
#  11 ELONGATION             A_IMAGE/B_IMAGE                                           
#  12 ELLIPTICITY            1 - B_IMAGE/A_IMAGE                                       
         1 -14.8282    164.9545     50.1080   7.1399318146e+01   3.7827922110e+01    0.9980804    0.8858032   3.95  0.003776521    1.437    0.304
         2 -14.9864    180.0516     20.7279   6.1669725385e+01   3.7950321176e+01    0.8225845     0.709009  87.63  0.004457484    1.050    0.047
         3 -11.3926     99.5201    247.6404   1.2870797019e+02   9.0026995549e+00    0.1362336    0.1245229 -63.53 0.0005921593    1.293    0.226
         4 -11.4717    115.1674    249.8141   1.2575353063e+02   6.0862338268e+00    0.1612709    0.1253001 -51.49 0.0006702879    1.514    0.340
         5 -19.8766     71.6917    165.3481   1.2372518244e+02   3.2349973526e+01       18.526     6.576046 -63.65   0.06495208    2.759    0.638
         6 -11.0821    133.2545    195.0052   1.1344326191e+02   1.4621282091e+01    0.2041679    0.1919222 -83.75 0.0004134184    1.073    0.068
         7 -12.9028    150.3292    193.0838   1.0908725756e+02   1.1829032548e+01    0.3574263    0.2653258  42.57  0.001406407    1.310    0.237
         8 -13.8759    149.4373    187.8425   1.0829497403e+02   1.3176234330e+01    0.4656441    0.4031823 -55.74  0.001422265    1.180    0.153
         9 -13.7645    151.4486    180.8778   1.0645601872e+02   1.4363405440e+01    0.4292732    0.3780989 -78.23 0.0006845007    1.236    0.191
        10 -13.2025    164.2053    185.9152   1.0451032605e+02   1.0732559855e+01    0.3540358    0.2231058 -64.64  0.001478524    2.046    0.511
        11 -13.7560    163.4821    181.1131   1.0371194282e+02   1.1933747211e+01    0.4335136    0.2549323  49.31  0.001701637    1.781    0.439
        12 -12.1436     96.8253    239.3932   1.2828936763e+02   1.1104565259e+01     0.384026    0.2084799 -57.83  0.001902609    1.989    0.497
        13 -12.6828     31.2573    182.1936   1.3618581608e+02   3.3239444007e+01    0.2743727    0.2552463  53.00 0.0008811625    1.268    0.211
        14 -12.0865     28.4834    179.5084   1.3654056941e+02   3.4179394166e+01    0.2550518    0.2330926 -41.51 0.0007904727    1.383    0.277
        15 -14.5416    125.4935    172.1269   1.1102131977e+02   2.1483225524e+01    0.8545528    0.4630721  41.79  0.002288052    1.837    0.456
        16 -15.4722    143.1921    175.3401   1.0731051482e+02   1.7270936475e+01     1.039984    0.7449104 -41.00  0.004804639    1.475    0.322
        17 -13.8463    150.0274    173.3069   1.0525723176e+02   1.6381976083e+01    0.4363638    0.3264486  80.07  0.001565177    1.774    0.436
        18 -14.0820    186.9319    175.1142   9.7278840759e+01   8.5971539147e+00    0.4545612    0.4332358   9.84 0.0009018718    1.060    0.056
        19 -13.5660    185.5118    169.9969   9.6505700356e+01   9.9648376607e+00      0.42064    0.3019637 -47.89  0.001458101    1.372    0.271
        20 -15.1771    138.7109    168.7762   1.0706051383e+02   1.9702749621e+01    0.9999624    0.5322168  28.96  0.003462334    2.462    0.594
        21 -12.0081     26.0737    172.4512   1.3632543474e+02   3.6132546130e+01    0.3230239    0.2176199  43.30  0.001510282    1.596    0.373
        22 -13.9278    176.4330    169.9153   9.8468303582e+01   1.1807951746e+01    0.4465934    0.2958347 -35.57  0.001989539    1.599    0.375
        23 -12.8574    193.3854    170.4016   9.4923767298e+01   8.3175426288e+00    0.2792544    0.2624189 -63.84 0.0006930105    1.132    0.117
        24 -11.4272    135.7131    237.7921   1.1981121632e+02   5.0300281008e+00       0.2573    0.2079749  -2.05 0.0006237183    1.637    0.389
        25 -11.2597     20.0486    166.9465   1.3716489216e+02   3.8040474865e+01    0.1942886    0.1565096 -64.97 0.0007436728    1.172    0.147
        26 -12.5508    187.9929    164.4217   9.4783143301e+01   1.0654925214e+01    0.3052211    0.2117388 -59.79  0.001255712    1.638    0.390
        27 -14.4273    188.1641    248.1921   1.1049454643e+02  -5.5476576341e+00    0.7864696    0.2819808  38.64  0.003270113    2.481    0.597
        28 -16.2470    133.7581    145.9966   1.0335986851e+02   2.6123291962e+01     1.845093    0.9406768 -59.91  0.005984942    2.332    0.571
        29 -15.5773    136.0669    128.6597   9.8670387452e+01   2.9690502660e+01     2.251672    0.6594123 -53.74   0.00570923    4.584    0.782
        30 -12.8364    187.6038    153.4499   9.2464998757e+01   1.3079030965e+01     0.351241    0.2647654  47.17  0.001694687    1.383    0.277
        31 -10.7660     17.8031    154.1633   1.3623831816e+02   4.1332794167e+01    0.1739072    0.1250917 -54.78 0.0002956833    1.320    0.243
        32 -13.2561    161.6434    149.4617   9.7332945800e+01   1.9449203109e+01    0.3335698    0.2659466 -80.62 0.0008478644    1.516    0.341
        33 -12.7502    174.5644    149.2058   9.4335873520e+01   1.6749132626e+01    0.2939526    0.2259024  47.39 0.0008887418    1.338    0.253
        34 -12.1462    117.3126    232.6982   1.2304902801e+02   9.1654641671e+00    0.2441011    0.1930463 -54.04  0.001107039    1.406    0.289
        35 -13.2721     27.4667    145.8056   1.3259178770e+02   4.2504240162e+01    0.3471713    0.2461494 -51.23  0.001041753    1.337    0.252
        36 -11.4143    150.6297    229.7749   1.1538269693e+02   4.0432736342e+00    0.3136665    0.2101884 -61.45  0.001576193    1.780    0.438
        37 -10.8516    127.3389    227.6200   1.2013261040e+02   8.5204564655e+00     0.308685    0.1599496  36.40  0.001365784    1.848    0.459
        38 -13.1140    207.8202    223.7076   1.0238634867e+02  -4.5508886085e+00     0.381427    0.1624766 -43.46  0.001639522    2.408    0.585
        39 -11.8691    101.7242    242.8465   1.2768226234e+02   9.6210360032e+00    0.2868217    0.1626091 -69.25  0.001112508    1.995    0.499
        40 -12.2348    139.9454    218.3707   1.1589809754e+02   8.2511972904e+00    0.5509818    0.2280158 -60.44  0.001729175    3.184    0.686
        41 -13.2834    160.4052    127.9855   9.2565416431e+01   2.4523804925e+01    0.4196137    0.2936513 -60.07  0.001846655    1.554    0.357
        42 -10.7008     26.3299    221.2865   1.4095530958e+02   2.4687528841e+01     0.109012   0.08998582 -51.83 0.0007011966    1.616    0.381
        43 -14.9692    151.0188    150.3407   1.0005440315e+02   2.1503087486e+01     0.896269    0.5765603 -86.90  0.003160779    2.897    0.655
        44 -11.8377    151.9637    218.5818   1.1326201137e+02   6.0582354307e+00    0.2591402    0.2122635 -66.17 0.0009516257    1.389    0.280
        45 -13.2088    114.3424    117.1248   1.0158987500e+02   3.6813499636e+01    0.3280441    0.2657651 -61.33 0.0008672682    1.294    0.227
        46 -10.9952    231.1486    113.8345   7.5634496372e+01   1.1999004255e+01    0.2151291    0.1769895 -67.40 0.0008922956    1.181    0.153
        47 -15.2219    144.8141    146.6120   1.0072148611e+02   2.3677537634e+01     1.070412    0.5728572 -66.72  0.003553237    2.962    0.662
        48  -9.3827     24.4469    215.4253   1.4085279916e+02   2.6203089760e+01     0.122484   0.09791554  85.15 0.0003099151    1.051    0.049
        49 -11.1977    205.7914    110.1938   7.9025991488e+01   1.8039788663e+01    0.1921392     0.178688  -3.44 0.0006066721    1.310    0.237
        50 -12.4417     11.5858    205.9897   1.4269669227e+02   2.9656300461e+01    0.3402635    0.2791837  23.65  0.002316273    1.695    0.410
        51 -12.3919    168.5213    113.5982   8.7190794344e+01   2.5767065450e+01    0.3830441    0.2832445 -76.31 0.0008594188    1.677    0.404
        52 -10.7405     24.7088    202.7352   1.3970248632e+02   2.9070345867e+01    0.1112865   0.08900113 -54.20 0.0002340586    1.502    0.334
        53 -13.6766    153.1289     63.7227   7.7340084720e+01   3.8594527166e+01    0.4156983    0.3520276  61.43  0.000842824    1.105    0.095
        54 -11.5684     31.8514    204.9824   1.3838823466e+02   2.7767937665e+01    0.1878212    0.1544468 -88.35 0.0006044511    1.073    0.068
        55 -14.0547    186.0756    238.1558   1.0928286829e+02  -3.5211531740e+00    0.3816251    0.2354205 -55.35    0.0019097    2.107    0.525
        56 -13.2574    169.9199     41.7110   6.8366591364e+01   3.7795196301e+01    0.4059063    0.3738553  65.50 0.0008981914    1.121    0.108
