#   1 NUMBER                 Running object number                                     
#   2 MAG_AUTO               Kron-like elliptical aperture magnitude                    [mag]
#   3 X_IMAGE                Object position along x                                    [pixel]
#   4 Y_IMAGE                Object position along y                                    [pixel]
#   5 X_WORLD                Barycenter position along world x axis                     [deg]
#   6 Y_WORLD                Barycenter position along world y axis                     [deg]
#   7 A_WORLD                Profile RMS along major axis (world units)                 [deg]
#   8 B_WORLD                Profile RMS along minor axis (world units)                 [deg]
#   9 THETA_WORLD            Position angle (CCW/world-x)                               [deg]
#  10 FWHM_WORLD             FWHM assuming a gaussian core                              [deg]
#  11 ELONGATION             A_IMAGE/B_IMAGE                                           
#  12 ELLIPTICITY            1 - B_IMAGE/A_IMAGE                                       
         1 -11.2199    150.6467     47.3821   4.1669680349e+01   4.1158808244e+01     0.720911    0.3976952 -32.49  0.003446221    2.019    0.505
         2 -10.5378     72.1821      6.1993   4.6459753781e+01   6.2791691199e+01     0.758023    0.3953818  22.73   0.00387304    2.213    0.548
         3  -9.9577     77.5189     15.3379   4.8462263757e+01   6.0912121676e+01    0.8795315    0.4924547   3.81  0.002657442    2.471    0.595
         4 -10.1263     57.1606     17.9484   5.6441279930e+01   6.4421638885e+01    0.5029638    0.3077141   1.97  0.002599956    1.863    0.463
         5 -11.1781     64.6527     12.3121   5.1380329124e+01   6.3668233760e+01    0.9778107    0.6984731 -67.28  0.005048405    3.125    0.680
         6 -10.2034     49.7980     31.1311   6.4852560666e+01   6.3984283898e+01    0.6246282    0.3692578   8.06  0.001626347    1.948    0.487
         7 -12.4549     62.2655     29.5920   5.9271721612e+01   6.2153253371e+01     1.847356    0.8816956 -26.70  0.008922036    2.305    0.566
         8 -12.7942    192.3216     45.8733   3.4795233920e+01   3.1920364403e+01    0.7681598    0.5203947  76.15  0.003563455    1.406    0.289
         9 -10.9034     84.6304     40.1549   5.5523919126e+01   5.6627697428e+01     1.377751    0.4635539  35.97  0.004682022    3.600    0.722
        10 -10.9255      2.7043     28.2524   8.7014611313e+01   6.9660610334e+01    0.7581017    0.3834249 -62.80  0.003691723    3.307    0.698
        11 -12.6141    245.6490     11.4852   2.2860915651e+01   2.5280986934e+01     1.592947    0.6037737 -45.14     0.009015    2.134    0.531
        12 -11.6276     44.2248     19.7762   6.2483732741e+01   6.6308385928e+01    0.8476735    0.4248761  22.84  0.002628963    2.033    0.508
        13  -8.5793    101.2782     14.7157   4.1912959077e+01   5.6031313405e+01    0.2162738    0.1266219  33.26   0.00114272    1.765    0.433
        14  -9.2947     37.3396     14.3551   6.3151387552e+01   6.7976780942e+01    0.2835504    0.1770029  -3.03  0.001488734    1.594    0.372
        15  -9.0708     37.2415     10.3551   6.1365441741e+01   6.8447668471e+01    0.2179925    0.1384938  -5.06 0.0006192557    1.532    0.347
        16 -10.1745    124.8859     11.5393   3.6064778500e+01   5.1073538778e+01    0.2003872    0.1835044  63.70 0.0002615892    1.099    0.090
        17  -8.6001     29.9915     11.9676   6.5535413337e+01   6.9280466484e+01    0.1647957    0.1517491 -44.63            0    1.881    0.468
        18  -8.6723     27.5711      8.4562   6.5078152921e+01   7.0013804717e+01    0.1407979    0.1227399   1.44 0.0005110353    1.374    0.272
        19  -8.6313    117.1451     10.8773   3.7291584214e+01   5.2873414543e+01    0.1808748    0.1504253  78.81 0.0003794271    1.220    0.180
        20  -8.6954    112.5602     10.9266   3.8206890210e+01   5.3891796477e+01     0.184995    0.1700491  70.27 0.0003096077    1.144    0.126
        21  -8.7594    111.2555      6.0031   3.6877461469e+01   5.4592314505e+01    0.3139429    0.1787529 -55.79  0.001592543    2.545    0.607
        22  -8.8732     54.2671      8.4210   5.3436579231e+01   6.5906224632e+01     0.220936    0.1896016  84.77  0.001426677    2.065    0.516
        23  -9.1670     91.5857      3.7931   4.0347982505e+01   5.9030296537e+01     0.202257     0.196317  64.49 0.0004568624    1.241    0.194
        24  -7.4946     91.2865      7.3201   4.1694310099e+01   5.8811743283e+01    0.1271655   0.07679462  33.39 0.0007002733    1.595    0.373
        25  -8.9362    104.9412      1.4377   3.6626426476e+01   5.6333972671e+01    0.1796461   0.09837713  61.36  0.000327709    1.477    0.323
        26  -9.7762      3.5682    124.8276   1.0780442171e+02   4.8704271761e+01    0.2905678    0.2106361 -84.17 0.0009317044    1.334    0.250
        27 -10.4798    205.5921    250.3033   7.4930806172e+01  -6.9734483291e+00     0.396012    0.1428559  30.80  0.001757959    2.533    0.605
        28 -10.8615    190.3445    249.3621   7.7863147953e+01  -4.8468977979e+00     0.555338    0.2052401  32.17  0.002424222    2.429    0.588
        29  -8.2777     59.9771    126.0000   8.9255307537e+01   4.3288671637e+01    0.2339202   0.08473073  27.74  0.000801736    2.938    0.660
        30  -8.4827      9.5286    125.1388   1.0592929884e+02   4.8281922322e+01    0.2025638    0.1574175  -1.13  0.001203624    1.501    0.334
        31  -9.0298     43.3155    120.9522   9.3882063838e+01   4.6523052391e+01    0.3500051    0.2084407 -69.12 0.0009129377    1.753    0.429
        32  -8.4627     33.6791    122.6905   9.7504198258e+01   4.7045190755e+01     0.149113   0.09223813 -35.34 0.0004883582    1.645    0.392
        33 -10.7463    107.9338    119.8942   7.2459908273e+01   3.7028549707e+01    0.2622686    0.2479924  -6.12 -0.0009232552    1.039    0.037
        34  -8.7842     76.8555    121.1549   8.2563512309e+01   4.2099116318e+01     0.233379    0.2073475  84.82  0.001210087    1.353    0.261
        35  -8.7528     70.4560    119.8169   8.4380726045e+01   4.3384661702e+01     0.247003    0.2030091 -58.27 0.0008586198    1.226    0.185
        36  -8.3165     11.7287    119.4113   1.0439303523e+02   4.9568480677e+01    0.1651514     0.120397 -15.68 0.0005885294    1.534    0.348
        37 -10.9337      3.6393    114.0543   1.0634384465e+02   5.1350636800e+01    0.5809461    0.2634246 -43.99  0.001612727    1.941    0.485
        38 -10.3445     12.9509    112.9311   1.0298351885e+02   5.1088787650e+01    0.4780833    0.2029342 -50.69  0.001777307    1.888    0.470
        39  -9.3989     53.1523    113.4235   8.8881447705e+01   4.7266600340e+01    0.2659138    0.2115084  56.01  0.001377725    1.552    0.356
        40  -9.6361     48.1170    113.7227   9.0722581801e+01   4.7787274943e+01    0.2415689    0.1963323  87.07 0.0009309204    1.548    0.354
        41  -9.4826     27.4973    113.3579   9.7954381834e+01   4.9914626311e+01    0.3539703    0.2583471  26.03  0.001203279    1.529    0.346
        42  -8.8273     32.7852    112.4233   9.5901211605e+01   4.9681942687e+01    0.2699029    0.1752486 -27.56 0.0005061991    1.620    0.383
        43  -8.0785    139.4980    112.9916   6.1938372683e+01   3.2169857462e+01    0.2202301    0.1355343 -66.97 0.0008103166    2.526    0.604
        44  -7.8383     76.2306    112.9786   8.0804800489e+01   4.4169948771e+01    0.1903821    0.1210047 -51.70 0.0002656671    1.524    0.344
        45  -8.6942     82.1081    110.9411   7.8327341352e+01   4.3712416228e+01    0.2319825    0.2067126 -21.58 0.0005775859    1.084    0.077
        46  -9.9840     38.0883    110.2947   9.3575840884e+01   4.9697832279e+01    0.2680226    0.2329509 -69.16 0.0003331943    1.212    0.175
        47  -9.7713     41.8407    109.2188   9.1996924815e+01   4.9575995771e+01    0.3038897    0.2016775 -37.25  0.001035624    1.420    0.296
        48  -9.0382     98.0629    109.8716   7.2895269776e+01   4.1178901794e+01    0.4423049    0.2336699  31.91  0.001745139    2.005    0.501
        49 -10.0078     61.2856    109.5496   8.5121995543e+01   4.7161034157e+01    0.3276743    0.1876314  47.70  0.001014914    2.207    0.547
        50  -8.3269    110.4967    109.4161   6.8985278537e+01   3.8913790565e+01    0.1529578    0.1476307   8.02 0.0002039724    1.019    0.019
        51  -8.0441    126.9543    108.7657   6.4138503446e+01   3.5714766395e+01    0.1987056    0.1282565  41.26 0.0004503402    1.548    0.354
        52  -8.3727     89.3412    107.9668   7.5178899474e+01   4.3176946120e+01    0.2133314    0.1946834 -24.76 0.0004373359    1.049    0.046
        53  -9.3281     76.5455    107.6494   7.9357974807e+01   4.5377019786e+01    0.2988538    0.2540925  67.80   0.00152796    1.501    0.334
        54  -9.2533    118.9827    106.2622   6.5684169524e+01   3.7899837346e+01    0.2214197    0.2000024  33.56 0.0005416519    1.097    0.088
        55 -10.4239      2.9156    105.1180   1.0528830350e+02   5.3550851292e+01    0.3567402     0.215121 -26.55  0.001453573    1.719    0.418
        56  -9.5282    114.3152    104.6980   6.6600962953e+01   3.9184645838e+01    0.3145642    0.1900381  18.03  0.001071147    2.485    0.598
        57 -10.5551     65.0779    102.9394   8.2146863550e+01   4.8195639962e+01    0.4617532    0.2864788 -40.80  0.002138715    1.528    0.346
        58 -10.1288     14.8371    101.7618   1.0041148828e+02   5.3674656524e+01    0.9289418   0.02314919 -61.14  0.002508732    5.320    0.812
        59 -10.6201     11.1983     96.9851   1.0090096693e+02   5.5037252296e+01    0.3203401    0.2539389 -26.96 0.0006866695    1.210    0.173
        60  -9.6766     51.2495    103.3124   8.7235459672e+01   4.9930055456e+01    0.2513397      0.20135 -50.83  0.001310149    1.180    0.152
        61  -7.9843    145.2807    103.3181   5.7991744412e+01   3.2927006431e+01    0.1505668    0.1203524  -0.36 0.0002650125    1.580    0.367
        62  -8.7890     35.6515    105.1156   9.3378355550e+01   5.1192065608e+01    0.3239315    0.1786662  -8.17  0.001016308    2.426    0.588
        63 -11.3483     80.9970     99.9730   7.5817117201e+01   4.6409519938e+01    0.3081221    0.2636807  11.98 0.0003476287    1.165    0.142
        64 -11.0443     47.0852     96.4048   8.7107128479e+01   5.2038417589e+01    0.6422804    0.3027876 -56.24   0.00225194    2.020    0.505
        65  -9.7195     43.7750     93.4292   8.7630401662e+01   5.3099056071e+01     0.276647    0.2437712 -21.02  0.001123112    1.043    0.041
        66 -10.1083    136.7387     97.2544   5.8492725123e+01   3.6000111578e+01    0.4308682    0.2850003 -27.36  0.001890072    1.778    0.438
        67 -10.1248     97.5572     97.7926   6.9777297566e+01   4.3943436722e+01    0.4417153    0.3342304  73.17  0.001075478    1.969    0.492
        68  -9.8203     98.0326     85.1534   6.5985579319e+01   4.6463082273e+01     0.318795    0.2224295 -24.81 0.0002804213    1.594    0.373
        69  -9.7386     98.2531     92.7247   6.8123132279e+01   4.4882121148e+01    0.3753197    0.3525741  57.41  0.001212142    1.204    0.170
        70  -8.4498     96.1031     89.1641   6.7775639953e+01   4.6026141810e+01    0.2519592    0.2089817  32.21 0.0006881395    1.175    0.149
        71 -10.1695    111.8052     99.6320   6.5947271680e+01   4.0770232337e+01     0.302863    0.2583633 -51.09  0.001544961    1.241    0.194
        72  -9.2672     33.9345     99.0070   9.2695351090e+01   5.2812138834e+01    0.2024202    0.1741284 -38.91  0.001195823    1.008    0.008
        73  -9.6945    116.2779     95.3803   6.3469358283e+01   4.0737801232e+01    0.2636729    0.1935426 -65.57  0.001192708    1.778    0.438
        74  -8.8896     20.1702     95.5019   9.7200568190e+01   5.4790070448e+01    0.3834421    0.2072574  51.14   0.00169253    2.838    0.648
        75  -8.5983     64.7236     93.9719   7.9915743674e+01   5.0288595227e+01    0.2079217    0.1734717 -38.41 0.0003507929    1.130    0.115
        76 -10.0274    105.8490     97.4852   6.7125165309e+01   4.2410443149e+01    0.3079379    0.2119467 -34.35 0.0002798978    1.504    0.335
        77  -7.7271     80.7072     92.2963   7.3782951499e+01   4.8140962607e+01    0.1380609    0.1195749  76.97 0.0001699954    1.560    0.359
        78  -9.4493     72.9827     89.6158   7.5722988896e+01   4.9985232185e+01    0.2853435    0.2513558 -57.85 0.0006719177    1.308    0.235
        79 -10.5273     68.8654     83.4297   7.5416754869e+01   5.1941077793e+01    0.5340258    0.3710844 -40.84  0.001564115    1.386    0.278
        80 -10.7700     61.9143     83.7404   7.8088839133e+01   5.2918764360e+01     0.446487     0.311453  -7.73  0.001250408    1.613    0.380
        81  -9.8607     64.8485     80.5806   7.6059539917e+01   5.3146254996e+01    0.4660911     0.284242 -52.62  0.001115163    1.787    0.440
        82  -9.2313    139.0040     88.4440   5.5534169757e+01   3.7201678081e+01    0.2187625    0.1975881 -39.63  0.000336365    1.131    0.116
        83 -10.6340    115.7263     87.0188   6.1248073844e+01   4.2516629634e+01    0.5239023    0.3297954  68.29  0.001559236    2.559    0.609
        84 -10.6702    107.1373     85.9856   6.3441839793e+01   4.4491369782e+01    0.4579175    0.2905456  50.23 0.0003883286    1.665    0.400
        85 -10.6944     51.7280     80.0835   8.0954302971e+01   5.5085947148e+01    0.5837926    0.3534555  30.64  0.002125654    1.689    0.408
        86 -10.2613     56.1115     77.2003   7.8390645016e+01   5.5101781337e+01    0.4616501    0.3677581  44.38    0.0025438    1.525    0.344
        87 -10.5395     48.7018     86.3328   8.3883736766e+01   5.4118387436e+01    0.3654341    0.3279484  35.78  0.001315996    1.304    0.233
        88 -10.1755     44.4935     85.4566   8.5298208230e+01   5.4809094148e+01    0.4915732    0.2311003  27.30  0.002163054    2.184    0.542
        89  -8.2083     23.4616     88.4905   9.4415363329e+01   5.6164440429e+01    0.1350743     0.111951 -37.73 0.0004493801    1.006    0.006
        90  -8.4384      7.0899     87.7222   1.0075301465e+02   5.7426797591e+01    0.1668577    0.1419116 -20.96 0.0005228613    1.176    0.150
        91  -8.3691     15.4130     85.4318   9.6968099602e+01   5.7448405659e+01    0.2939955    0.2374738 -27.68  0.001835702    1.116    0.104
        92  -7.5587    173.3424     86.6834   4.7655388833e+01   2.9849717519e+01    0.1496134    0.1091194 -78.60  0.000704858    1.713    0.416
        93  -8.1032    177.4158     85.4796   4.6594654516e+01   2.9158501422e+01    0.1391138    0.1329746 -67.60 8.750397e-05    1.029    0.028
        94  -9.1989    163.0163     84.2984   4.9082332224e+01   3.2574186973e+01    0.3281254    0.2528672  75.04 0.0009381783    1.445    0.308
        95  -9.5625    139.4909     83.7473   5.4124005427e+01   3.7960447476e+01    0.2735902    0.2047067  48.09  0.000807088    1.298    0.230
        96  -8.3623     88.5340     83.9490   6.8698068340e+01   4.8495370145e+01    0.2211505    0.1795478  28.86 0.0005199436    1.192    0.161
        97  -8.8599     29.7122     83.7815   9.0791415770e+01   5.6698039274e+01    0.2607515    0.1605917 -50.47 0.0007039245    1.415    0.293
        98  -9.6682     24.9810     78.0996   9.1324657080e+01   5.8363258069e+01    0.3623341    0.2347424  23.64 0.0008894106    1.661    0.398
        99  -9.8479     82.3275     79.9484   6.9586558241e+01   5.0408959398e+01    0.4673415    0.2714115 -38.76  0.001651544    1.724    0.420
       100  -8.6936    127.8239     80.4214   5.6080368929e+01   4.1151101463e+01    0.2535535    0.1909781 -19.36 0.0005326196    1.562    0.360
       101  -8.7317    137.8041     77.8848   5.2893590599e+01   3.9384054347e+01    0.2252965    0.1957432 -75.09  0.001201182    1.311    0.237
       102 -11.7424    139.7244     72.1644   5.0838056446e+01   3.9930114895e+01      1.03389    0.4756537  47.81  0.002806818    2.074    0.518
       103 -10.5231    126.1578     74.6161   5.4828272528e+01   4.2549020875e+01    0.5405809    0.3320186  50.71   0.00248156    1.571    0.363
       104 -10.0524    114.8590     79.8254   5.9390953085e+01   4.4061062161e+01    0.3578047    0.2689249 -23.55  0.001765856    1.475    0.322
       105  -9.1146     44.0124     81.0203   8.4285263412e+01   5.5830676171e+01    0.2109219    0.1798487 -23.93 0.0003857949    1.012    0.012
       106  -8.7333      7.8938     80.6241   9.9010785398e+01   5.8991707743e+01    0.4364114    0.1428345 -18.84  0.001336431    5.618    0.822
       107 -10.3664     96.9941     75.8428   6.3495290744e+01   4.8454106349e+01    0.4407237    0.3707059 -83.94   0.00118705    1.680    0.405
       108 -10.2915     72.6585     76.1954   7.1846391520e+01   5.2799488191e+01    0.5321929    0.3259342  37.37  0.001934394    1.629    0.386
       109  -9.9928    172.5522     76.2688   4.5201941938e+01   3.1800901518e+01     0.332028    0.2817621 -43.68  0.000755754    1.191    0.160
       110  -9.7113    173.8755     72.3360   4.3979586623e+01   3.2145278419e+01    0.3309176    0.2127245  68.15   0.00102534    1.643    0.391
       111  -8.3746    184.6727     77.6726   4.3418471396e+01   2.8877320892e+01    0.1355985      0.11006  17.79  0.000430437    1.702    0.412
       112  -8.1007    103.2834     77.3498   6.2019747969e+01   4.6919195623e+01    0.2387601    0.1473095 -32.49 0.0007011452    1.739    0.425
       113  -9.6620    106.0263     73.8416   6.0129951165e+01   4.6998227046e+01    0.3496007    0.2400808  28.72  0.001186346    1.534    0.348
       114  -9.4173     30.7578     75.7188   8.8283094554e+01   5.8362139061e+01    0.3672148    0.2447073  53.08  0.001831873    2.350    0.574
       115  -8.2203    194.2757     76.3363   4.1544288865e+01   2.7006472416e+01    0.1268554    0.1084536   7.22 0.0002883489    1.608    0.378
       116 -10.1066     87.2370     73.7066   6.5988968966e+01   5.0718531444e+01    0.5707181    0.3831093 -26.47  0.001742471    1.604    0.377
       117  -9.7325     82.8109     74.1750   6.7633000720e+01   5.1439942745e+01    0.3161073    0.3006958 -88.05 0.0009460188    1.350    0.259
       118  -9.7557    151.9078     72.8354   4.8351429392e+01   3.7048175432e+01    0.3596293     0.267509  -6.13  0.001200495    1.891    0.471
       119 -10.4964    149.4086     67.7109   4.7482117516e+01   3.8452444569e+01     0.509466    0.4012399  59.09  0.001699219    1.214    0.177
       120 -10.1355    113.1487     72.9199   5.7804017389e+01   4.5668313509e+01    0.5273473    0.3207704  35.44  0.002379798    1.689    0.408
       121  -9.7995     22.5623     60.3364   8.7537731920e+01   6.2275107893e+01    0.4644682    0.2360822  -0.80   0.00118674    2.307    0.566
       122  -9.8517     37.2205     73.0840   8.4839393801e+01   5.8267352578e+01    0.4089355    0.2566328 -11.08  0.001577338    1.727    0.421
       123  -9.6268     34.0307     68.8907   8.4980912897e+01   5.9467312176e+01    0.3692251    0.3306624   7.03  0.001051745    1.201    0.167
       124  -9.8253     23.3539     68.2323   8.9429968938e+01   6.0602447125e+01    0.3865797    0.2223697  34.47  0.001393392    2.061    0.515
       125 -10.5957     28.9704     61.7055   8.5058145884e+01   6.1417235425e+01    0.7182384    0.3229792 -35.49  0.001674304    2.064    0.515
       126  -9.0596     53.2653     70.4477   7.7457694732e+01   5.6852830892e+01    0.3516686    0.1712453  22.35  0.001514631    2.229    0.551
       127  -9.6726     10.0387     67.8317   9.5200865925e+01   6.1654067436e+01    0.4861869    0.2577849 -31.27  0.002032915    1.665    0.399
       128 -11.3675    119.0751     60.7652   5.2505603519e+01   4.6402407121e+01    0.9787544    0.5934428  -5.06  0.003020036    2.993    0.666
       129  -9.2348    101.2726     69.3994   6.0170300695e+01   4.8759141952e+01    0.2712567    0.2374839  33.63 0.0007788938    1.072    0.067
       130  -9.7884    102.2516     66.3615   5.8919383505e+01   4.9082104060e+01    0.3303134    0.2249876  58.84  0.001574973    1.731    0.422
       131 -10.5017    109.5429     65.1524   5.6428466488e+01   4.7760432180e+01    0.6233387    0.4432988  37.09  0.003118477    1.344    0.256
       132  -9.1433    107.9434     60.1173   5.5293896184e+01   4.8916473841e+01     0.286878    0.2268799 -48.39 0.0008558569    1.454    0.312
       133 -10.3602    206.0049     67.3565   3.7795798670e+01   2.5916624456e+01    0.3104919    0.2013177  38.70 0.0009345112    2.184    0.542
       134 -10.1199    171.9907     66.4321   4.2831591090e+01   3.3502955115e+01    0.4513294    0.2949652  15.86   0.00186783    3.039    0.671
       135  -8.6285     93.5425     66.5595   6.1661034958e+01   5.0799371262e+01    0.2335235     0.187323  48.54  0.001223018    1.304    0.233
       136 -10.0082     60.1847     63.2789   7.2406776173e+01   5.7226872816e+01     0.621595    0.4869415 -60.83   0.00338115    1.782    0.439
       137  -8.4848     53.6407     56.6320   7.2780638367e+01   5.9391567570e+01    0.2378341    0.1455233 -27.82 0.0007272522    1.623    0.384
       138 -10.0166     59.0412     54.5510   6.9883189574e+01   5.8949276766e+01    0.3783498     0.287558 -10.18  0.000778653    1.255    0.203
       139  -8.7143     17.8325     65.8165   9.1216832912e+01   6.1544149976e+01    0.1949494    0.1406923 -27.30 0.0004171049    1.162    0.140
       140  -9.4043     85.1395     63.4912   6.3401748054e+01   5.2943151326e+01    0.6346259    0.1813067 -40.28  0.002096548    3.646    0.726
       141  -9.2645     78.4711     58.4869   6.4006546282e+01   5.5021572306e+01    0.2631386     0.252271 -58.65  0.000990393    1.344    0.256
       142 -10.9919     82.0573     54.9617   6.1570914568e+01   5.4937605167e+01    0.3178638    0.2973652 -76.95 0.0002987561    1.446    0.309
       143  -9.7063     42.3594     61.3085   7.9071861140e+01   6.0030093074e+01    0.3214465    0.2292871  18.14  0.001380991    1.348    0.258
       144  -9.8802     97.1340     61.8010   5.9003473473e+01   5.0888025816e+01     0.369885    0.2284758 -37.64    0.0014247    1.712    0.416
       145  -9.0219    154.0369     62.4897   4.5127043757e+01   3.8207245139e+01    0.2049339    0.1860176 -40.20 0.0004483497    1.173    0.147
       146 -11.6938    139.2666     56.4978   4.6490923012e+01   4.2497215642e+01    0.8138785    0.4023395 -36.44  0.002768594    2.160    0.537
       147 -10.7365    215.8017     60.0270   3.4949215341e+01   2.4973073602e+01    0.3078913    0.1837177  72.68  0.001659791    1.737    0.424
       148  -9.7361    183.4348     61.4138   3.9712164239e+01   3.1696015327e+01    0.2592626    0.2097912 -76.96 0.0004166517    1.224    0.183
       149  -9.4086    128.3061     58.4672   4.9533798380e+01   4.4696965078e+01    0.4211947    0.2449536  36.50  0.001420404    1.907    0.476
       150  -9.5903     15.5410     58.7760   9.0310833117e+01   6.3147565967e+01    0.4615551    0.1516719 -37.35  0.001649985    2.725    0.633
       151  -9.7898     16.8408     50.5157   8.7226958216e+01   6.4654169287e+01    0.4595786    0.2313423 -51.87  0.002406449    1.879    0.468
       152 -10.9718    208.1472     58.7075   3.5617031424e+01   2.6746431522e+01    0.3208969    0.1918483  60.34  0.001726551    1.691    0.409
       153 -11.0835    196.5075     56.4682   3.6651733395e+01   2.9546382256e+01    0.3360552    0.2057294 -53.90  0.001772532    1.585    0.369
       154  -8.3006     49.0714     59.5198   7.5647074223e+01   5.9505773138e+01    0.1992463    0.1221092  26.06  0.001027122    1.575    0.365
       155 -10.2261    164.3807     56.0756   4.1516661612e+01   3.6785922689e+01    0.4479247     0.338732 -79.10  0.001125273    1.467    0.319
       156  -9.7347    161.1911     50.8027   4.0698429679e+01   3.8262614320e+01    0.2460561    0.2070184 -27.53 0.0007747334    1.369    0.270
       157 -10.1037     39.5868     63.7631   8.1042181893e+01   5.9885548279e+01    0.4845634    0.3638732 -62.60  0.002094508    1.782    0.439
       158 -12.1130    231.6810     53.5059   3.1832647058e+01   2.2734427177e+01     0.486231    0.3268728 -56.49  0.002520607    1.270    0.213
       159 -10.0233      3.6416     50.4441   9.3618719515e+01   6.5564808050e+01    0.3876117    0.3471982 -53.20  0.002775962    1.358    0.264
       160  -9.0939    174.6164     55.4719   3.9652521794e+01   3.4542002092e+01    0.2357515    0.2173522  56.41 0.0005615226    1.163    0.140
       161  -8.4603     68.3515     55.2735   6.6552584861e+01   5.7326691236e+01    0.2447425    0.2011541  84.16  0.001165879    2.154    0.536
       162  -8.1511     21.5109     56.4797   8.6864471384e+01   6.3123358855e+01    0.1291335    0.1019426 -22.50 0.0003777069    1.014    0.013
       163  -8.4685     38.5214     55.4455   7.8809545228e+01   6.1586084277e+01    0.2046003    0.1533558  21.93 0.0006010966    1.324    0.245
       164  -9.7726     43.9187     53.3522   7.5737326795e+01   6.1299006609e+01    0.4372235     0.267161  -3.12  0.002196854    1.865    0.464
       165 -10.7002    130.4036     53.2881   4.7508636676e+01   4.4986584484e+01    0.3896494    0.2993537 -79.09  0.002032772    1.679    0.405
       166  -8.8509    101.5465     54.1487   5.5190610156e+01   5.1190400560e+01    0.4218756    0.2043644  52.09  0.001799271    2.043    0.510
       167  -9.8463     94.6383     45.1940   5.4214526583e+01   5.3924583459e+01    0.6649079    0.3184819 -43.44  0.002899391    2.515    0.602
       168 -10.9459    100.9423     46.0093   5.2666704928e+01   5.2499378929e+01    0.5550877    0.5025425 -38.36  0.002054912    1.264    0.209
       169  -9.0464    102.7827     40.8719   5.0436997496e+01   5.2801482816e+01    0.4288107    0.1831268  56.94  0.001568027    2.422    0.587
       170 -11.1793    162.2449     41.3964   3.8071396014e+01   3.9270564863e+01    0.6729921    0.3714583  60.03   0.00250349    1.629    0.386
       171  -9.6955    175.2928    244.5578   8.0254962804e+01  -1.9854533266e+00    0.2386266    0.1440366 -22.02  0.001204949    1.865    0.464
       172  -9.9220    153.7260     39.9792   3.9113051461e+01   4.1410543119e+01    0.3462545    0.2935959 -32.48  0.002110419    1.337    0.252
       173 -12.8338    212.2444     47.3784   3.2694582759e+01   2.7470325902e+01     1.068164    0.5038433 -82.06   0.00412269    3.748    0.733
       174 -12.8130    206.6186     46.2317   3.3101134337e+01   2.8799988456e+01    0.8729345    0.4190648  78.66  0.004037368    2.419    0.587
       175  -8.6461    221.1553    239.1709   7.0055354070e+01  -7.1959185287e+00     0.157627    0.1425613  -5.13  0.001083133    1.348    0.258
       176  -8.1164     56.0230    216.9448   1.0407430799e+02   2.0866145280e+01    0.1538671    0.1378386  65.90            0    1.011    0.011
       177  -9.6844     68.3703     49.2716   6.4422684145e+01   5.8296995913e+01    0.3263341    0.2467573  29.34 0.0007349304    1.199    0.166
       178  -9.5838    212.9275    216.1778   6.7644129347e+01  -2.3538678884e+00    0.1867078    0.1729903  -0.48  0.000587383    1.268    0.211
       179  -9.3622    229.4913    204.0009   6.2266157839e+01  -2.5319749423e+00    0.2039518    0.1104781 -37.53  0.001039892    1.612    0.380
       180 -11.1411     58.9038     44.4842   6.6305341482e+01   6.0609659915e+01     1.630018    0.6374457  27.09  0.006076429    3.242    0.692
       181  -8.7753    243.3362    178.3126   5.5016765511e+01  -1.9998404443e-02    0.1329122   0.08786517 -12.40 0.0007045694    1.687    0.407
       182  -9.5494     69.9727     26.9002   5.5427213590e+01   6.1106389051e+01    0.4045992    0.2137173  37.34  0.001097522    1.639    0.390
       183  -9.2914     16.3466    173.8522   1.0956135912e+02   3.5515597141e+01    0.2015212    0.0967695 -63.07 0.0009478724    1.780    0.438
       184 -10.0420     51.6711     37.5831   6.6622968875e+01   6.2778213175e+01    0.4195148    0.2843702  43.90  0.001311798    1.718    0.418
       185  -9.8831     12.4525    161.8778   1.0940273274e+02   3.8828284782e+01    0.2078978    0.1646206 -47.95  0.000636072    1.297    0.229
       186 -10.6054      6.2077    157.5828   1.1067783757e+02   4.0352078058e+01     0.435625     0.198498 -78.85  0.001913642    1.965    0.491
       187  -9.1152     91.5509     32.7813   5.0789009473e+01   5.6176456587e+01     0.368484    0.1553568 -24.65  0.001355737    2.952    0.661
       188 -10.1325     24.3894     45.1096   8.1798870001e+01   6.4974551665e+01    0.3062557     0.245974  43.46  0.001514743    1.818    0.450
       189  -8.7342     10.8073     46.7975   8.9009265889e+01   6.5809440568e+01     0.203264    0.1846326 -47.66 0.0006670704    1.395    0.283
       190  -8.4435     13.1872     39.0621   8.5264486769e+01   6.7036256071e+01    0.2447931    0.1457252 -18.45 0.0006507573    1.486    0.327
       191  -8.6776     12.0442    153.9898   1.0868241590e+02   4.0848638445e+01    0.2061537    0.1381646  64.49 0.0006769272    1.629    0.386
       192  -8.3424      1.4314     35.4883   9.0208717151e+01   6.8486395226e+01    0.1630447   0.08292986 -41.49 0.0005630362    1.536    0.349
       193  -9.9233      2.9929     40.5492   9.1011888424e+01   6.7477415946e+01    0.3833044    0.1790881 -41.71  0.001145078    1.652    0.395
       194  -9.7329      8.1895     41.8910   8.8767364028e+01   6.6899490747e+01    0.2973343    0.2244765 -27.82  0.001554327    1.050    0.048
       195  -9.5354      9.2543     37.6449   8.6806442281e+01   6.7586528487e+01    0.3289227    0.1656199 -40.00  0.001010142    1.613    0.380
       196 -10.2428     10.3488     31.8991   8.4190540905e+01   6.8492384334e+01    0.3209297    0.2348843 -25.58  0.000877314    1.102    0.093
       197 -10.2866      3.6849     55.7996   9.5052126253e+01   6.4501755308e+01    0.2727653    0.2196821 -23.00 0.0006443444    1.093    0.085
       198  -8.7695     67.1999     61.0890   6.8978540764e+01   5.6517697198e+01    0.2190351    0.1666338   2.43 0.0005057856    1.307    0.235
       199  -9.8538     42.4862     44.7611   7.3294863910e+01   6.2958315125e+01    0.3848136    0.3052843 -67.44  0.002168885    2.238    0.553
       200  -9.5881     16.1298     43.8451   8.5410344336e+01   6.5944943821e+01    0.2693781    0.1616398 -21.51 0.0008086248    1.470    0.320
       201 -11.6669    220.9026     37.8523   2.9809375467e+01   2.6943844041e+01    0.4355807    0.3471937 -83.40  0.002975221    1.079    0.073
       202 -11.5475    213.4795     39.2111   3.0848506982e+01   2.8285332026e+01    0.4742932     0.241928 -39.01  0.002529564    1.920    0.479
       203 -10.9157    208.4023     40.2160   3.1609906636e+01   2.9212819619e+01    0.3409781    0.2142158 -82.50  0.001526737    1.637    0.389
       204 -11.7559    204.0476     37.5014   3.1515184452e+01   3.0476260533e+01    0.5391443    0.2666296 -70.08  0.002460966    2.581    0.612
       205  -8.8167    128.9975     36.7951   4.2885637596e+01   4.7493786823e+01    0.2721872    0.1705043  59.65 0.0003741456    1.429    0.300
       206 -10.4820     30.5066     38.6126   7.6505335583e+01   6.5436733027e+01    0.4689022    0.2700367 -40.87  0.001780773    1.692    0.409
       207  -7.9196    172.5390     41.4788   3.6501956783e+01   3.6909683980e+01    0.1287874    0.1159725  72.75 6.556104e-05    1.085    0.078
       208  -8.6469    141.3657     40.7722   4.1574272234e+01   4.4162887514e+01     0.203686    0.1604312 -61.78  0.001156314    1.427    0.299
       209  -8.0136    116.9746     39.7732   4.6479448651e+01   4.9839847212e+01    0.1742353    0.1001857  53.97            0    1.538    0.350
       210  -9.1167    109.4913     39.2204   4.8133411184e+01   5.1563313884e+01    0.2494783    0.1732784  50.69  0.000900024    1.272    0.214
       211 -10.0254    179.2794     37.1141   3.4483408769e+01   3.5938393671e+01    0.2891058    0.1784807  42.38  0.001487987    2.044    0.511
       212  -9.0070    123.3481     37.6151   4.4347379131e+01   4.8676995287e+01    0.2614431    0.2188597  37.29 0.0009115743    1.172    0.146
       213  -9.7037    169.1343     34.4216   3.5245360158e+01   3.8559262611e+01     0.327692    0.1942228 -26.33  0.001686832    2.089    0.521
       214  -9.5807    175.0308     35.0032   3.4555840056e+01   3.7153036563e+01    0.2052971    0.1363904 -72.77 0.0005060179    1.629    0.386
       215  -9.1581    161.5374     34.8900   3.6499088150e+01   4.0238253243e+01    0.2602235    0.1722714  74.37 0.0007319073    1.423    0.297
       216 -10.1052    138.9688     34.6396   4.0278235987e+01   4.5465945886e+01    0.2798048    0.2008846  52.20 0.0006541879    1.260    0.206
       217  -9.4438    112.9964     33.3601   4.5369686227e+01   5.1507526058e+01    0.5235263    0.2157574  49.18  0.002269742    2.061    0.515
       218  -7.3842    107.2776     35.2988   4.7402358580e+01   5.2533178994e+01    0.1326526   0.09278201  27.04 0.0001521769    1.537    0.349
       219  -9.4197     79.3725     34.3858   5.5115853618e+01   5.8408688336e+01    0.5208404    0.1559391  47.24  0.001952033    2.934    0.659
       220  -8.6468     83.7431     29.5677   5.1950642416e+01   5.8143387092e+01    0.4519096    0.2734268  -7.76  0.002272975    2.124    0.529
       221  -8.8259     25.7827     38.7017   7.8821716738e+01   6.5937026322e+01    0.1978196    0.1383594 -11.29  0.001221583    1.219    0.180
       222 -10.9734     86.7352     47.1372   5.7321985992e+01   5.5235067569e+01    0.6855809    0.3598906  38.24  0.003204002    1.756    0.431
       223  -7.7892     97.2920     32.3254   4.9016142754e+01   5.5033346720e+01    0.1355004   0.09077897  24.52 0.0007017056    1.617    0.382
       224  -9.0373    236.5980    146.8092   4.9988083688e+01   6.5474747272e+00    0.1961568    0.1078663 -48.32  0.000954092    1.690    0.408
       225  -8.1911    120.2859     30.9586   4.2952004183e+01   5.0155650390e+01    0.1671878    0.1596021  34.68 0.0003846528    1.114    0.103
       226  -8.6492     38.1898     31.2023   6.9991187785e+01   6.5636418842e+01    0.1540731     0.135956  17.02 0.0005255526    1.324    0.245
       227 -10.5460    132.3035     39.6532   4.3052142754e+01   4.6386018505e+01    0.4458143     0.295067  27.98  0.002239491    1.903    0.475
       228  -9.5971    154.7001     30.5959   3.6444223507e+01   4.2312434560e+01    0.2214384    0.1962249  73.72 0.0003150309    1.024    0.024
       229  -9.6130     42.4689     28.0597   6.6766878593e+01   6.5491572686e+01    0.2660396    0.2338049 -41.33  0.001612807    1.625    0.385
       230  -9.4147      1.8666    144.1872   1.1054308729e+02   4.3977917929e+01    0.3071606    0.1772648  80.99  0.001545495    1.877    0.467
       231  -8.9783    137.0242     27.6004   3.8613892441e+01   4.6715649420e+01    0.2069918    0.1892039  15.92 0.0005092851    1.275    0.216
       232  -8.6116     76.2346     28.5358   5.3946618553e+01   5.9733597601e+01    0.1837953    0.1104946  44.08 0.0004623133    1.446    0.308
       233 -10.9060     28.1846     26.6850   7.2910597647e+01   6.7552323196e+01    0.4274889    0.1910867  32.62 0.0001790771    2.152    0.535
       234  -7.6960    125.6089     27.7015   4.0830438685e+01   4.9314012638e+01    0.1414743   0.08543656  37.09 0.0007011024    1.793    0.442
       235  -8.6154    107.0911     26.1613   4.4411201773e+01   5.3621034019e+01    0.2107975    0.1490221  35.38  0.001195931    1.361    0.265
       236  -8.6282    102.5265     24.4993   4.4960866261e+01   5.4792645983e+01    0.1928664    0.1617108 -16.89 0.0005971217    1.354    0.261
       237  -8.2954    100.2880     22.2650   4.4750476426e+01   5.5509186911e+01    0.1666045    0.1403836  75.67 0.0003785788    1.363    0.266
       238  -8.5405    174.7673     24.1442   3.1968515862e+01   3.8469120655e+01    0.1861028    0.1448209 -76.14 0.0004936373    1.218    0.179
       239  -8.2961    150.5728     24.2020   3.5385451442e+01   4.3968580847e+01    0.1534497    0.1266721  -5.28 0.0007646164    1.577    0.366
       240  -8.2223    144.0139     23.8006   3.6328890330e+01   4.5517973245e+01    0.2239493      0.11994  42.63  0.001084495    2.051    0.512
       241 -10.2372     87.1965     22.6723   4.8389113551e+01   5.8218547322e+01    0.6196457    0.2762335  62.25  0.002288213    2.862    0.651
       242  -8.7605     83.9450     18.3149   4.7704077638e+01   5.9330963245e+01     0.201523    0.1381286  36.63 0.0009479561    1.244    0.196
       243  -7.9818    179.6685     22.3462   3.0940248168e+01   3.7571351511e+01    0.1329618   0.08070427 -70.66 0.0007049782    1.761    0.432
       244  -8.3876    126.1983     20.8812   3.8644323046e+01   4.9894596395e+01    0.1783851    0.1361905  39.23  0.000727987    1.318    0.241
       245  -8.7112    116.1759     20.2194   4.0440815100e+01   5.2221896754e+01    0.1692526    0.1444637 -84.99   0.00106123    1.352    0.260
       246  -8.6772    107.6566     19.1080   4.1931871441e+01   5.4222265715e+01    0.1677335    0.1441593  37.50 0.0004549753    1.105    0.095
       247  -8.8507     18.8579     19.1566   7.4497604885e+01   6.9679431003e+01    0.1589445    0.1262324   5.35 0.0006151677    1.177    0.151
       248  -7.9725    101.6359     18.2462   4.3039618200e+01   5.5620164176e+01    0.1209353   0.09339184  83.77 0.0006942158    1.611    0.379
       249  -8.5012     37.4132    143.5286   9.9758044917e+01   4.1370283975e+01    0.2912486     0.126616  -2.26 0.0008092436    5.832    0.829
       250  -9.0779     15.9093    136.9171   1.0548931021e+02   4.4896422133e+01    0.3277916    0.1783304 -81.84  0.001532597    1.880    0.468
       251  -9.9245     24.9182    134.0715   1.0225627653e+02   4.4926571921e+01    0.2836351    0.2404476  29.85 0.0005192526    1.333    0.250
       252  -8.6049      4.3457     13.6935   8.0259294185e+01   7.1826551685e+01    0.2287388    0.1155377  13.18 0.0007314744    1.780    0.438
       253  -7.5915    145.2590     13.6934   3.3356597231e+01   4.6240366045e+01    0.1192072   0.08617348 -72.80            0    1.520    0.342
       254  -8.2009    144.5462     29.4875   3.7819406364e+01   4.4776010266e+01    0.1298888    0.1135232  68.83 0.0001049276    1.004    0.004
       255  -9.1128     21.3489    131.1461   1.0296627320e+02   4.5953495530e+01    0.3991446    0.1797934 -55.18  0.001788461    1.818    0.450
       256  -8.4753     88.2212    134.2312   8.1917704743e+01   3.7061047794e+01    0.2248051    0.2013113 -14.80 0.0004822485    1.148    0.129
       257  -8.5491     43.5932    133.6139   9.6147033788e+01   4.3285098680e+01    0.3152243   0.07118499 -51.08 0.0009595324    3.489    0.713
       258  -8.2935     30.7015    134.4535   1.0046259276e+02   4.4332831475e+01    0.1759332    0.1323508  -8.47 0.0009362531    1.550    0.355
       259  -8.2443     76.8117    133.6537   8.5385235389e+01   3.9000176324e+01    0.2091883    0.1364796  40.20  0.000564785    1.616    0.381
       260  -8.9971      9.0677    131.5827   1.0692564258e+02   4.6699784478e+01    0.2598058    0.1953238  21.48 0.0009276189    1.553    0.356
       261  -7.7267     70.6932    131.7292   8.6939293912e+01   4.0383439219e+01    0.1513585    0.1113466 -22.81 0.0001475039    1.540    0.351
       262  -8.4874     73.9531    130.2981   8.5576975470e+01   4.0269925616e+01    0.2029841    0.1937381   8.21 0.0003636088    1.077    0.072
       263  -8.1870     89.4537    128.9737   8.0335447860e+01   3.8158009534e+01    0.2235367    0.1475038 -50.83 0.0003252169    1.465    0.318
