#   1 NUMBER                 Running object number                                     
#   2 MAG_AUTO               Kron-like elliptical aperture magnitude                    [mag]
#   3 X_IMAGE                Object position along x                                    [pixel]
#   4 Y_IMAGE                Object position along y                                    [pixel]
#   5 X_WORLD                Barycenter position along world x axis                     [deg]
#   6 Y_WORLD                Barycenter position along world y axis                     [deg]
#   7 A_WORLD                Profile RMS along major axis (world units)                 [deg]
#   8 B_WORLD                Profile RMS along minor axis (world units)                 [deg]
#   9 THETA_WORLD            Position angle (CCW/world-x)                               [deg]
#  10 FWHM_WORLD             FWHM assuming a gaussian core                              [deg]
#  11 ELONGATION             A_IMAGE/B_IMAGE                                           
#  12 ELLIPTICITY            1 - B_IMAGE/A_IMAGE                                       
         1 -15.8894     67.0296    142.7008   1.0203342777e+02   3.8022426649e+01     1.920167     1.563678 -16.81  0.004001034    1.538    0.350
         2 -11.1661    169.0889     24.3337   4.2960901967e+01   4.0004866604e+01    0.6522794    0.2394639 -13.52  0.001461824   10.246    0.902
         3  -7.6995    225.9599     17.1348   3.4882990539e+01   2.7583793330e+01    0.2677293    0.1454221 -39.46  0.001462678    1.702    0.413
         4 -10.3729    152.0253      9.7150   4.1137839786e+01   4.5658290413e+01    0.1832032    0.1521538  69.77 0.0003549538    1.054    0.052
         5 -10.1952     71.0860      7.4789   5.8037775254e+01   6.4062942137e+01    0.1798355    0.1072762  47.03 0.0004243945    1.488    0.328
         6 -12.0645     58.9959      2.7800   5.9968759171e+01   6.6747009748e+01    0.3232155    0.1424969  31.08  0.001538109    2.257    0.557
         7 -10.5064    217.0454    142.9679   6.5263667893e+01   9.6392442849e+00    0.2155482    0.1872221 -23.09 0.0004688345    1.058    0.054
         8 -15.8246    159.5080     95.5497   6.5154549270e+01   3.1231654685e+01     6.442502     2.471244  40.39   0.01891255    3.229    0.690
         9 -16.6987    142.6997     45.2247   5.3847947104e+01   4.3824903765e+01     10.70034     5.265628 -38.11   0.03865913    2.088    0.521
        10 -10.9735    164.0256    141.9891   7.5972309376e+01   2.0548492920e+01    0.3519506    0.2199377  67.90  0.001312705    2.623    0.619
        11 -11.3115    216.2606    148.0891   6.6541982917e+01   8.8468360884e+00    0.3339989    0.2112781  51.33  0.001539689    1.860    0.462
        12 -12.5017    189.3862    138.3216   6.9565769500e+01   1.6030201220e+01    0.5722901     0.416043  41.05  0.001886432    1.439    0.305
        13  -9.7163    202.2511    158.6457   7.1539246465e+01   9.5148421844e+00    0.1393012    0.1124858 -64.24 0.0003617576    1.599    0.375
        14 -11.8458    174.9353    133.7653   7.1562273770e+01   1.9988769232e+01    0.3848279    0.2775406 -65.78  0.001282239    1.788    0.441
        15 -12.2551    179.2340    133.0513   7.0456732241e+01   1.9223047335e+01    0.4650549    0.3645355  62.82  0.001801139    1.506    0.336
        16 -10.9789    240.7180    132.8144   5.9008625303e+01   7.0605004238e+00    0.2677309    0.1888129  60.71 0.0009544063    1.859    0.462
        17 -11.0925    189.9880    130.6028   6.7619828514e+01   1.7442007501e+01    0.2692809    0.2543834  60.96 0.0006940939    1.161    0.139
        18 -11.4270    174.9336    115.1083   6.6946785278e+01   2.3816239852e+01    0.4277928    0.2644817 -62.84 0.0007479764    2.239    0.553
        19 -14.2788    160.6464    128.4179   7.3496850392e+01   2.4182399067e+01     1.244101    0.8753285  87.47   0.00495178    2.383    0.580
        20 -13.8975    162.3416    120.0742   7.1012258182e+01   2.5586517935e+01    0.9284142    0.6925154  89.22  0.002027459    1.961    0.490
        21 -12.7496    167.8849    114.1460   6.8239098693e+01   2.5586019414e+01    0.5844187    0.5296211  19.51  0.001033376    1.187    0.158
        22 -11.4124    150.0087    130.9809   7.6672412872e+01   2.5902840527e+01    0.2407724    0.2347264 -55.12 0.0005687703    1.045    0.043
        23 -13.4050    170.6663    124.4385   7.0226608652e+01   2.2846652946e+01    0.8737723    0.7009414 -69.07  0.004173145    1.494    0.331
        24 -11.5323    183.7024    123.1722   6.7112838362e+01   2.0267197840e+01    0.4588062    0.2776219 -44.13  0.001529612    1.588    0.370
        25 -11.1193    185.9846    119.9388   6.5846853409e+01   2.0414949091e+01    0.3858184     0.290691 -69.56  0.001287683    1.690    0.408
        26 -10.1480     98.8592    126.8895   8.9474544596e+01   3.6986158758e+01    0.2265004    0.2012003 -22.89  0.000442634    1.212    0.175
        27 -12.9461    190.6597    151.9330   7.2413344326e+01   1.3061117424e+01    0.8523754    0.4216584 -49.74  0.003339217    2.220    0.549
        28 -12.7903    213.8659    116.7023   5.9808570220e+01   1.5099595540e+01    0.3940075    0.2909085 -52.93  0.001098378    1.380    0.275
        29 -12.1015    211.4957    112.5055   5.9226754144e+01   1.6358212815e+01    0.6715294    0.4387772  72.48  0.002994382    2.172    0.540
        30  -9.1586    205.1604    113.1543   6.0503685868e+01   1.7577647410e+01    0.6640263    0.3242349 -48.03  0.002407312    2.065    0.516
        31 -18.0822    248.4609    154.8629   6.2448676523e+01   2.0225917199e+00     17.51301       2.5948 -39.39   0.04650344    5.664    0.823
        32 -10.7023    226.6951    114.7205   5.7206666619e+01   1.2858156567e+01     0.173307    0.1386435 -51.32 0.0002436278    1.216    0.178
        33 -14.0996     55.5565    147.9123   1.0616888515e+02   3.8190322055e+01    0.5533195    0.4632005 -58.39 0.0009049174    1.139    0.122
        34 -11.0754    189.9671    106.6289   6.1729530116e+01   2.2120109724e+01    0.4077792    0.3068967  38.65  0.001985358    1.463    0.316
        35 -11.5911    150.9559    150.9240   8.1107738015e+01   2.1276045352e+01    0.3547013    0.2459452  54.49  0.001065528    1.620    0.383
        36 -13.1077    200.4131    100.1409   5.8164586052e+01   2.1002935235e+01    0.4234683    0.3724298 -15.89  0.001568366    1.242    0.195
        37 -11.5064    187.4604     98.6971   6.0188804429e+01   2.4178038996e+01    0.4026775    0.3021898  -9.16  0.001285902    1.751    0.429
        38 -10.3783    200.8786     88.4086   5.5145424703e+01   2.2988632284e+01    0.3001304    0.1768081  71.20  0.001264374    2.192    0.544
        39  -9.9283    202.4328    248.4525   8.8152089282e+01  -5.5678334909e+00    0.1208767   0.09667753  14.37 6.456854e-05    1.023    0.023
        40 -12.1576    133.6443    145.5989   8.4224679123e+01   2.5948278479e+01     1.032366    0.3183923 -56.16  0.002593479    4.908    0.796
        41 -13.0428    103.3286     60.3083   6.8872525049e+01   5.0452962988e+01    0.5072979    0.4363891 -74.27  0.001844909    1.521    0.342
        42 -11.6523    185.8360     59.4011   5.0089094060e+01   3.1265770290e+01     0.257595    0.2010258 -56.02 0.0002572397    1.266    0.210
        43 -13.1075    191.7978     55.2814   4.8064191120e+01   3.0462479098e+01    0.5661989    0.3471144  56.02  0.002246674    1.637    0.389
        44 -11.4964    132.4590    138.4945   8.2906681658e+01   2.7830856668e+01    0.4592056    0.3110299 -75.80  0.001841154    2.177    0.541
        45 -15.7362     21.7731    159.2155   1.1669785926e+02   3.8912903602e+01     2.411828     1.861256  53.19    0.0150874    1.333    0.250
        46  -9.9631    185.2512     45.2603   4.6380774756e+01   3.3457236121e+01    0.2948823    0.2021044  23.23  0.001061213    2.224    0.550
        47 -12.4700    181.2540     54.1234   4.9400619610e+01   3.3158358170e+01     0.332735    0.2483859 -40.61 0.0006264082    1.329    0.248
        48 -10.8351    179.9825     47.7943   4.7870265165e+01   3.4376864016e+01    0.3098691    0.2383586  80.18  0.001099396    1.305    0.234
        49 -11.1545    171.9730    149.7673   7.5955191188e+01   1.7259173291e+01    0.2868368    0.2201699  61.89  0.001353698    1.586    0.369
        50 -11.7338    194.6840    166.1391   7.4679595656e+01   9.5072169123e+00    0.2290325    0.1833982 -55.74  0.001057079    1.466    0.318
        51 -11.5568    175.1515    164.1296   7.8410860812e+01   1.3644312863e+01      0.20231    0.1818193 -70.40 0.0006902405    1.326    0.246
        52 -13.1080    182.5664     37.9365   4.4798708631e+01   3.5082239072e+01    0.4889135    0.2664721 -23.07  0.001598497    2.258    0.557
        53 -11.6959    192.2850     34.4241   4.2552903655e+01   3.3201727955e+01    0.5043266    0.3941492  27.43  0.001731677    1.720    0.419
        54  -8.2760    194.7865     26.7860   4.0289005066e+01   3.3543409939e+01    0.3078914    0.1606514 -57.21  0.001141938    2.036    0.509
        55 -10.0411    197.5878     24.5219   3.9396218986e+01   3.3150777428e+01    0.2290196    0.1958676  17.48 0.0005114245    1.579    0.367
        56 -10.8995    170.0358     32.1996   4.5050150569e+01   3.8849385927e+01    0.2667725    0.2002431 -31.93 0.0006426248    1.431    0.301
        57  -9.6687    206.2928     28.2332   3.9340720257e+01   3.0686496633e+01    0.3319383    0.2057209  -5.13  0.001509876    2.895    0.655
        58 -12.1320    143.8463    146.3206   8.1812449419e+01   2.3742726482e+01    0.7533758    0.3415198 -58.88  0.002426752    3.116    0.679
        59 -10.1439    200.7812     20.8888   3.8147951315e+01   3.2823398358e+01    0.1399843     0.103533 -32.22  0.000362955    1.471    0.320
        60 -12.8752    178.5114    145.3359   7.3499559317e+01   1.6845283093e+01    0.8114297    0.4301134 -59.42  0.001905215    2.879    0.653
        61 -18.1527    227.9597     67.0425   4.5979896975e+01   2.0494018877e+01     5.016219     4.069877 -52.65   0.02974416    1.083    0.077
        62 -10.3292    199.7227     14.8764   3.6790597051e+01   3.3733636649e+01    0.1953536     0.113664 -56.89 0.0008040949    1.669    0.401
        63 -13.1330    182.1424    207.4500   8.5385879268e+01   4.0317666843e+00    0.6583181    0.3616953   9.22  0.002456611    3.355    0.702
        64 -10.5956      6.3586    208.2941   1.2394132399e+02   2.9008938213e+01    0.1044538   0.08156329 -51.76 0.0007031161    1.697    0.411
