#   1 NUMBER                 Running object number                                     
#   2 MAG_AUTO               Kron-like elliptical aperture magnitude                    [mag]
#   3 X_IMAGE                Object position along x                                    [pixel]
#   4 Y_IMAGE                Object position along y                                    [pixel]
#   5 X_WORLD                Barycenter position along world x axis                     [deg]
#   6 Y_WORLD                Barycenter position along world y axis                     [deg]
#   7 A_WORLD                Profile RMS along major axis (world units)                 [deg]
#   8 B_WORLD                Profile RMS along minor axis (world units)                 [deg]
#   9 THETA_WORLD            Position angle (CCW/world-x)                               [deg]
#  10 FWHM_WORLD             FWHM assuming a gaussian core                              [deg]
#  11 ELONGATION             A_IMAGE/B_IMAGE                                           
#  12 ELLIPTICITY            1 - B_IMAGE/A_IMAGE                                       
         1 -12.8908    199.9147     35.8184   5.6188167030e+01   3.0228057843e+01     1.234047      1.05116  36.11  0.006597078    1.251    0.200
         2 -13.6738    215.5249     19.5435   4.9527227620e+01   2.8101131829e+01     1.578596    0.9848604  30.50  0.007207186    2.077    0.519
         3 -10.7051      2.2792      4.4039   1.0564733241e+02   7.3996726751e+01    0.3685305    0.1108935 -53.92  0.001777374    2.451    0.592
         4 -11.5439    121.6164    248.3942   1.1511325858e+02   1.1641904271e+01    0.2787208     0.158266  53.47  0.001708427    1.410    0.291
         5 -12.7541    158.0515    249.0196   1.0915767198e+02   6.2627992740e+00      1.22708    0.2292107  38.22  0.003853815    5.976    0.833
         6  -9.6126     62.9864    250.4898   1.2475773530e+02   1.9038137827e+01    0.1542107   0.07175498  45.05  0.001029887    1.586    0.369
         7 -12.8049      4.2202    184.9345   1.3121759091e+02   3.6198404290e+01     1.391006    0.4110523 -80.38  0.001398957    2.845    0.649
         8 -15.5251      9.1209    210.6707   1.3147559257e+02   3.1156299132e+01     9.851238     1.408255 -79.48   0.02719183    6.537    0.847
         9 -15.0520     35.5120    213.5981   1.2713369165e+02   2.8039248558e+01      5.81285     1.384679  43.02   0.02932383    2.849    0.649
        10 -10.3962    103.7363    238.0152   1.1717765855e+02   1.5603547443e+01    0.1498377    0.1176592  59.00 0.0006016611    1.083    0.077
        11  -9.6896    191.7242    192.7341   9.5602059738e+01   8.0707200521e+00    0.3659576    0.2065426 -65.71   0.00117497    7.039    0.858
        12 -10.3159     52.1293    240.7544   1.2591635005e+02   2.1766742146e+01    0.2888575    0.1155205  71.59  0.001587704    2.821    0.646
        13 -11.4590     57.1982    190.4268   1.2151306767e+02   2.9740585112e+01    0.2887054    0.2263651 -47.16  0.001306655    1.859    0.462
        14 -11.5925     63.4167    183.3165   1.1963670484e+02   3.0322518593e+01    0.2287937    0.2118043 -78.25 0.0006631319    1.337    0.252
        15  -8.8331     50.4602    181.5019   1.2208529348e+02   3.2242770951e+01    0.1176152   0.08709193  70.98 4.513587e-06    1.082    0.076
        16 -10.6991    222.2121    194.5365   9.0549573942e+01   2.5861195783e+00    0.5505276    0.3074064 -54.86  0.002307618    4.492    0.777
        17 -10.8341     74.0117    171.8633   1.1623973847e+02   3.1180162680e+01    0.2151003     0.189895 -87.55 0.0003733102    1.161    0.139
        18 -13.0628     60.5659    169.1407   1.1881887537e+02   3.3471318589e+01    0.4167395    0.2555002 -48.20  0.001420899    2.186    0.542
        19 -11.8752     81.7830    163.4547   1.1352957653e+02   3.1791875131e+01    0.6453314    0.4496883  59.70  0.003856844    1.308    0.236
        20 -12.5170     67.5133    144.2548   1.1427328645e+02   3.7779636313e+01    0.7707982    0.4732692  73.84  0.003166053    1.800    0.444
        21  -9.9471     95.7344    148.5672   1.0820920828e+02   3.2767568457e+01    0.2530302    0.2416429  74.74 0.0008312459    1.125    0.111
        22  -9.1827     99.1249    144.8204   1.0680004633e+02   3.3009154445e+01    0.2380002    0.1677061 -32.71 0.0009406122    2.023    0.506
        23 -11.8780     84.0614    147.3330   1.1076872187e+02   3.4810482611e+01    0.2658346    0.2190203 -57.77  0.000532908    1.298    0.230
        24 -13.2707      4.4674    248.7624   1.3351840313e+02   2.5476908019e+01     2.057695    0.4806855  37.29   0.01136834    3.505    0.715
        25  -9.5278    108.3184    134.8693   1.0282280876e+02   3.3560513307e+01    0.3074819    0.2373065 -23.46  0.001243246    1.820    0.451
        26 -11.7459     57.5126    132.5162   1.1511396573e+02   4.1610039138e+01    0.6616088    0.2791882 -82.08  0.002511817    3.486    0.713
        27 -10.3428     95.2417    131.7023   1.0546042107e+02   3.6433050210e+01    0.2353911    0.2163379 -28.82 0.0002916568    1.325    0.245
        28  -9.2324    105.8596    122.2035   1.0093254272e+02   3.6690108115e+01    0.1934765    0.1745316  78.14 0.0002554918    1.088    0.081
        29  -9.8589    168.2284    113.2815   8.4067820843e+01   2.5769756541e+01    0.3499903     0.271725 -80.41  0.001112572    1.781    0.438
        30  -8.9427    203.4579    111.5118   7.6618928337e+01   1.8127484187e+01    0.1482437    0.1348905  10.09 3.970632e-05    1.060    0.056
        31 -11.4716    243.0024    102.3129   6.7811737660e+01   1.0879465700e+01    0.3627839    0.1672904 -28.85  0.001550767    2.010    0.502
        32 -12.4316     12.2970    247.0414   1.3232471360e+02   2.5000068996e+01    0.5727681    0.4205945 -86.85  0.003158238    1.484    0.326
        33 -11.9784     41.5927    206.3651   1.2562291677e+02   2.8640138264e+01     0.324346    0.2738133  44.92 0.0004834796    1.432    0.302
        34 -12.7119     28.4701    221.7648   1.2876075843e+02   2.7396363634e+01    0.2847529     0.245564 -86.40 0.0007422768    1.461    0.316
        35 -12.5430    139.6127    249.6925   1.1226676929e+02   8.8884001222e+00    0.6943952    0.2406752  43.40  0.003664414    2.081    0.519
        36 -10.0484     85.4751    248.5113   1.2104093090e+02   1.6532218343e+01    0.1046987   0.07407924  56.05 7.592219e-05    1.003    0.003
        37  -9.7416     17.7044     25.7629   1.0567031770e+02   6.8913527636e+01    0.1578725   0.08555619  36.02 0.0008891421    2.346    0.574
        38 -10.9473      2.4246     18.7194   1.1098659075e+02   7.1284739229e+01    0.2582511    0.1314753 -59.51  0.001541264    1.555    0.357
        39  -8.6882     26.3079     29.6896   1.0298461238e+02   6.7427157875e+01    0.1083353   0.09149888 -87.36 0.0007023507    1.618    0.382
