#   1 NUMBER                 Running object number                                     
#   2 MAG_AUTO               Kron-like elliptical aperture magnitude                    [mag]
#   3 X_IMAGE                Object position along x                                    [pixel]
#   4 Y_IMAGE                Object position along y                                    [pixel]
#   5 X_WORLD                Barycenter position along world x axis                     [deg]
#   6 Y_WORLD                Barycenter position along world y axis                     [deg]
#   7 A_WORLD                Profile RMS along major axis (world units)                 [deg]
#   8 B_WORLD                Profile RMS along minor axis (world units)                 [deg]
#   9 THETA_WORLD            Position angle (CCW/world-x)                               [deg]
#  10 FWHM_WORLD             FWHM assuming a gaussian core                              [deg]
#  11 ELONGATION             A_IMAGE/B_IMAGE                                           
#  12 ELLIPTICITY            1 - B_IMAGE/A_IMAGE                                       
         1 -14.2478    209.0415     10.0626   4.1687147514e+01   3.1165265150e+01      3.68282     1.931457  30.80   0.01448247    3.420    0.708
         2 -13.3060    172.8609     53.7732   5.9383882252e+01   3.4933898617e+01     1.977353      1.24969  28.84  0.005891969    2.126    0.530
         3 -12.6423    192.1960     33.7998   5.0245250833e+01   3.2700737093e+01    0.5885136    0.4877471  42.91  0.001438067    1.315    0.240
         4 -12.7126    247.4775    244.8858   8.9076076322e+01  -1.0770454236e+01    0.8633106    0.6224427   0.18  0.006228571    1.211    0.174
         5 -13.0739     49.8708    207.6185   1.2155878871e+02   2.5796802520e+01    0.4689977     0.198615  59.49  0.002335452    2.214    0.548
         6 -11.1879     70.0660    206.8792   1.1751675126e+02   2.3323529727e+01    0.5186619    0.2792215  26.41  0.001964751    2.821    0.646
         7  -9.4789    189.5270    207.5101   9.3324694686e+01   3.2414728737e+00    0.1331274    0.1135732  27.29 6.812142e-05    1.002    0.002
         8 -10.7651     60.0466    203.5025   1.1919484103e+02   2.5346133934e+01    0.2635372    0.2317411 -12.16  0.001494319    1.892    0.472
         9  -9.2969     87.6810    203.0421   1.1352047736e+02   2.1569188450e+01    0.2493705    0.1862096 -87.32  0.001515206    1.313    0.238
        10 -10.8544    193.1932    195.2743   9.0433576575e+01   4.5235804062e+00     0.906859    0.4578911 -60.54  0.002882874    5.537    0.819
        11  -9.7822    246.6640    200.3319   8.1500228772e+01  -5.4382874193e+00    0.1076692    0.1031316 -79.36 -7.706753e-05    1.735    0.424
        12  -9.9129    203.9980    199.5126   8.9109886069e+01   1.8948821922e+00    0.1984042    0.1010115  23.32 0.0008103988    2.576    0.612
        13 -11.8220    150.9546    195.9416   9.9183958279e+01   1.2250773059e+01    0.4391494    0.3708103  58.09  0.002150752    1.170    0.145
        14 -11.5063     62.6882    196.0658   1.1793500340e+02   2.6537944187e+01     0.318316    0.2239889 -44.85  0.001265044    2.041    0.510
        15  -9.1931     82.4422    195.2819   1.1371039135e+02   2.3942012904e+01    0.3224199     0.186188  66.86  0.001637104    1.816    0.449
        16  -8.5840     78.5138    193.4809   1.1433363691e+02   2.4892856809e+01    0.1311303    0.1060955  71.78 0.0008097811    1.047    0.045
        17  -9.5860    156.5284    190.0862   9.7013145631e+01   1.2302039549e+01    0.1898166    0.1395145 -46.37 0.0003169825    1.510    0.338
        18 -10.7585    150.9722    188.5044   9.7922792205e+01   1.3645109410e+01    0.3107463    0.1786259 -55.90  0.001432917    2.045    0.511
        19 -10.7675    141.1470    188.1188   9.9974921718e+01   1.5551690323e+01    0.2116237    0.1917125  13.15  0.001002096    1.262    0.208
        20 -11.0900    134.4777    186.4932   1.0115743103e+02   1.7100533031e+01    0.3659572    0.2160498  74.69   0.00142641    3.009    0.668
        21 -10.0003     75.1539    249.2311   1.2028349037e+02   1.4824394859e+01    0.2823716    0.0812002 -58.19  0.001277906    4.149    0.759
        22 -10.1328    238.4090    185.2281   8.0026597543e+01  -2.0235007026e+00    0.1784883    0.1161977 -39.01 0.0009572447    1.693    0.409
        23 -10.3791    151.3885    180.7064   9.6452403068e+01   1.5072388660e+01    0.3824523    0.2365674 -87.72  0.001366281    3.723    0.731
        24 -11.0550     99.3147    180.8714   1.0811801836e+02   2.4391077166e+01    0.2724323    0.2686555  20.96  0.000645962    1.262    0.208
        25  -9.9307    188.9987    178.4847   8.8074401086e+01   8.1525360556e+00    0.3793899    0.2477923  61.06   0.00110376    2.064    0.515
        26  -9.8345    187.8481    173.3849   8.7289179488e+01   9.2818508696e+00    0.4498911     0.275335 -62.13  0.001854219    2.692    0.629
        27 -10.9014    242.1499    174.0276   7.7115237146e+01  -1.0471011434e+00    0.3172139     0.178357   9.13  0.001357513    2.610    0.617
        28  -9.6279     62.7599    220.9134   1.2021811940e+02   2.1552983698e+01    0.3164572     0.151932  64.79  0.001660425    2.027    0.507
        29 -10.0284    240.3859    169.2057   7.6425379903e+01  -2.2369050615e-02    0.1808062    0.1171923 -38.86 0.0004697599    1.610    0.379
        30 -19.4940     27.7749    147.2043   1.2063998675e+02   4.1426118095e+01     19.22183     4.882845 -74.44       0.0679    3.749    0.733
        31  -8.7509    187.0000    165.9704   8.5937554448e+01   1.0794892231e+01    0.2358788   0.08278815 -41.26 0.0008065059    2.971    0.663
        32  -9.5195      2.9413    161.7650   1.2756431432e+02   4.0260775660e+01    0.1622611    0.1118345  71.40 0.0004437969    1.227    0.185
        33  -9.0566    149.4899    155.9961   9.2069568591e+01   2.0474507259e+01    0.2099218    0.1327933 -73.38 0.0008102263    2.525    0.604
        34  -9.3083    188.4872    152.9779   8.2823352585e+01   1.2900006131e+01    0.2077448    0.1294081 -62.83 0.0008102289    2.538    0.606
        35 -11.0810    133.8222    145.4989   9.3570168686e+01   2.5928273134e+01     1.249234    0.3213389 -54.77  0.003001909    5.738    0.826
        36 -10.2040    113.3442    151.6330   9.9868661851e+01   2.8486353508e+01    0.3211739    0.2282632  83.21  0.001160394    1.780    0.438
        37  -9.4232    174.5082    148.7903   8.4868289808e+01   1.6685423116e+01    0.2819044    0.2242934 -72.37  0.001042362    1.625    0.385
        38  -9.8025     92.0284    147.1221   1.0440358564e+02   3.3222659574e+01    0.2921037    0.2205455  76.62  0.001502722    1.434    0.303
        39 -10.6130     57.2229    213.8137   1.2066499548e+02   2.3645155112e+01     0.233392    0.1514702  62.59   0.00085731    1.258    0.205
        40 -11.6903    108.4634    138.5475   9.8495617077e+01   3.2393256196e+01    0.7251618    0.3866652 -42.67  0.002963459    2.095    0.523
        41 -10.9414    106.0228    130.8304   9.7501303298e+01   3.4639753091e+01    0.4076768    0.3419271 -75.58  0.001144228    1.220    0.180
        42  -9.0154    118.1796    146.4097   9.7630763185e+01   2.8778294448e+01    0.2142153    0.1330843  53.73 0.0006371868    1.685    0.407
        43 -11.8058     97.2420    137.3022   1.0118407415e+02   3.4665794625e+01    0.3210081     0.282039 -81.78 0.0003036097    1.103    0.093
        44  -9.9069    136.0000    129.5261   8.9421745519e+01   2.9029154666e+01    0.5123101   0.08772309 -47.02  0.001146813    5.840    0.829
        45 -10.3605    115.4630    128.9934   9.4586415919e+01   3.3298508016e+01    0.3396111    0.2721484 -36.44 0.0006052126    1.360    0.265
        46  -9.6014    161.7086    128.7234   8.3027205520e+01   2.3588686496e+01    0.4256404    0.2922188  59.66  0.001854719    1.646    0.392
        47 -10.5899    103.3416    124.6208   9.6852264414e+01   3.6581955357e+01     0.306833    0.2553222 -13.77 0.0007049006    1.534    0.348
        48 -10.3829    120.6482    123.0108   9.1818582244e+01   3.3655108330e+01    0.4672694    0.3033121 -20.62  0.001810841    2.498    0.600
        49 -10.0547    134.8754    119.9097   8.7354901122e+01   3.1403114329e+01     0.382858     0.100868 -45.84  0.001050279    3.764    0.734
        50  -9.1721    151.9619    118.9880   8.2880307590e+01   2.7836567748e+01    0.2556066    0.1965122 -82.22 0.0009419701    1.737    0.424
        51  -9.4066    110.6946    118.1595   9.3329877901e+01   3.6719538507e+01    0.2343141    0.2006598  56.95 0.0003522642    1.216    0.177
        52  -9.9126    231.2003    113.6240   6.5441255365e+01   1.0744183286e+01    0.2679306    0.2416493 -23.38 0.0007219033    1.027    0.026
        53  -9.7080    167.6320    112.7024   7.7582718905e+01   2.5524889909e+01    0.3873531    0.2881746 -77.39  0.001383828    1.866    0.464
        54 -10.1550    134.5655    105.3550   8.3617499919e+01   3.4661174177e+01    0.8529732    0.1545323 -42.35  0.001895974    5.758    0.826
        55 -11.2168     44.3214    211.0892   1.2289622496e+02   2.5773722508e+01    0.3082343    0.1867662 -84.56 0.0008471795    1.477    0.323
        56 -11.3147    119.4302    110.0037   8.8890610240e+01   3.6854327076e+01    0.5175024    0.4470651  70.60  0.002422313    1.279    0.218
        57  -9.6067    205.3346    110.2201   6.9152533334e+01   1.7125951419e+01     0.314568    0.2154002  44.44  0.001034057    1.514    0.340
        58 -10.2391     39.0663    212.6289   1.2399509316e+02   2.6084393384e+01    0.1605812   0.08831885  46.81 0.0006919382    1.584    0.369
        59  -9.7005    184.4905    212.0874   9.5077034682e+01   3.4216367986e+00    0.1803155     0.130355 -39.37   0.00103262    1.591    0.372
        60  -9.3538    185.1709     85.0087   6.6246701322e+01   2.6562237301e+01    0.2823725    0.2315502  57.17 0.0009412533    1.242    0.195
        61 -10.9795     71.9529    245.2208   1.2052658996e+02   1.5933377090e+01    0.2295038    0.1622681 -73.27  0.001624093    1.566    0.361
        62  -9.3317    167.8428    231.1026   1.0121640921e+02   3.3849035876e+00    0.2136244    0.1688759  18.25 0.0008630395    1.336    0.251
        63 -13.1776    187.5746     39.8782   5.2696957389e+01   3.3100575527e+01     0.888538    0.8158762  59.60  0.003111082    1.094    0.086
