#   1 NUMBER                 Running object number                                     
#   2 MAG_AUTO               Kron-like elliptical aperture magnitude                    [mag]
#   3 X_IMAGE                Object position along x                                    [pixel]
#   4 Y_IMAGE                Object position along y                                    [pixel]
#   5 X_WORLD                Barycenter position along world x axis                     [deg]
#   6 Y_WORLD                Barycenter position along world y axis                     [deg]
#   7 A_WORLD                Profile RMS along major axis (world units)                 [deg]
#   8 B_WORLD                Profile RMS along minor axis (world units)                 [deg]
#   9 THETA_WORLD            Position angle (CCW/world-x)                               [deg]
#  10 FWHM_WORLD             FWHM assuming a gaussian core                              [deg]
#  11 ELONGATION             A_IMAGE/B_IMAGE                                           
#  12 ELLIPTICITY            1 - B_IMAGE/A_IMAGE                                       
         1  -9.7746     97.9585     14.1377   5.5065772597e+01   5.8096347236e+01    0.4898485    0.2176325 -37.22  0.002148934    2.639    0.621
         2  -9.7752     40.9503     13.7539   7.5797372233e+01   6.8569716898e+01    0.2164409    0.1527767 -18.78 -0.000275831    1.248    0.199
         3  -8.5814     36.0000      8.9384   7.5807419776e+01   6.9869729722e+01    0.1787897    0.0599631 -34.70 0.0004039392    2.839    0.648
         4  -9.3759     71.3709      6.5962   5.9872792833e+01   6.4331106607e+01    0.2300986    0.1183837  64.59 0.0009636452    3.248    0.692
         5 -11.9420    237.6228    241.2761   8.2010864942e+01  -9.3181614850e+00    0.4051334    0.3124863  16.43  0.001570572    1.155    0.134
         6 -11.2557    246.7372    248.3624   8.1554660550e+01  -1.1347439637e+01     0.505483    0.3625517  24.96  0.002388323    1.318    0.241
         7 -11.6285    249.6989    239.4748   7.9575417851e+01  -1.0675227709e+01    0.5654888    0.2743188 -35.52   0.00318129    2.205    0.546
         8 -11.0530    160.5347    244.6491   9.7368232762e+01   1.6121794185e+00    0.4066291    0.2065796  39.29  0.001828461    1.614    0.380
         9 -11.0370    167.3226    242.4347   9.5687336041e+01   8.9105997706e-01     0.432573    0.2123233  44.74   0.00181106    1.917    0.478
        10  -9.3834    108.0332    237.2047   1.0718425139e+02   1.1056267696e+01    0.2821212    0.1722359  89.95  0.001415451    2.437    0.590
        11  -9.9042    160.8573    234.7168   9.5885176352e+01   3.1458703023e+00     0.272827    0.2208203 -51.16 0.0004853315    1.537    0.349
        12 -10.0723    164.9806    234.0489   9.4937035577e+01   2.5898666026e+00    0.2413844    0.2185123  67.36  0.001193933    1.416    0.294
        13 -10.5612    169.2376    232.2674   9.3792956995e+01   2.1906154248e+00    0.5483784    0.3199434 -39.47  0.002085208    1.985    0.496
        14  -9.5512    171.0377    225.5207   9.2372731670e+01   2.9995121244e+00    0.2385169     0.167955  39.94  1.05566e-05    1.286    0.222
        15 -11.2489    164.6607    226.4090   9.3842820838e+01   3.9028693898e+00    0.4798634    0.3545613  17.45  0.002743287    1.345    0.257
        16 -10.4216    160.5290    227.4743   9.4872174101e+01   4.4041849144e+00    0.3322757    0.2534634   8.48  0.001401303    1.432    0.302
        17 -10.3506    236.9750    231.7850   8.0536013128e+01  -8.0292839374e+00    0.2266632    0.1936087 -35.48   0.00155106    1.651    0.394
        18 -10.3667    212.3408    246.6768   8.7533731625e+01  -6.5088409599e+00    0.1856689    0.1698929  23.97  0.001330055    1.425    0.298
        19 -10.9073     99.2691    226.6991   1.0781803577e+02   1.4355702357e+01    0.3557643    0.3188793 -35.45  0.001267846    1.431    0.301
        20  -8.9752     72.8133    228.9082   1.1358925278e+02   1.7701526799e+01    0.2286907    0.1471071  74.93  0.001072727    1.599    0.374
        21 -10.9242    127.9099    226.3259   1.0164201820e+02   9.9521119505e+00    0.3767362    0.2651141 -23.46  0.001693876    2.071    0.517
        22 -11.2341    125.5201    221.2767   1.0147077763e+02   1.1285777061e+01    0.4241945    0.3680904   7.94 0.0007998604    1.336    0.252
        23  -9.9953    117.1799    227.1857   1.0405385410e+02   1.1503409388e+01    0.3334188    0.2367591  57.63  0.001280593    1.395    0.283
        24  -9.2009    114.9841    221.4656   1.0379088099e+02   1.2943119860e+01    0.2608965    0.1817111 -45.61  0.001132152    1.722    0.419
        25 -10.5368     87.8544    225.5997   1.1011746542e+02   1.6252587156e+01    0.5282999    0.2405706 -48.29  0.002387023    2.912    0.657
        26  -9.4177    185.1116    226.7282   8.9671431332e+01   5.0700925626e-01    0.2029644    0.1797731 -45.02 0.0008304704    1.439    0.305
        27  -9.8617    108.8782    222.7838   1.0528498461e+02   1.3647237069e+01    0.2919157    0.2325845  11.40  0.001689203    1.599    0.374
        28  -9.5872     19.9887    222.8730   1.2360668053e+02   2.5149520061e+01    0.2094513    0.1743779 -42.72  0.001500585    1.817    0.450
        29  -9.0623    157.3581    221.9049   9.4687227986e+01   5.8901661520e+00    0.1761506    0.1617218  -0.00  0.000574401    1.152    0.132
        30 -10.3126    132.2724    220.6765   9.9916178907e+01   1.0293730390e+01    0.3925262    0.3368558 -77.98  0.002231278    1.392    0.282
        31  -9.5368    131.3131    214.9245   9.9296170325e+01   1.1547724026e+01    0.2723454    0.2414255 -38.66 0.0008657704    1.298    0.229
        32  -8.9216    148.6056    220.6882   9.6376976209e+01   7.5735437767e+00    0.2162584    0.1301251 -45.09  0.000555204    1.908    0.476
        33  -8.9335     83.5021    220.4936   1.1049375799e+02   1.7899354927e+01    0.1307303    0.1067549  60.29 1.424514e-05    1.050    0.048
        34  -8.7845     75.2647    220.3364   1.1223688635e+02   1.9086213108e+01      0.18086   0.09552855  45.32 0.0006480952    1.611    0.379
        35  -9.2656    191.9418    217.4929   8.6735014033e+01   8.6371338218e-01    0.1976711    0.1721083 -12.63 0.0005272629    1.173    0.148
        36  -9.3327     98.8574    217.4472   1.0680972868e+02   1.6249924796e+01    0.2939566    0.1915526 -79.99  0.001547741    1.843    0.457
        37  -8.6182    175.9808    216.7782   8.9915231446e+01   3.6408714040e+00    0.1798321    0.1586168 -83.47  0.001057155    1.641    0.390
        38  -9.1679    143.8058    216.8784   9.6839712623e+01   9.0786494423e+00    0.2186808    0.1881907 -58.37 0.0009100861    1.366    0.268
        39  -8.5155     62.3095    217.6473   1.1471928533e+02   2.1367872982e+01    0.1352796   0.07790263  65.86 0.0006600711    1.721    0.419
        40  -9.4894     78.6846    211.4505   1.1055162157e+02   2.0452093042e+01     0.268916    0.1155764  36.00  0.001202219    2.155    0.536
        41 -11.6517    165.9110    248.8005   9.6867991938e+01   1.4185222052e-01    0.6962251    0.3081297  31.35  0.003180314    1.999    0.500
        42  -8.6695    202.5016    209.5094   8.3191285071e+01   4.0678701998e-01    0.1347034    0.1145064  12.38 -4.137021e-05    1.026    0.026
        43  -8.8174    135.7054    208.8996   9.7409330735e+01   1.1977036877e+01    0.1787981    0.1710422  56.55 0.0003656631    1.105    0.095
        44  -8.8871    212.7599    207.9976   8.0884025366e+01  -1.0265386327e+00    0.1628416    0.1050828 -32.75 0.0004039304    1.569    0.363
        45  -9.0114     99.8208    206.7522   1.0523853503e+02   1.8306801920e+01    0.2608328    0.1639423  77.47  0.001227294    2.116    0.528
        46  -9.5710     10.8398    207.6709   1.2449441580e+02   2.9135316901e+01     0.191915    0.1081132  19.37  0.001084602    2.577    0.612
        47  -8.8232     56.9784    206.1194   1.1476978740e+02   2.4485692035e+01    0.2293869    0.1097335  58.23   0.00108075    2.100    0.524
        48  -8.5681     80.3435    201.6883   1.0905157883e+02   2.2309236279e+01    0.1433316   0.08879537  64.36  0.000704611    1.703    0.413
        49 -10.3466    250.4008    198.3858   7.2126164234e+01  -5.3686623002e+00    0.3567621    0.1278984 -31.31  0.001375083    2.656    0.623
        50  -8.8015    149.9285    199.4378   9.2656685952e+01   1.1347592045e+01    0.2744984    0.1775169  82.41  0.001035394    3.444    0.710
        51  -9.5345     89.2276    199.5132   1.0672969412e+02   2.1479900396e+01    0.3256848    0.2046829  75.03  0.001299599    1.954    0.488
        52 -10.9337    173.7012    195.5215   8.6663901272e+01   7.8165470078e+00    0.5437332    0.4399027 -50.53  0.002135005    1.443    0.307
        53  -9.0254    113.1580    198.0785   1.0093493131e+02   1.8000855601e+01    0.2932188     0.158143  57.38  0.001237122    2.214    0.548
        54  -8.5515    131.7628    195.6216   9.6192030116e+01   1.5337861402e+01    0.2082223    0.1206019  46.04 0.0008628353    1.631    0.387
        55  -9.0864     66.5487    194.7302   1.1141785937e+02   2.5757206461e+01    0.2838235    0.1535246  72.80  0.001272603    2.306    0.566
        56  -8.2831    103.6152    194.3107   1.0262929888e+02   2.0376481945e+01    0.1522087   0.09771627  64.37 0.0007019676    1.811    0.448
        57  -8.9610     43.8999    193.7960   1.1649694802e+02   2.8764326860e+01    0.2582761    0.1339953  74.61  0.001236919    2.140    0.533
        58  -9.8089    126.4635    197.5390   9.7739435260e+01   1.5861366554e+01    0.3235002    0.2560976  18.37   0.00125926    1.411    0.291
        59  -8.5480     78.0117    193.4980   1.0858921619e+02   2.4454333518e+01    0.1979653   0.09046046  54.84 0.0005844821    2.396    0.583
        60  -8.5459    124.3169    192.2888   9.7396649121e+01   1.7339365702e+01    0.1387787    0.1115806  -1.66 0.0002250882    1.593    0.372
        61  -9.3166    139.0877    190.2086   9.3558612063e+01   1.5158051544e+01    0.2794607    0.1908043  53.66  0.001341474    1.560    0.359
        62  -8.9772    204.3111    188.7505   7.8914326481e+01   3.5506909621e+00     0.322879    0.1795173  51.79  0.001392487    2.406    0.584
        63  -8.7859    129.9495    189.0111   9.5511766653e+01   1.7047428562e+01    0.2375159    0.1678802  66.06  0.001122616    1.755    0.430
        64  -8.9026     87.0140    189.5093   1.0592119447e+02   2.4034679868e+01    0.2082192    0.1249177  40.62 0.0007412098    1.556    0.357
        65  -9.2959    156.8123    188.0991   8.9066209135e+01   1.2341805508e+01    0.2937884    0.1858316  41.85  0.001379823    1.482    0.325
        66 -10.7531     95.6121    186.9068   1.0346936420e+02   2.3299629659e+01    0.7071421    0.3607975  59.09  0.002504155    2.481    0.597
        67  -9.2496     55.7125    187.6296   1.1315600257e+02   2.8757258100e+01    0.3605109    0.1563718  60.22   0.00145717    2.814    0.645
        68  -8.9097     35.0216    188.0563   1.1797363031e+02   3.1029934525e+01    0.2180438    0.1193671  64.89  0.001134274    1.797    0.444
        69  -9.0593    120.8341    186.7459   9.7315405248e+01   1.9140451902e+01    0.2844706    0.1980965 -69.45  0.001377524    1.696    0.410
        70  -9.9548    109.2194    185.8152   9.9983649626e+01   2.1331955026e+01    0.5139992    0.2741982  63.91  0.001928108    2.894    0.654
        71  -8.5931    198.3763    185.8044   7.9546441807e+01   5.1193144049e+00    0.2010956    0.1244239 -26.89 0.0006024921    1.718    0.418
        72 -11.1475     14.4416    184.2441   1.2224585317e+02   3.3873072239e+01    0.4235764    0.3373111 -16.44  0.002118337    1.929    0.482
        73  -9.4731      8.8282    180.1516   1.2318736552e+02   3.5262838307e+01    0.1676703    0.1354629  78.68 0.0007357097    1.053    0.051
        74  -9.7471    211.1010    183.2208   7.6456713120e+01   3.3053070561e+00    0.4620987    0.2981347  11.70  0.002163071    1.822    0.451
        75  -8.8027     66.3967    185.1756   1.1032879443e+02   2.7949968605e+01    0.1887594    0.1177805 -85.36 0.0007313936    1.709    0.415
        76  -8.7835     74.6243    184.3301   1.0822897346e+02   2.7019835864e+01    0.2206285    0.1415784  67.78  0.001086368    1.702    0.413
        77  -8.0813    218.6434    183.2847   7.4994537674e+01   1.9845754844e+00    0.1240206    0.1122943  77.75  0.000702034    1.671    0.402
        78  -8.8246     45.0094    183.1400   1.1519876084e+02   3.1058043707e+01    0.2206605    0.1133647  56.15  0.001041001    1.940    0.484
        79  -8.7887     27.4098    183.2202   1.1927673652e+02   3.2900864369e+01    0.1791549   0.09860824  88.35 0.0009425906    1.713    0.416
        80  -8.6615    197.5174    181.9969   7.8964722304e+01   5.9531845337e+00    0.2087418    0.1355529 -36.23 0.0006813708    1.549    0.354
        81  -9.4733    148.9012    181.3176   8.9634470534e+01   1.5201288359e+01    0.3396614    0.2213082  35.79 0.0008984525    1.453    0.312
        82  -8.6867    129.9813    177.9931   9.3563170418e+01   1.9424477966e+01    0.2350455    0.1764513  72.43 0.0007350785    1.686    0.407
        83  -9.7874    204.8291    176.1146   7.6269976792e+01   5.6683652603e+00    0.3254938     0.238195 -12.15  0.001131392    1.441    0.306
        84  -9.0005     88.9009    177.3407   1.0370608608e+02   2.6541728121e+01    0.2887468    0.1085785  42.38 0.0009382503    2.481    0.597
        85  -9.7575     77.4010    176.2526   1.0644365221e+02   2.8507875752e+01    0.4246279    0.1848599  48.51  0.001638427    2.337    0.572
        86  -9.2140     60.2740    177.3218   1.1085982111e+02   3.0576264072e+01    0.2772369    0.1216314  52.17  0.001157265    2.414    0.586
        87  -9.3608     13.1621    177.2218   1.2201633913e+02   3.5561753638e+01    0.2295538    0.1326247  55.43  0.001338892    1.614    0.381
        88  -8.7608    160.9396    176.4595   8.5882174646e+01   1.3915407447e+01     0.213319    0.1235237  59.38 0.0008087916    2.552    0.608
        89  -9.5812    105.9171    175.4753   9.9113458316e+01   2.4229667226e+01    0.3752762    0.2281224  62.23  0.001610429    2.052    0.513
        90  -8.9554     23.8082    175.2054   1.1941739108e+02   3.5078959525e+01    0.2248631   0.09287825  64.01 0.0009516752    2.835    0.647
        91  -9.3743      3.5586    174.1872   1.2394517622e+02   3.7014598346e+01    0.3900587    0.1351864  75.71  0.001519275    3.671    0.728
        92  -8.5823    193.4337    172.8138   7.7941626668e+01   8.3914083346e+00    0.1926815    0.1319261 -24.29 0.0004221389    1.548    0.354
        93  -8.8366     34.3450    173.6564   1.1677957773e+02   3.4411339219e+01    0.1400029   0.07992065  66.56 0.0007045941    1.792    0.442
        94  -8.9339    135.0391    172.0664   9.1213236648e+01   1.9790800822e+01    0.2414228    0.1817631  72.48 0.0008195131    1.719    0.418
        95  -8.1954    176.6747    171.2963   8.1258602926e+01   1.1904989512e+01    0.1427408     0.119937  77.02 0.0005946374    1.626    0.385
        96  -9.7094    122.3782    170.2664   9.4030669368e+01   2.2535635812e+01     0.408529    0.2496419  60.46  0.001194752    2.089    0.521
        97  -9.0906    213.9448    168.4889   7.2869037700e+01   5.3490371125e+00    0.3014823    0.1353127  41.69  0.001238055    2.261    0.558
        98  -9.1544    207.8233    170.3856   7.4477623022e+01   6.1386342651e+00    0.2868642    0.1911022  26.12  0.000951479    1.549    0.354
        99  -8.7259    210.3644    167.2292   7.3307170346e+01   6.2309858649e+00    0.2748993     0.187191 -32.52 0.0008933882    1.411    0.291
       100  -8.4116    150.6432    170.3237   8.7079018181e+01   1.7184401284e+01    0.1550636    0.1192287  74.19 0.0007045294    1.769    0.435
       101  -9.6690     55.5171    170.0080   1.1114130925e+02   3.2902486710e+01     0.349561    0.1665511  55.50  0.001348235    2.338    0.572
       102  -9.5007    111.9083    166.5542   9.6018535121e+01   2.5262506966e+01    0.4273464     0.244595 -69.96   0.00171993    2.281    0.562
       103  -9.3614    219.0124    166.2125   7.1410266608e+01   4.8238162743e+00    0.3109575    0.2278011  68.20  0.001393243    2.287    0.563
       104  -9.5432     99.9648    166.6764   9.9140549931e+01   2.7277024838e+01    0.4483978    0.2114558  51.91   0.00170047    2.443    0.591
       105  -9.0071     19.9918    166.9720   1.1959823073e+02   3.7331590395e+01    0.2084836     0.119798  66.06  0.001129214    1.718    0.418
       106  -9.5086    140.0296    165.6703   8.8724207510e+01   2.0249594104e+01    0.3873258    0.2407459  61.75  0.001559343    2.207    0.547
       107  -9.7250     80.2155    164.1846   1.0391534135e+02   3.0972822043e+01    0.5576718    0.2831863  72.59  0.001801261    4.058    0.754
       108  -8.8325    160.4767    164.9935   8.3649781844e+01   1.6377266400e+01    0.1997929     0.136982 -73.60 0.0006844191    2.357    0.576
       109  -9.2598     38.1209    164.9255   1.1493681452e+02   3.6084092906e+01    0.2851929    0.1483713  65.79  0.001156316    2.204    0.546
       110  -9.2764    148.6623    164.1164   8.6290832063e+01   1.8904103981e+01     0.261661    0.2030774  50.41  0.001063637    1.326    0.246
       111  -8.8968     47.4201    164.2698   1.1249616698e+02   3.5230822481e+01    0.2366795    0.1392007  56.40  0.001144033    1.761    0.432
       112  -8.9410     70.0136    163.2223   1.0646290917e+02   3.2656954641e+01    0.2448293     0.139378  61.27  0.001071631    2.088    0.521
       113  -9.5359      9.5932    161.4360   1.2161927052e+02   3.9468647633e+01    0.3291647    0.1341051  71.67  0.001402057    2.963    0.663
       114  -8.4547    178.3263    161.6484   7.8846871034e+01   1.3493536331e+01    0.1498681      0.12293  89.25 0.0007047948    1.762    0.432
       115  -9.5018    152.3793    161.6028   8.4865328319e+01   1.8709758869e+01    0.2971555       0.1273  52.61 0.0009511604    3.104    0.678
       116  -9.4102     93.2779    160.6804   9.9861813667e+01   2.9799190178e+01    0.3246203    0.2238602  71.72  0.001216962    1.791    0.442
       117  -8.6406     62.4765    161.0051   1.0813480933e+02   3.4197039637e+01    0.1983877    0.1102321  84.36 0.0007185217    2.480    0.597
       118  -8.7355     31.9853    161.0404   1.1606343658e+02   3.7627978843e+01    0.2112816     0.129775  70.52 0.0006831907    1.679    0.404
       119  -9.0308     23.2949    159.5812   1.1810111920e+02   3.8779532071e+01    0.3205432    0.1352462  68.11  0.001283205    3.176    0.685
       120  -8.5609    144.7091    159.4633   8.6288279094e+01   2.0701126613e+01    0.2032667    0.1455568  28.44 0.0009232648    1.467    0.319
       121  -9.8450    106.0070    158.0994   9.5994532092e+01   2.8282402235e+01    0.4481766    0.2581741  58.35  0.001533398    2.186    0.542
       122  -8.9550    168.8350    158.1749   8.0242305011e+01   1.6114641716e+01     0.367844    0.2041363  64.18  0.001188862    3.608    0.723
       123 -10.0921    219.1948    156.1452   6.9220070248e+01   6.5512857776e+00    0.2619783     0.223784 -26.95 0.0003767033    1.099    0.090
       124  -9.8121    213.2968    155.3815   7.0182433972e+01   7.8017432384e+00     0.256269    0.2494211   2.51 0.0007822101    1.153    0.133
       125  -9.2143    145.7128    155.8250   8.5265510036e+01   2.1302425275e+01    0.3091253    0.2005018  64.33  0.001238298    2.181    0.542
       126  -9.6024    120.0993    155.8846   9.1828966780e+01   2.6264198156e+01     0.329069    0.2212254  76.25  0.001331864    2.277    0.561
       127  -9.6950     82.1400    155.1064   1.0190761033e+02   3.2886403506e+01    0.4458151    0.2437736  58.16  0.001821892    2.289    0.563
       128  -9.8222     50.0315    155.3824   1.1067400957e+02   3.7085007835e+01     0.419897    0.2135843  60.84  0.001801764    2.433    0.589
       129  -9.8526    133.9304    153.4652   8.7732567677e+01   2.4172051836e+01    0.4147798    0.2819796  72.06  0.001685668    2.212    0.548
       130  -9.5952     68.1691    153.6779   1.0550082474e+02   3.5234012334e+01    0.4004112    0.2130589  57.49   0.00168218    2.290    0.563
       131  -9.0984     98.8696    151.1259   9.6595701196e+01   3.1176917774e+01    0.2412333    0.1984337  72.66  0.001030583    1.339    0.253
       132  -9.5707     28.9922    150.1604   1.1563912700e+02   4.0523107074e+01    0.4003835    0.1872987  68.52  0.001670818    2.854    0.650
       133  -9.1892     22.6957    151.3708   1.1742301538e+02   4.0787559035e+01    0.2083168    0.1241745  66.67  0.001064883    1.759    0.432
       134  -9.9503     40.1907    148.0762   1.1237037812e+02   3.9942538541e+01    0.4899582    0.2187951  56.00  0.002014207    2.796    0.642
       135  -8.4566    220.7966    148.4121   6.7226389602e+01   7.6152655333e+00    0.1912471     0.129527  28.67 0.0005024419    1.606    0.377
       136 -10.3942    107.7262    145.5507   9.3044405060e+01   3.0973365960e+01    0.6705395    0.3963061  69.13   0.00231237    2.936    0.659
       137 -10.5805     56.6556    146.0218   1.0750765212e+02   3.8599257511e+01    0.6572178    0.3497527  67.09  0.002543119    2.712    0.631
       138 -10.7041    149.6584    145.6868   8.2040854474e+01   2.2730516585e+01    0.5596266    0.3788933  75.82  0.002158412    2.503    0.600
       139  -9.2076     78.0438    146.9870   1.0163093118e+02   3.5485449496e+01    0.2377238    0.1672213  72.58  0.001122587    1.716    0.417
       140  -9.5056     13.6277    146.5184   1.1929016754e+02   4.2670634039e+01    0.2762282    0.1612142  49.66 0.0009066585    1.790    0.441
       141 -10.9961    197.0407    143.1781   7.0689267506e+01   1.3301828239e+01     0.380876    0.3058787 -26.72 0.0005294986    1.217    0.179
       142 -10.0424     88.3270    144.0107   9.8169162306e+01   3.4640470761e+01    0.3542455    0.2561237  83.56  0.001055528    1.746    0.427
       143  -9.0101    165.7773    144.5639   7.7892213252e+01   1.9589432363e+01    0.2206079     0.146928  54.26 0.0008006591    1.686    0.407
       144  -9.0323    137.8542    144.6054   8.4780952197e+01   2.5397987454e+01    0.2261567    0.1427573  51.68  0.000555045    1.709    0.415
       145 -10.4932    125.3229    142.9538   8.7701636421e+01   2.8278727647e+01    0.5124942    0.3533753  88.78  0.002027303    2.367    0.577
       146 -10.0822     69.8029    140.7321   1.0287687847e+02   3.8203206133e+01    0.4594638    0.2508204  73.86   0.00163459    3.344    0.701
       147  -9.4508      2.8728    141.8441   1.2164576052e+02   4.4515516898e+01    0.2458369    0.1223833  75.40  0.001234372    2.124    0.529
       148  -8.6607     81.5986    139.8017   9.9289068431e+01   3.6722841352e+01    0.2071406    0.1368815 -72.31  0.000858163    1.652    0.395
       149 -10.2380     23.6202    138.4610   1.1573757818e+02   4.3821824157e+01    0.5584469    0.2549483  66.37   0.00216389    3.072    0.675
       150  -9.7845     39.3713    136.4864   1.1101779687e+02   4.2869521297e+01    0.3314481    0.2110882  65.06  0.001289564    1.811    0.448
       151  -9.4147    113.2686    133.5251   8.8882384504e+01   3.2818105750e+01    0.3416058    0.2395862  70.57  0.001234906    1.976    0.494
       152 -10.4805    132.4605    131.3801   8.3115753761e+01   2.9509880221e+01    0.4750038    0.3219959 -75.01   0.00180373    2.233    0.552
       153 -10.5871     83.6970    131.9197   9.7106632327e+01   3.8338028015e+01    0.4783967    0.3414556  73.41  0.001303671    1.822    0.451
       154  -9.5791    143.5510    132.0192   8.0368691176e+01   2.7040077409e+01    0.3045754    0.2246953  60.83  0.001350503    1.591    0.371
       155  -9.9970     13.0935    129.7342   1.1767783187e+02   4.6723020991e+01    0.4152715    0.2159956  64.66  0.001753256    2.306    0.566
       156  -9.6490    168.9891    130.0200   7.3675211563e+01   2.1941302785e+01    0.2500471    0.1999069 -87.61  0.001132635    1.721    0.419
       157  -9.5365    153.2856    129.6533   7.7338799844e+01   2.5463006607e+01    0.3473668    0.2375281 -70.40  0.001244441    2.159    0.537
       158 -10.5371     99.2798    127.9323   9.1629494378e+01   3.6716360522e+01    0.6513155    0.4177879 -86.60  0.001986591    2.681    0.627
       159 -10.0477     73.1761    129.6590   9.9804459389e+01   4.0469024506e+01    0.3140033    0.2210609  82.67  0.001458339    1.847    0.459
       160 -10.2722    118.3839    125.6329   8.5584192564e+01   3.3683155781e+01    0.5714415    0.3559636  73.68  0.001967366    3.111    0.679
       161 -10.8638     60.3117    124.9278   1.0282270529e+02   4.3369186257e+01    0.7296622    0.3960479  66.73  0.002734705    3.172    0.685
       162 -11.0725     44.1395    122.7087   1.0743959376e+02   4.5778641553e+01    0.8796226    0.4600108  81.93  0.003283833    3.386    0.705
       163 -10.9049     28.8097    122.4761   1.1212017052e+02   4.7281647548e+01    0.8192602    0.3684888  70.61  0.002760386    4.570    0.781
       164  -9.4808    180.2924    125.2864   6.9970037003e+01   2.0406457597e+01    0.3080585    0.1941467  69.75  0.001164284    2.517    0.603
       165  -9.3302    158.9200    121.9588   7.4036836765e+01   2.5865160201e+01    0.2542778    0.2006936 -87.07 0.0009214738    1.741    0.426
       166 -10.6053    142.0482    119.4870   7.7624510257e+01   3.0133276733e+01    0.5580792    0.3311562 -63.87  0.001817032    2.500    0.600
       167  -9.6867     70.9766    119.9946   9.8504199521e+01   4.3159274574e+01    0.2949574    0.2197281  73.65  0.001286673    1.701    0.412
       168 -10.3168    130.8253    117.9492   8.0210622509e+01   3.2890811506e+01     0.551863    0.2710731 -59.03  0.001823486    2.893    0.654
       169 -10.0608      3.0300    116.5736   1.1911331420e+02   5.0477279602e+01    0.6368788    0.2511213  85.61  0.002479768    3.507    0.715
       170 -10.1573    109.3038    114.1100   8.5329682249e+01   3.8136586993e+01     0.631317    0.3772911 -71.50  0.002097716    2.800    0.643
       171  -9.5727    109.0089    107.0332   8.3565473622e+01   3.9817794466e+01    0.2558928    0.1924083  -9.68  0.001140163    1.705    0.414
       172 -10.3600     79.5696    113.2025   9.4267706879e+01   4.3539532376e+01    0.5693912    0.3756087  84.62  0.002200936    2.557    0.609
       173 -10.4614     92.9654    112.7434   8.9938401216e+01   4.1452452360e+01    0.5048575    0.3550403 -79.60  0.001587925    1.996    0.499
       174  -9.5602     92.9855    104.5091   8.7833035337e+01   4.3377756600e+01    0.4303459    0.2284128 -24.38  0.001387554    3.502    0.714
       175  -9.6845    122.1689    112.6644   8.1233420547e+01   3.5891866418e+01    0.3298819    0.2499997 -79.63  0.001107042    1.826    0.452
       176  -9.1424    159.1953    112.2122   7.1446369881e+01   2.7839511739e+01     0.219613    0.1915859 -80.64 0.0007339015    1.357    0.263
       177 -10.6214     67.0265    111.2047   9.7860856195e+01   4.5850107352e+01     0.450371    0.2749325  60.77  0.001825657    2.371    0.578
       178 -10.6491     14.4312    110.0829   1.1481079905e+02   5.1350053139e+01    0.4569364    0.2727345 -87.87    0.0018183    1.735    0.423
       179  -9.8798    133.7659    108.8283   7.7003769718e+01   3.4271875282e+01    0.4738213    0.2053328 -49.30  0.001619587    2.473    0.596
       180 -10.6310     59.9073    108.3034   9.9565918252e+01   4.7489982948e+01    0.5554041    0.1737792 -46.71  0.001884763    3.035    0.671
       181 -11.1194     45.8934    102.6338   1.0308506573e+02   5.0487917750e+01    0.7866535    0.4193542  65.77  0.002872493    3.817    0.738
       182 -11.0153     23.1088    102.6942   1.1084818778e+02   5.2517985360e+01    0.7270547    0.3689329  68.65  0.002938287    3.453    0.710
       183  -9.9803    150.3489    103.4326   7.1235706035e+01   3.1682177235e+01    0.5369582    0.2147758 -52.37  0.001599071    3.424    0.708
       184  -9.4883    139.6129    104.7990   7.4349063905e+01   3.3841113737e+01     0.310559     0.244428 -77.89 0.0009630031    1.687    0.407
       185  -9.3453      6.9168    103.1852   1.1626447032e+02   5.3433293407e+01    0.1869982    0.1506579  82.87  0.001050739    1.302    0.232
       186  -9.9782    128.3386    102.0178   7.6614791640e+01   3.6926788419e+01    0.3068144    0.2483316 -75.43  0.001145439    1.571    0.364
       187 -10.9398    110.1974     99.7956   8.1228450390e+01   4.1205442642e+01    0.8509169    0.4394164  63.21   0.00244408    4.465    0.776
       188  -9.3489     82.2086    100.2938   9.0213954367e+01   4.6176668141e+01    0.3404266    0.2486321  85.24  0.001066288    2.116    0.527
       189 -10.6479     64.0185     96.4667   9.5400688897e+01   4.9771238341e+01    0.4850051    0.3224662  79.21  0.001912786    2.659    0.624
       190  -9.2620     95.0711     97.2073   8.5196884492e+01   4.4671970079e+01    0.2732893     0.213761  59.64 0.0009082881    1.552    0.356
       191  -9.5628     20.7318     93.0958   1.0999823048e+02   5.4963153515e+01    0.4293376    0.1242608 -41.41  0.001527388    3.681    0.728
       192  -9.9634     43.7907     92.3261   1.0158125352e+02   5.3154744395e+01    0.3271534    0.1989525  -4.29   0.00116221    2.233    0.552
       193  -9.6929      5.1212     91.3230   1.1516927833e+02   5.6300431583e+01    0.4096067    0.1944394  87.79  0.001806689    2.885    0.653
       194  -8.9512    138.5821     91.4848   7.0849622732e+01   3.6822806103e+01    0.4348654    0.1936837 -54.19  0.001353936    3.269    0.694
       195  -9.8096    124.8720     91.2065   7.4481326976e+01   3.9962411538e+01    0.4104663    0.2949835 -81.70  0.001456097    2.274    0.560
       196  -9.2927    108.3966     91.8971   7.9512808840e+01   4.3286693235e+01     0.376715    0.2150104  22.08  0.001380305    2.557    0.609
       197 -10.2829     34.8470     89.6977   1.0424389570e+02   5.4635671957e+01    0.4856331    0.2685149 -83.65  0.002061342    2.773    0.639
       198  -9.8847     35.9934     81.7666   1.0201775282e+02   5.6360602183e+01    0.4654474    0.1781855 -36.52  0.001770354    3.021    0.669
       199 -10.0236     86.9202     87.1390   8.4996930590e+01   4.8352508372e+01    0.4455258    0.2884738  64.02  0.001330368    2.538    0.606
       200  -9.2725     63.8326     87.7811   9.3218438510e+01   5.1798675001e+01    0.2506298    0.1368061 -21.79 0.0009063674    2.845    0.649
       201 -10.2057     49.1627     85.1806   9.7899599822e+01   5.4226066999e+01    0.5096194     0.309134  59.92  0.002217586    2.769    0.639
       202  -9.9330      7.8526     84.1711   1.1305466378e+02   5.7813038481e+01    0.5072907    0.2332632 -17.21  0.002376185    2.920    0.658
       203  -8.6298      8.3698     80.7348   1.1226596399e+02   5.8571641768e+01    0.2160189    0.1433067  51.47 0.0009500977    1.983    0.496
       204  -9.6511    104.8055     83.3154   7.8048219638e+01   4.5814458674e+01    0.3553186    0.2743998 -81.83  0.001090579    1.950    0.487
       205  -8.8686    141.3168     83.6687   6.7843818820e+01   3.7718900557e+01    0.1585575     0.125258 -79.97 0.0007046945    1.686    0.407
       206 -10.0333     24.5857     80.9672   1.0618749968e+02   5.7497064573e+01    0.3639365    0.2464381  82.29  0.001567921    2.110    0.526
       207  -8.8474     85.7922     81.3753   8.3658803342e+01   4.9790138060e+01    0.2079104     0.136368  23.81 0.0007397844    1.697    0.411
       208  -9.1218     74.9859     81.0077   8.7310225263e+01   5.1661455697e+01    0.2197231    0.1819529  86.67 0.0007891708    1.719    0.418
       209  -8.9063     61.4478     77.3730   9.1179504177e+01   5.4437466333e+01    0.2968028    0.1321657 -66.79 0.0008078308    5.729    0.825
       210  -9.5637     49.7141     76.9784   9.5524590787e+01   5.6005055266e+01     0.254157    0.1754097 -15.37 0.0008269364    1.619    0.383
       211  -8.9577    128.2889     75.7378   6.8832958425e+01   4.2244731364e+01    0.3446639    0.2199426 -81.41  0.001120463    3.761    0.734
       212  -9.0051    105.4899     76.5002   7.5703798124e+01   4.7053976877e+01    0.2828176     0.136972  32.68  0.001033179    2.423    0.587
       213  -8.8281      9.7697     74.9129   1.1064882656e+02   5.9814942720e+01    0.1732581     0.132347 -56.29  0.000470488    1.056    0.053
       214  -9.7059     82.7179     73.0630   8.2123538608e+01   5.2053244927e+01    0.3768156    0.2811249  80.16   0.00168884    2.383    0.580
       215  -9.9206     29.0079     70.6729   1.0204453893e+02   5.9457805701e+01    0.5628819    0.2096287 -26.63   0.00175213    5.229    0.809
       216  -9.0679     95.3975     71.7762   7.7403004480e+01   4.9988857238e+01    0.3362083    0.2120383 -64.01   0.00134211    2.586    0.613
       217  -9.8709     51.5173     69.9230   9.2800317158e+01   5.7320467547e+01    0.3971457    0.2361948 -68.52  0.001575484    2.483    0.597
       218  -9.1896     16.8175     70.6839   1.0697734141e+02   6.0347848285e+01    0.2176521    0.1522156  83.52 0.0009073832    2.015    0.504
       219  -8.3686    129.3506     69.3270   6.6519798178e+01   4.3171699228e+01    0.1626055    0.1169682  15.52 0.0006461868    1.761    0.432
       220  -9.3942     37.6300     64.6375   9.6870603399e+01   5.9977297247e+01    0.2358434    0.1844606  73.96 0.0009344383    2.015    0.504
       221  -8.6463    110.6522     64.3419   7.0142135569e+01   4.8260023452e+01    0.1502616    0.1214768 -83.66 0.0007045186    1.795    0.443
       222  -9.0013     18.4877     62.0101   1.0422600610e+02   6.2130135823e+01    0.1943219   0.09882198 -54.62  0.001017353    1.574    0.365
       223  -9.5061     73.4018     60.1440   8.1174276907e+01   5.6168206363e+01    0.3263987    0.2222969 -58.02  0.001104388    1.951    0.487
       224  -8.8921    100.6632     60.3616   7.1849062407e+01   5.1072219902e+01    0.1461729    0.1196367 -81.95 0.0007036577    1.821    0.451
       225  -8.8742     24.7786     59.2108   1.0078173650e+02   6.2265594986e+01    0.1893445    0.1521076 -71.72 0.0008179302    1.496    0.331
       226  -8.9972     25.4875     55.4782   9.9409186854e+01   6.2986263063e+01    0.2107556    0.1228226 -32.05  0.001148078    1.543    0.352
       227  -9.7795      7.5075     57.8521   1.0793407117e+02   6.3665502279e+01     0.257503    0.1882456  73.45  0.001275818    2.027    0.507
       228  -9.2880     54.6456     54.7522   8.6643652882e+01   5.9998469777e+01    0.3195163    0.2068788 -72.83  0.001315696    3.426    0.708
       229  -9.0830     44.2959     55.5642   9.1252491981e+01   6.1128335241e+01    0.2801778    0.2000518  88.70  0.001281328    3.110    0.678
       230  -9.4997    100.3308     54.2269   6.9793094931e+01   5.2198705131e+01    0.2438667    0.2163764  11.65 0.0006428457    1.056    0.053
       231  -9.0324     62.8714     55.1099   8.3450238086e+01   5.8767474833e+01    0.1959611    0.1835249 -42.56 0.0005684692    1.280    0.219
       232  -9.9790     32.0697     52.5718   9.5603112520e+01   6.3001655926e+01    0.4006806    0.1904412  45.44  0.001685102    3.586    0.721
       233  -8.8153     20.9451     53.4677   1.0084965558e+02   6.3751890074e+01    0.1610634   0.09241688  44.77 0.0008093652    2.611    0.617
       234  -9.4326      7.6065     52.5752   1.0660993199e+02   6.4771305332e+01    0.2615666   0.03340211 -50.96 0.0009564051    3.419    0.708
       235  -9.1056     92.5941     50.8890   7.1077172671e+01   5.4327073914e+01     0.274664    0.1712735 -47.42  0.001268559    1.903    0.475
       236  -9.4410     45.9086     49.0493   8.8324017051e+01   6.2199990514e+01    0.2689484     0.142987 -25.01  0.001018337    2.090    0.522
       237  -9.2219     45.3766     45.2350   8.7175516737e+01   6.2974973650e+01    0.2210758    0.1787604 -70.69 0.0007396894    1.949    0.487
       238  -8.7062     82.1563     47.2086   7.3274752488e+01   5.6939813005e+01    0.1762183    0.1715555 -66.47  0.000651139    1.342    0.255
       239  -9.3808     22.6049     47.0283   9.8151961288e+01   6.4924768837e+01    0.2893459    0.1645759   5.50  0.001583582    1.943    0.485
       240  -9.3142     16.8856     45.3319   1.0030651912e+02   6.5686301339e+01    0.2030053    0.1628732  32.54 0.0008184394    1.600    0.375
       241  -9.2012     69.4919     41.8471   7.5882010010e+01   6.0055461941e+01    0.2498559    0.1780754  54.28  0.001071142    1.938    0.484
       242  -9.6331     59.2053     43.8181   8.0750716564e+01   6.1352262012e+01     0.267152    0.2062151 -82.99   0.00129225    2.797    0.643
       243  -9.5645      5.2894     42.0069   1.0487607605e+02   6.7042865691e+01    0.3459661    0.1982624 -78.40  0.001784818    2.649    0.622
       244  -8.6592    113.9266     41.5002   6.1208685769e+01   5.1199684435e+01    0.2094737    0.1309486  47.99 0.0003440435    1.470    0.320
       245  -9.2454     37.1601     41.2724   8.9407700702e+01   6.4652982266e+01    0.2097359    0.1679539  36.17 0.0007673233    1.579    0.367
       246  -9.2089     83.9636     39.8336   6.9795185387e+01   5.7767366722e+01     0.215546    0.1664261  13.56 0.0004675612    1.255    0.203
       247  -8.9496    106.0996     36.7643   6.1642592428e+01   5.3617589986e+01    0.1990236    0.1686478  32.09 0.0003820895    1.064    0.060
       248  -8.9863     26.1614     36.6782   9.2926017635e+01   6.6596053480e+01    0.2028026    0.1503301 -48.83 0.0007420753    1.407    0.289
       249  -8.7547    222.4716     32.9674   3.9744402814e+01   2.5854272268e+01    0.1874754   0.08421977 -54.30 0.0003864581    2.285    0.562
       250  -8.2595    119.5028     33.5551   5.6890695088e+01   5.0977180716e+01    0.1417272    0.1284539  42.11 0.0004609653    1.029    0.028
       251  -9.1554     61.1594     33.1281   7.5644513942e+01   6.2797673667e+01    0.2261354    0.1755377  61.06  0.001221725    2.110    0.526
       252  -9.0019     49.8180     33.2153   8.0497458113e+01   6.4472972586e+01    0.1825937    0.1473247  83.00 0.0009430826    2.787    0.641
       253  -8.9369     76.0170     33.0000   6.9860196555e+01   6.0268176980e+01    0.3147469   0.07131671  45.28 0.0009527746    4.235    0.764
       254  -8.3210     72.3399     31.6761   7.0665001890e+01   6.1124328303e+01      0.12116    0.1100498 -84.09 0.0007051036    1.725    0.420
       255  -9.1598     12.9032     31.3316   9.7661948071e+01   6.8638616129e+01    0.1891318    0.1438828 -49.67 0.0006553013    1.342    0.255
       256  -9.3308     81.5181     27.9956   6.5841879077e+01   5.9917622844e+01    0.2359874    0.1704104 -87.48 0.0009945845    3.292    0.696
       257  -9.0867      3.8359     27.7168   1.0118409165e+02   6.9861467582e+01    0.1884172    0.1464965 -84.69  0.001129008    2.097    0.523
       258  -8.5418     44.2184     25.5968   7.9759724896e+01   6.6431787690e+01    0.1661329    0.1039806  16.86 0.0003645997    1.550    0.355
       259  -8.1813    118.4594     24.5534   5.3881639184e+01   5.2305084093e+01      0.13945    0.1228951  42.61 0.0001398457    1.004    0.004
       260  -8.2715    110.4741     24.5255   5.5840386899e+01   5.4166691765e+01    0.1397823    0.1213559  36.17 0.0001103283    1.013    0.013
       261  -9.3005     66.6872     23.3180   6.9214985050e+01   6.3274867465e+01    0.2326704    0.1705146  -4.43 0.0009053677    1.294    0.227
       262  -9.4969     63.6639     21.3322   6.9506593793e+01   6.4058317767e+01    0.1935192    0.1592851  45.27 0.0008531908    1.458    0.314
       263  -9.6068     49.3816     22.1425   7.5867138989e+01   6.6217988614e+01    0.2777428    0.1698929  51.46  0.001386684    2.614    0.617
       264  -9.5119     12.9231     21.3796   9.3867421753e+01   7.0400753232e+01    0.2158874    0.1725658  -1.58 0.0008071103    1.227    0.185
       265  -9.9959    188.6823     20.9764   4.0630944030e+01   3.5312751590e+01    0.1883149    0.1687528 -62.94  0.001158535    1.118    0.106
       266  -9.4083     75.7022     20.5751   6.4688492459e+01   6.1975082616e+01    0.5085086    0.2318862  60.45   0.00182171    4.114    0.757
       267  -9.6414     40.6552     20.3864   7.9081712760e+01   6.7681942925e+01    0.2735268    0.1967476 -47.21 0.0008764522    1.899    0.473
       268  -9.8592     31.1612     17.6715   8.2507735339e+01   6.9253815475e+01    0.2531835    0.2028476   8.81  0.001361523    1.194    0.163
       269 -10.1108    195.7061    248.6884   9.1011442760e+01  -4.3583126367e+00    0.3298622     0.209021   7.46  0.001876295    1.714    0.416
       270 -11.1355    174.9105    245.5771   9.4622439503e+01  -7.6651634256e-01    0.4483809    0.3228976  69.07  0.002411189    2.490    0.598
       271  -8.6065    107.4347    248.7776   1.0857451681e+02   9.0879436762e+00    0.1399245    0.1162263 -45.11 0.0006077038    1.558    0.358
