#   1 NUMBER                 Running object number                                     
#   2 MAG_AUTO               Kron-like elliptical aperture magnitude                    [mag]
#   3 X_IMAGE                Object position along x                                    [pixel]
#   4 Y_IMAGE                Object position along y                                    [pixel]
#   5 X_WORLD                Barycenter position along world x axis                     [deg]
#   6 Y_WORLD                Barycenter position along world y axis                     [deg]
#   7 A_WORLD                Profile RMS along major axis (world units)                 [deg]
#   8 B_WORLD                Profile RMS along minor axis (world units)                 [deg]
#   9 THETA_WORLD            Position angle (CCW/world-x)                               [deg]
#  10 FWHM_WORLD             FWHM assuming a gaussian core                              [deg]
#  11 ELONGATION             A_IMAGE/B_IMAGE                                           
#  12 ELLIPTICITY            1 - B_IMAGE/A_IMAGE                                       
         1 -12.8187    105.6328     20.0221   4.1210998224e+00   5.6088639990e+01    0.4897076    0.3135928 -74.99 0.0004107157    1.822    0.451
         2 -11.6349    107.3247     31.1005   8.1976489346e+00   5.4277300110e+01    0.7773847    0.4932644  27.08   0.00339932    2.363    0.577
         3 -11.4816     35.3999     17.5291   2.7704593667e+01   7.2289006753e+01    0.5319155    0.3116026 -28.98  0.002665859    1.869    0.465
         4 -11.9703    164.5946     17.9691   3.5516052570e+02   4.1734433733e+01    0.4115644    0.2883153  39.02  0.002076048    1.984    0.496
         5 -11.1668    127.4908     11.4909   3.5727090263e+02   5.1494640271e+01    0.2404705    0.1747207 -65.30  0.000910981    1.312    0.238
         6 -12.1155    127.6667     15.9012   3.5882339499e+02   5.0993865450e+01     0.643502    0.2529652  64.65  0.002419395    2.259    0.557
         7 -11.2470    137.0907     14.4656   3.5707464152e+02   4.8789942792e+01    0.4457483    0.2172285  76.17  0.001434334    1.932    0.483
         8 -11.5827     88.7187      8.0887   2.4309953544e+00   6.1578535189e+01    0.4186704    0.3040551 -68.82  0.002053502    1.514    0.339
         9 -11.9512     85.9242     13.8583   5.7849206549e+00   6.1681472776e+01    0.4488775    0.2756197 -17.19  0.002197454    1.952    0.488
        10 -10.4144     84.7434     10.0148   4.2419675307e+00   6.2372213294e+01    0.2172081    0.2030088 -11.73 0.0003652378    1.199    0.166
        11 -11.7199     16.2766     13.2621   3.8396691139e+01   7.5991107036e+01    0.6093261    0.2444552 -39.08  0.002671969    2.553    0.608
        12 -10.2500     13.2988      8.6571   3.7793979952e+01   7.7171915640e+01    0.1984437    0.1743151 -47.13 0.0006656251    1.342    0.255
        13 -10.4549    225.5736     13.4975   3.4968999117e+02   2.9168075093e+01    0.1878334     0.141119 -50.96 0.0004774437    1.071    0.066
        14 -11.3669    243.2868     14.3759   3.4901071755e+02   2.5821428955e+01     0.213338    0.1623694  -2.19  0.001427594    2.150    0.535
        15 -12.4144    104.5308     11.7057   9.0777620141e-01   5.7264590033e+01    0.4985061     0.314992 -31.16  0.001509462    1.671    0.401
        16 -11.5837     23.2814     10.4722   3.1065358401e+01   7.5427330637e+01    0.3719728    0.2439448  21.97  0.001434575    1.585    0.369
        17 -11.3237    212.2841     10.0174   3.4961451621e+02   3.2140257484e+01    0.2951268    0.1746542 -35.79  0.001137554    1.484    0.326
        18 -12.4384     48.5635     12.7843   1.7830555809e+01   7.0405624033e+01    0.7232804    0.2665436  52.35  0.002936683    2.486    0.598
        19 -11.5531     63.4715      9.3926   9.9334146214e+00   6.7520502358e+01    0.4043821    0.3219921 -58.03  0.001334929    1.469    0.319
        20 -11.0943    169.2122      9.4941   3.5232474339e+02   4.1551611029e+01    0.3460067    0.1887796  63.36  0.001686208    1.899    0.474
        21  -9.9275      5.6872      8.9524   4.5088872455e+01   7.8018457187e+01    0.1720727    0.1433443 -27.18  0.001040065    1.095    0.087
        22 -10.7029    128.8847      4.8507   3.5473159762e+02   5.1777923167e+01     0.187297    0.1635451  70.75            0    1.158    0.136
        23 -11.9784    134.0195      2.5926   3.5338159962e+02   5.0699342665e+01    0.5622267    0.2314119  81.98  0.002395947    2.318    0.569
        24 -10.8406     41.3435      3.8829   1.5437696671e+01   7.2970708755e+01    0.2994989      0.19301  26.72  0.001070986    1.687    0.407
        25  -9.8705     78.1464      7.3711   4.5521235679e+00   6.4245511588e+01    0.1880285    0.1188262  78.66 0.0004958473    1.639    0.390
        26  -9.4282     30.5069      4.5519   2.1886015846e+01   7.5018338690e+01     0.125237    0.1110954  23.70 0.0001603731    1.020    0.019
        27 -10.1435    223.3984      2.7912   3.4745361227e+02   3.0692259263e+01      0.16685    0.1201872 -48.65 0.0009056112    1.110    0.099
        28 -11.0701    218.5420      3.1932   3.4775651014e+02   3.1595021702e+01    0.2192743    0.1467973  85.96 0.0007756093    1.507    0.337
        29 -11.0834    105.4388      1.9218   3.5668928219e+02   5.7934202811e+01    0.2651802    0.1670257 -82.98   0.00123119    1.607    0.378
        30 -11.9636    113.9289      2.1550   3.5558396295e+02   5.5773144846e+01    0.4980572    0.2273539  80.99   0.00219355    2.091    0.522
        31  -9.9107    152.9002      1.4563   3.5127867395e+02   4.6181255498e+01    0.1913824    0.1122399  82.23  0.001013954    1.545    0.353
        32  -9.6737     28.5789      1.4677   2.0741873392e+01   7.5758319512e+01    0.1234051    0.1087342  21.22 9.723946e-05    1.013    0.013
        33  -9.9222    185.9803      6.7523   3.5037515812e+02   3.8028279822e+01    0.1545523   0.09407292  84.61 0.0007915535    1.558    0.358
        34 -10.7363    104.4025    122.5197   3.8028304634e+01   3.6593139332e+01    0.2771725    0.2592536  47.99  0.001275439    1.083    0.076
        35 -10.8926    218.5943    116.2043   1.2968248668e+01   1.6339640846e+01    0.1856626    0.1032811 -30.25 0.0009350306    1.677    0.404
        36  -9.9633     43.3612    116.1203   5.7467606248e+01   4.8107936425e+01    0.2256318    0.1364279 -83.46 0.0009478841    1.815    0.449
        37 -12.2152      7.9188    114.7522   7.1232428205e+01   5.1806030504e+01    0.3171582    0.2537327 -72.69 0.0003222506    1.139    0.122
        38 -12.4579      2.9082    111.4083   7.2919828321e+01   5.3027932964e+01    0.5528702    0.3616544 -77.05  0.001750047    1.352    0.260
        39 -11.5406      3.3005    104.7736   7.2140732390e+01   5.4824826385e+01    0.4752479     0.296717  32.43  0.001411863    1.671    0.402
        40 -12.2296     26.0164    105.6921   6.2675234622e+01   5.2870861719e+01    0.6928742     0.537019 -47.29   0.00337991    1.310    0.237
        41 -11.6498     22.4075    114.0568   6.5379515140e+01   5.0890376920e+01    0.5282904    0.3096697   0.40  0.002290426    2.234    0.552
        42 -11.3475     27.5689    112.1936   6.3042959843e+01   5.0927329533e+01    0.4034546    0.2905642  46.34  0.001450426    1.410    0.291
        43  -9.9299     48.9914    111.5384   5.4436854302e+01   4.8638764845e+01    0.2224311    0.1486079  31.02 0.0004979816    1.542    0.352
        44 -11.0120     79.8247    107.8883   4.2280826090e+01   4.4766431423e+01    0.3764219    0.3071421 -27.71 0.0009003173    1.440    0.305
        45 -11.8585     15.5748    108.1572   6.7388548069e+01   5.3085588888e+01    0.4094768    0.2448619  50.67  0.001906611    1.734    0.423
        46 -11.2766     49.7771    101.2959   5.1975903035e+01   5.1292187631e+01    0.5474216    0.3533759 -23.65  0.002275023    2.172    0.540
        47 -11.1734     35.3180    102.9451   5.8291913639e+01   5.2660810609e+01    0.2740527    0.2186105   1.89 0.0002931202    1.466    0.318
        48 -11.8925     17.4394    100.8154   6.5597423396e+01   5.4962622887e+01    0.3911558    0.2171572  84.84  0.001574962    1.994    0.499
        49 -10.0182     10.3216    101.3087   6.8757565236e+01   5.5348056389e+01    0.1494855   0.09441866 -43.36 0.0007035059    1.645    0.392
        50 -11.7143    210.4035     98.1411   1.0179113519e+01   2.0607185657e+01    0.2146803    0.1896138 -46.89 0.0002592709    1.073    0.068
        51 -11.8074    247.8219     95.1652   5.1831647712e+00   1.4871544569e+01    0.4041326    0.2573156  -6.63  0.002151772    2.677    0.626
        52 -10.4685     79.2177     93.2243   3.8621749895e+01   4.8530385851e+01    0.2637246    0.1888147 -59.93 0.0008706721    1.408    0.290
        53 -11.6731     67.8399     94.8632   4.3266295129e+01   5.0167159677e+01    0.3733183     0.301203  47.37  0.001290927    1.262    0.208
        54 -11.5867     22.8170     94.4902   6.2200650641e+01   5.6236527813e+01    0.4514732    0.2567738 -33.51  0.001942008    2.090    0.522
        55 -10.0434     42.8170     94.6345   5.3383285866e+01   5.4001551146e+01    0.2148057    0.1833421 -55.13 0.0009511429    1.128    0.113
        56  -9.9214     35.8040     92.8058   5.6043556767e+01   5.5350578700e+01     0.206299    0.1663757  71.11 0.0004934015    1.339    0.253
        57 -11.5556      9.0324     96.3674   6.8703886071e+01   5.6785557032e+01    0.4969234    0.2233376  28.68  0.002115108    2.252    0.556
        58 -10.2401     98.1304     90.7553   3.1597699410e+01   4.5351150281e+01    0.2233202    0.2015131  75.83 0.0003768996    1.143    0.125
        59 -10.1262     43.9286     90.4747   5.1930572770e+01   5.4958248667e+01    0.2139579    0.1877245 -64.40 0.0002889179    1.088    0.081
        60 -12.2376     18.5623     87.4327   6.2926649263e+01   5.8516889228e+01    0.5602019    0.3464867 -80.03  0.002636992    1.600    0.375
        61  -9.9263     38.9038     90.3199   5.4112028125e+01   5.5642750517e+01     0.198248    0.1903486   0.00 0.0004400483    1.115    0.103
        62 -11.9473      5.7736     88.2677   6.9151802918e+01   5.9183915299e+01    0.6035702    0.3740848   8.04  0.002936661    1.834    0.455
        63 -11.6883     27.8261     85.0473   5.8041317839e+01   5.8297279245e+01    0.5063329    0.3889972 -41.06  0.001540343    1.318    0.241
        64 -10.9939     45.2614     84.3159   4.9792438116e+01   5.6382772974e+01    0.3426024    0.2843239 -56.88  0.001391273    1.151    0.131
        65 -10.1475    151.2430     83.9357   1.6268659929e+01   3.5031409764e+01    0.1987417    0.1742026 -47.73            0    1.077    0.071
        66 -12.4128     60.9137     83.4082   4.2807888099e+01   5.4209480619e+01     0.281217    0.2738181 -82.71 0.0003712584    1.019    0.018
        67 -11.2304      2.6172     81.1153   6.9733520803e+01   6.1274366616e+01     0.417132     0.211593  75.12  0.001768261    2.307    0.567
        68 -12.5092    247.5435     76.5074   1.4560230531e+00   1.7487760076e+01    0.4039049    0.2615436 -68.74  0.002532396    1.789    0.441
        69 -10.0086    162.3357     81.1451   1.3426941446e+01   3.3081241497e+01    0.1967737    0.1617026 -52.03 0.0003537718    1.106    0.096
        70 -10.9873     76.9257     77.8835   3.4837499283e+01   5.2608197132e+01    0.6231709    0.2933309 -42.42  0.002317805    2.268    0.559
        71 -10.3858     88.8532     77.1970   3.0412995095e+01   5.0335151593e+01    0.3435102     0.172477  48.78  0.001329045    2.031    0.508
        72  -9.5654    158.9576     75.9566   1.2616504134e+01   3.4739199094e+01    0.1704035    0.1535254 -58.65 0.0003724527    1.008    0.008
        73 -10.0961     53.6118     76.1821   4.3759442090e+01   5.7183019172e+01    0.2220723    0.1308336 -46.47 0.0009523029    1.685    0.407
        74 -10.4274     95.0840     75.3299   2.7774869575e+01   4.9405326093e+01    0.2787151     0.205453  65.65 0.0008724521    1.517    0.341
        75 -11.7032     27.4009     73.5035   5.5562727426e+01   6.1363426854e+01    0.3945764    0.2666064  -7.46   0.00109876    1.824    0.452
        76 -11.5069     14.1993     74.4135   6.2650210255e+01   6.2326452490e+01    0.3146896    0.2428854 -71.52   0.00171273    1.210    0.174
        77 -10.7749     40.6532     72.7983   4.8745036604e+01   5.9937111979e+01    0.3308777    0.2663742  -6.42  0.001002751    1.434    0.303
        78 -10.7457     40.2810     68.8118   4.7729721602e+01   6.0973096489e+01       0.2817    0.2286093  38.10 0.0009234081    1.276    0.216
        79 -11.6673      2.0160     71.0031   6.8575216704e+01   6.3977041604e+01    0.8371777    0.2064843 -72.29  0.002800366    3.334    0.700
        80 -12.0067     15.1015     56.5111   5.7936462796e+01   6.6816366043e+01     1.261645    0.6026888   1.18  0.003700962    2.815    0.645
        81 -11.9399      7.5295     63.4825   6.4110296639e+01   6.5618366972e+01    0.2980119    0.2282929 -23.25 0.0005348235    1.354    0.261
        82 -12.6274      4.3046     61.1066   6.5521312003e+01   6.6413417327e+01    0.3436165    0.2765101 -31.56 0.0003398758    1.225    0.184
        83 -10.6915     35.0613     71.3020   5.1075216287e+01   6.1039604599e+01    0.3627079    0.1993142  42.87  0.001449949    1.958    0.489
        84 -11.0675    122.7895     68.3298   1.7821907803e+01   4.4478385375e+01    0.3395026    0.2406759  44.08  0.001010939    1.546    0.353
        85 -10.0392    222.6709     67.3353   1.8715625934e+00   2.3007603394e+01    0.1338258   0.07611322 -58.44 0.0005223175    1.726    0.421
        86 -10.0257    102.0238     66.7939   2.2803230638e+01   4.9603562363e+01    0.2005997    0.1916524  67.51            0    1.045    0.043
        87  -9.7105    197.0152     81.0024   8.0216379911e+00   2.5850287817e+01    0.1562796    0.1393928 -58.65 0.0004668585    1.075    0.070
        88 -10.4676    202.5351     63.3062   3.0890779270e+00   2.7441492609e+01    0.2578576    0.1006004 -40.15 0.0009015852    2.055    0.513
        89  -9.4988    105.5125     63.4858   2.0672675392e+01   4.9437110361e+01    0.1499797    0.1438406 -86.65 0.0008103802    1.008    0.008
        90 -10.6437     92.5110     62.5431   2.4206454314e+01   5.2594233880e+01    0.2817474    0.2427317  75.08 0.0006152236    1.218    0.179
        91  -9.9166    159.4894     62.5087   8.7556439576e+00   3.6871923485e+01    0.2382128    0.1227751  50.05 0.0008931157    2.192    0.544
        92 -11.6426     39.4739     56.5572   4.4046627692e+01   6.3995662689e+01    0.2987957    0.2411947  31.67 0.0005235782    1.262    0.207
        93 -11.4293     43.2195     60.5040   4.3524254323e+01   6.2532922340e+01    0.3989354    0.2730453 -54.11 0.0007213851    1.428    0.300
        94 -11.2363     46.4702     59.4745   4.1537053392e+01   6.2268685363e+01    0.6805671    0.2705747  47.46  0.002358054    3.117    0.679
        95  -9.6371    113.4546     60.4994   1.7534563517e+01   4.8120336675e+01    0.1491711    0.1411567 -81.14 4.850977e-05    1.004    0.004
        96 -10.5611     25.9972     59.2259   5.2337629488e+01   6.5089404539e+01    0.2557186    0.1986898  12.74  0.001378014    1.366    0.268
        97 -10.6721     25.3596     55.5393   5.1537499854e+01   6.6048047445e+01    0.3361352    0.1866699 -44.32 0.0009899511    1.733    0.423
        98  -9.3563    106.6328     58.2994   1.8554489097e+01   5.0134756829e+01    0.1576945    0.1143671 -82.14 0.0005668571    1.732    0.423
        99 -11.3559     75.3189     55.2048   2.7377252536e+01   5.7791850851e+01    0.6675078    0.2880481 -48.09  0.002498348    2.422    0.587
       100 -11.5407     72.5687     46.0467   2.4687191327e+01   6.0114993774e+01     0.424889    0.2399689 -52.66  0.001814743    2.033    0.508
       101 -10.2603    124.4976     56.5302   1.3574191202e+01   4.6164189562e+01    0.1460316    0.1392708 -84.46 -1.873701e-05    1.045    0.043
       102 -10.9573     31.4549     53.0127   4.7158668937e+01   6.5909131431e+01     0.421072    0.2607835   1.75  0.001869789    2.197    0.545
       103 -10.5477     59.8599     50.8334   3.1901161218e+01   6.1782960480e+01    0.3453609    0.1749726 -56.55  0.001349844    2.440    0.590
       104 -10.9579    243.7891     51.1287   3.5655806444e+02   2.1436878534e+01    0.1784995    0.1175756 -51.01 0.0004016182    1.165    0.141
       105 -11.9569    119.7325     37.5066   7.9814445404e+00   5.0299838436e+01    0.5338277    0.2869289 -45.10  0.001711007    1.839    0.456
       106 -11.5500    116.7568     47.7211   1.2282781994e+01   4.9494666105e+01    0.4076218    0.3716712  37.81  0.001198548    1.242    0.195
       107 -11.1525    116.7585     43.3467   1.0717531581e+01   5.0176324335e+01    0.2858802    0.2463732  54.38  0.001170904    1.195    0.163
       108  -9.9260    155.3310     48.7686   5.4157651645e+00   3.9965900736e+01    0.1920613    0.1285052 -26.93 0.0004804206    1.679    0.404
       109 -12.1620     41.9009     44.1340   3.7812708447e+01   6.6334052946e+01    0.7683598    0.3059196  34.83   0.00204452    2.578    0.612
       110 -10.6072     20.5817     45.6967   5.1082723495e+01   6.8871532767e+01    0.2297556    0.2028169  -9.09 0.0004929763    1.117    0.104
       111 -10.3327     13.7977     45.9970   5.5617774516e+01   6.9458280931e+01    0.2365385    0.1188915 -39.65 0.0007365334    1.965    0.491
       112 -11.3581     26.0482     42.4575   4.6359859876e+01   6.8967932688e+01    0.4561906    0.3275969  73.29  0.001981813    2.123    0.529
       113 -10.5185     23.5180     37.1394   4.5757217842e+01   7.0429433223e+01    0.3242829    0.1491178  41.29  0.001387563    2.427    0.588
       114  -9.8506    139.1530     43.8246   6.5108494517e+00   4.4590553179e+01    0.2333886    0.1601951  26.96  0.001054825    2.245    0.555
       115  -9.6864      2.2958     48.6593   6.4070959201e+01   6.9625509074e+01     0.131273   0.09523418  61.71 0.0007031493    1.659    0.397
       116 -10.1924     56.7668     41.8117   2.9393815215e+01   6.4135765198e+01    0.1909322     0.167902  77.60 0.0005996843    1.341    0.254
       117 -10.5927     18.2300     40.4087   5.0651627545e+01   7.0316042077e+01     0.247338    0.1733545 -33.12  0.001334997    1.399    0.285
       118 -10.5544      4.5004     39.7513   6.0112681147e+01   7.1625450532e+01    0.4282313    0.1765311  45.44  0.001685595    3.339    0.701
       119 -10.9157      2.8611     35.8279   6.0108164848e+01   7.2637675082e+01    0.3359121    0.2408838   6.37  0.001154942    1.437    0.304
       120 -10.4884    110.4973     38.9703   1.0510322169e+01   5.2378173958e+01     0.366162    0.1412212 -33.56  0.001350016    2.677    0.626
       121 -10.2317    250.0769     38.8771   3.5362352676e+02   2.1875245068e+01    0.1734636    0.1106797 -53.68 0.0003539355    1.199    0.166
       122 -10.7994     78.5527     37.4921   1.8832357442e+01   6.0257550469e+01    0.3801114    0.2743748 -79.40  0.001795102    1.902    0.474
       123 -11.1928     79.1369     33.2575   1.6747165515e+01   6.0786084359e+01    0.5514557    0.3325688  24.32  0.002247359    2.628    0.619
       124  -9.9981     60.5260     36.5222   2.5281687927e+01   6.4338187447e+01    0.2439682    0.1361647 -39.69 0.0009219415    1.849    0.459
       125 -10.1252     62.0991     33.4565   2.3150150130e+01   6.4529488604e+01    0.2619345    0.2047773  41.00 0.0006336715    1.239    0.193
       126 -10.5203    153.1719     35.8579   1.8354371146e+00   4.2291650370e+01    0.2269632    0.1843836  86.53 0.0005796763    1.168    0.144
       127 -10.7922    175.0295     34.0307   3.5862988119e+02   3.7395122722e+01    0.2091569    0.1673623 -63.82 0.0005047305    1.069    0.065
       128 -10.4219    131.5241    240.5020   5.0896869794e+01   7.6504654554e+00    0.1199324   0.09777837  16.03 0.0001054504    1.020    0.020
       129 -11.5382    111.0005     25.5092   5.2357125120e+00   5.4082802437e+01    0.3680076    0.2401318  40.00  0.001313176    1.817    0.450
       130 -11.4339    115.2445     24.5765   4.0579072601e+00   5.3131112588e+01    0.3509708    0.2380732  48.78 0.0009312928    1.560    0.359
       131  -9.7376    217.2308     31.9983   3.5435344517e+02   2.8678540024e+01    0.1566989   0.08349193 -36.44 0.0003575314    1.569    0.363
       132 -11.7453     58.2610     29.3608   2.2749057636e+01   6.5996735872e+01    0.3821065    0.2717611  24.82   0.00193546    1.634    0.388
       133 -11.5059     49.1819     29.8633   2.7207784848e+01   6.7732558467e+01    0.7119296    0.2118336  40.72  0.002357858    3.534    0.717
       134 -12.1405    127.1380     28.3258   3.3242117383e+00   4.9679972466e+01    0.6114016    0.3486492  81.07  0.001558583    1.850    0.459
       135 -11.6437     26.5338     27.4899   3.9102370590e+01   7.1981813454e+01     0.435844    0.2953002 -52.64  0.001669636    1.587    0.370
       136 -10.7372    247.6431    223.1208   2.7825034943e+01  -2.5140403615e+00    0.2335456    0.1686572 -48.77  0.001632868    2.466    0.594
       137 -12.5521    164.6493     27.3148   3.5786872595e+02   4.0638550712e+01     0.336259    0.2694239 -88.90 0.0005226601    1.163    0.140
       138 -11.2405    157.2659     29.0129   3.5922763913e+02   4.2184825802e+01    0.3046233    0.1753752 -89.42 0.0004496195    1.846    0.458
       139 -10.7272    189.4613     26.6614   3.5526347248e+02   3.5077368899e+01    0.2868488    0.1806565  34.57  0.001345756    2.748    0.636
       140 -10.8271    183.8139     26.7457   3.5578675184e+02   3.6313030289e+01    0.2874239    0.1379501 -43.87  0.001192681    1.724    0.420
       141 -11.5280    230.3871     26.5812   3.5226589472e+02   2.6805549514e+01    0.1995239    0.1886043 -48.79  0.001055768    1.349    0.259
       142  -9.6768     20.3128     25.3222   4.2332349264e+01   7.3240281361e+01    0.1359466   0.09239382 -17.05 0.0004370364    1.655    0.396
       143 -11.1357     20.5740     20.7787   3.9636111871e+01   7.4067903146e+01    0.3866117    0.2409719 -17.57  0.001324638    1.994    0.498
       144 -10.8246     46.3536     23.9781   2.5464002867e+01   6.9242110022e+01    0.3206651     0.218577  25.00 0.0007993178    1.649    0.393
       145 -10.5283     46.7800     19.7527   2.2848222438e+01   6.9806377663e+01    0.2039468    0.1833426 -59.03 0.0007298625    1.321    0.243
       146 -11.3656    248.4956     21.2467   3.5015465653e+02   2.4167221686e+01    0.2833192    0.1504391 -68.63  0.001777204    1.742    0.426
       147 -10.6271    169.4482     22.9901   3.5612484869e+02   4.0028172301e+01    0.2421272    0.1766817  82.92 0.0005527582    1.312    0.238
       148  -9.8934     60.2975     23.3385   1.8772059834e+01   6.6476900371e+01    0.1399956    0.1023335  18.33 0.0004487373    1.658    0.397
       149 -10.8506    178.6228     20.9642   3.5470440803e+02   3.8154045776e+01    0.3961996    0.2074578  46.49  0.001828626    2.749    0.636
       150 -11.6409    148.5049     22.0921   3.5816159761e+02   4.5133514987e+01    0.3687623    0.1499875  60.99  0.001559366    2.349    0.574
       151 -10.8810    134.5356     22.0107   3.5997850828e+02   4.8593614423e+01    0.2771545    0.1780429 -83.84  0.001379667    1.595    0.373
       152 -10.9254     68.8483     20.1681   1.3907514735e+01   6.5003095980e+01    0.3810503    0.3051726 -36.19  0.002160446    1.330    0.248
       153  -9.7160     53.4120     21.7911   2.0874789393e+01   6.8160776522e+01    0.1824205    0.1284274 -17.76  0.000940482    1.650    0.394
       154  -9.9195     38.7026     21.3637   2.8084563026e+01   7.1089129209e+01    0.1992967    0.1815474  47.04  0.001088654    1.183    0.154
       155 -10.2558      8.6846    211.3264   7.6894973599e+01   2.7093341524e+01    0.1384943   0.06763703  54.30 0.0007043997    1.671    0.402
       156 -11.4815      8.8692     19.6909   4.8471183077e+01   7.5646351671e+01    0.3440736    0.2160439  -7.79 0.0002991822    1.784    0.440
       157  -9.5839    171.4930    208.4942   3.8397576134e+01   7.9199026665e+00    0.1239177    0.1027804  -1.57 -9.409413e-06    1.028    0.027
       158 -10.0583    229.6006    199.2303   2.6791571488e+01   2.3341282965e+00    0.1619032   0.08303364 -27.47 0.0009508425    1.661    0.398
       159 -10.5994    232.6815    190.5279   2.4892054509e+01   3.1837790743e+00    0.1998295   0.08430129 -36.87  0.001074606    1.977    0.494
       160 -11.7219      3.1164    182.7168   7.7182520607e+01   3.4206769241e+01    0.4335022    0.1647012 -88.37   0.00182846    2.519    0.603
       161 -11.4651      8.6865    166.8833   7.4834225768e+01   3.7743453096e+01    0.2160122    0.1889492   7.50 0.0008916056    1.363    0.266
       162 -10.1032    157.0127    165.9841   3.4075492638e+01   1.7632826947e+01    0.1656274    0.1517023 -18.58 0.0006814867    1.018    0.018
       163 -10.6443    205.1368    163.3227   2.4437457282e+01   1.0767213617e+01    0.2225258    0.1475323 -29.30 0.0008356248    1.319    0.242
       164 -12.6218     13.2155    160.2003   7.3057095048e+01   3.9115151764e+01    0.4586396    0.3265547 -33.03  0.002402502    1.794    0.443
       165 -10.5916    241.6635    153.1479   1.7065297002e+01   7.3961913236e+00    0.2663036    0.2070756  87.80  0.001625282    2.687    0.628
       166 -11.1866    228.7272     15.5509   3.4997218365e+02   2.8349721221e+01    0.2196028    0.1401483 -54.98 0.0004704802    1.174    0.148
       167 -10.1165      4.6966    153.3490   7.5279827582e+01   4.1559524936e+01    0.1519771   0.08227559  59.02 0.0003369505    1.697    0.411
       168 -10.7175     44.9934    150.0166   6.1971943186e+01   3.8679171252e+01    0.4122667    0.2378984 -62.92  0.001857263    1.676    0.403
       169  -9.9011    186.5114     14.9947   3.5247867486e+02   3.7051482141e+01    0.1831357    0.1070359 -37.09 0.0005549182    1.526    0.345
       170  -9.6851     93.6743     15.7154   4.8185199102e+00   5.9564027490e+01    0.1402722   0.09636825  39.75 0.0002833859    1.603    0.376
       171 -10.8866     47.7529    145.5590   6.0481137379e+01   3.9544304208e+01    0.3699975    0.2054159  28.67  0.001605611    1.806    0.446
       172 -11.6937     21.4366    150.4806   6.9703777162e+01   4.0991253599e+01    0.2564875    0.2514713 -30.98 0.0005742474    1.191    0.161
       173 -11.4478     23.7065    148.3026   6.8762065817e+01   4.1371023339e+01    0.3073852     0.266836 -67.66 0.0006224092    1.175    0.149
       174 -11.2227    120.4423     11.4985   3.5825110203e+02   5.3268080051e+01    0.2764033    0.1215138  71.99 0.0008391714    2.072    0.517
       175  -9.4229    104.3054    147.6323   4.3421805086e+01   3.0538281824e+01    0.1576767    0.1162815  76.31  0.000142607    1.749    0.428
       176 -10.2192     16.5134    147.4675   7.1060011775e+01   4.2223979472e+01    0.1411604    0.1248412  76.49 9.213369e-05    1.004    0.004
       177 -10.7375     32.9144    143.9300   6.5235061429e+01   4.1655776853e+01    0.2740986    0.2206213 -82.53 0.0008087054    1.169    0.145
       178 -12.0871      3.2174    141.9029   7.5073080114e+01   4.4704803695e+01    0.4743614    0.3304337  27.18  0.002364644    1.497    0.332
       179  -9.4502    105.4229    142.5397   4.2097981182e+01   3.1570164023e+01    0.1477918    0.1456681 -76.59 0.0001156575    1.011    0.010
       180 -11.2225     40.6900    138.5247   6.1909398715e+01   4.2281741837e+01    0.4471132    0.3113059 -76.75  0.001196863    1.383    0.277
       181 -11.6310     22.7871    137.3923   6.7997221461e+01   4.4417564361e+01    0.3382868    0.2565994 -67.62  0.001785656    1.263    0.208
       182 -10.5287     20.4774    134.0261   6.8463282841e+01   4.5543539711e+01    0.2724453    0.2306105  71.12 0.0009893168    1.096    0.088
       183 -12.2454     12.5350    135.4037   7.1400562226e+01   4.5809674247e+01    0.5624658    0.2815388 -49.07  0.002423481    2.172    0.540
       184 -10.8158     30.2205    132.7351   6.4838329724e+01   4.4989963991e+01    0.2714083    0.2175739 -41.31 0.0007963094    1.393    0.282
       185  -9.4677     26.6847    127.2922   6.5448998620e+01   4.6835414449e+01    0.1540292   0.09871194  59.77 0.0002216925    1.597    0.374
       186 -11.1723     11.1286    125.1247   7.0990215711e+01   4.8730784643e+01    0.3962186    0.2254407 -44.27  0.001301683    1.950    0.487
       187  -9.8052     26.2712    131.3255   6.6088123150e+01   4.5762264832e+01    0.1470086    0.1016656 -45.71 0.0002043172    1.577    0.366
       188 -10.0175      1.6059    124.7855   7.4491034271e+01   4.9440522676e+01    0.2072645    0.1146162  82.78 0.0009508766    1.696    0.411
       189 -12.7061    245.9772    120.3943   1.0347970376e+01   1.1549190590e+01    0.6432524    0.2572506 -46.33  0.003121566    2.309    0.567
