#   1 NUMBER                 Running object number                                     
#   2 MAG_AUTO               Kron-like elliptical aperture magnitude                    [mag]
#   3 X_IMAGE                Object position along x                                    [pixel]
#   4 Y_IMAGE                Object position along y                                    [pixel]
#   5 X_WORLD                Barycenter position along world x axis                     [deg]
#   6 Y_WORLD                Barycenter position along world y axis                     [deg]
#   7 A_WORLD                Profile RMS along major axis (world units)                 [deg]
#   8 B_WORLD                Profile RMS along minor axis (world units)                 [deg]
#   9 THETA_WORLD            Position angle (CCW/world-x)                               [deg]
#  10 FWHM_WORLD             FWHM assuming a gaussian core                              [deg]
#  11 ELONGATION             A_IMAGE/B_IMAGE                                           
#  12 ELLIPTICITY            1 - B_IMAGE/A_IMAGE                                       
         1 -14.8660     54.8068    146.7061   1.0831910062e+02   3.8321062945e+01     8.379649     3.597809  49.52   0.03385983    2.819    0.645
         2 -15.1385     68.4539    144.1406   1.0420537426e+02   3.7253614685e+01     4.224858     2.262993  79.21  0.009803136    3.987    0.749
         3 -14.4777    201.2922     38.3138   4.4478865262e+01   3.0745266474e+01     2.033799     1.417117  27.72  0.007164986    1.963    0.491
         4 -14.3677    213.3833     26.2563   4.0011084554e+01   2.9422100505e+01     1.167528     0.871825  29.09   0.00657559    1.813    0.449
         5 -11.6644      2.0000      9.5015   9.1906531992e+01   7.2851810309e+01    0.5184094    0.1375414 -47.42  0.002268264    3.244    0.692
         6 -11.7425      2.3215      3.1185   8.8498737696e+01   7.3791121678e+01    0.3484799    0.2855057 -15.65  0.002719282    1.302    0.232
         7 -12.2846    240.2681      3.0141   3.2419257455e+01   2.6091144058e+01    0.5116251     0.331749  58.00  0.002823266    1.766    0.434
         8 -12.0500    235.1960      2.4037   3.2633359129e+01   2.7206959402e+01    0.3998415    0.2382268  75.05  0.001684024    1.613    0.380
         9 -10.5345     66.7165      3.0639   5.8914360069e+01   6.4971394357e+01    0.2035812    0.1601433  49.24  0.001078909    1.397    0.284
        10  -9.7042    126.3267    209.3236   1.0083439440e+02   1.3721747139e+01    0.1322052    0.1031843  -6.86 0.0004537982    1.691    0.409
        11 -12.0630    139.5122    248.0872   1.0348566377e+02   4.7785849783e+00    0.4802873    0.3241088 -65.13  0.002876301    1.982    0.496
        12 -13.0873     69.2912    173.6528   1.0863321979e+02   3.0012952311e+01     1.134395    0.5141066 -36.90  0.003451869    4.437    0.775
        13 -12.7380     27.8171    214.9171   1.2183587300e+02   2.5644597601e+01    0.7180498    0.3043948  80.71   0.00298689    2.737    0.635
        14 -13.4958     25.0147    225.8506   1.2309684124e+02   2.3728975387e+01    0.9730036     0.382724  60.03  0.004997788    2.388    0.581
        15 -14.9995      9.2919    207.6651   1.2486251400e+02   2.8905227707e+01     1.654723    0.9152288 -53.08  0.003912668    2.274    0.560
        16 -16.0813      7.2483    171.3395   1.2277000597e+02   3.6995488063e+01     7.274244     1.398951 -72.31   0.02665409    3.726    0.732
        17 -14.2676     51.7715    191.4812   1.1486218788e+02   2.8077822843e+01     1.841874     1.041327  86.00  0.009321351    1.946    0.486
        18 -16.4336      8.4047    241.3942   1.2683167648e+02   2.2384545689e+01     4.503515     2.091181  23.76   0.02446948    3.463    0.711
        19 -12.2018    204.7132    199.0043   8.2742236676e+01   2.5645232796e+00    0.6041332    0.3577082  -7.04  0.002719408    2.306    0.566
        20 -11.6606    109.9296    201.2565   1.0321167100e+02   1.7944597813e+01    0.3129019    0.2590041 -30.66 0.0002278216    1.449    0.310
        21  -9.6426     30.5508    202.1293   1.2032942229e+02   2.8053102897e+01    0.1967556    0.1310119  55.27 0.0006399138    1.366    0.268
        22 -10.3976     62.6709    200.9324   1.1351523136e+02   2.4671595062e+01    0.2122293    0.1743989  73.28 0.0003892079    1.082    0.076
        23 -10.9881     64.9774    196.0268   1.1246671660e+02   2.5457067944e+01    0.3958593    0.3278221 -20.32  0.002392229    1.724    0.420
        24 -13.1185     10.8167    188.5847   1.2330696733e+02   3.2846388008e+01    0.2984286    0.2444223  39.24  0.001013585    1.449    0.310
        25  -9.4527    128.4444    195.2883   9.8163335688e+01   1.6212615581e+01    0.1890397    0.1335788 -68.91 0.0009482917    1.697    0.411
        26  -9.1063     91.5551    183.5000   1.0476408039e+02   2.4615798174e+01    0.1346342    0.1263049  88.86 0.0001202207    1.016    0.016
        27 -10.9572    150.6654    179.0707   9.0240395211e+01   1.5723129124e+01     0.402064    0.2709927 -72.24  0.001752715    2.285    0.562
        28 -11.6571    144.0922    179.2800   9.1773452884e+01   1.6859443594e+01    0.4821091     0.366954  86.77  0.002312124    1.922    0.480
        29 -10.5307     99.3819    180.6538   1.0247763692e+02   2.4075626169e+01    0.2400595    0.2372916 -29.04 0.0006007859    1.115    0.103
        30  -9.5420    204.4771    176.0085   7.8185089975e+01   6.5532026630e+00    0.2165974    0.1299184 -36.42 0.0007476565    1.581    0.368
        31  -9.7927    197.2303    176.0582   7.9638911428e+01   7.8362901462e+00     0.256024    0.2064948  28.23  0.001259786    1.226    0.184
        32  -9.7589    188.1187    174.2295   8.1118803620e+01   9.8261749815e+00    0.2679859    0.1939445 -66.11  0.001236588    2.147    0.534
        33 -13.8753     58.2039    241.8806   1.1820259354e+02   1.6968541966e+01    0.7671598    0.4218644  68.45  0.004327161    1.811    0.448
        34 -12.5292     80.7031    161.5682   1.0395976520e+02   3.1325364292e+01    0.6049064    0.4088916  57.17   0.00054798    1.632    0.387
        35 -13.8084     68.7737    156.9466   1.0626620373e+02   3.4078944675e+01    0.6876619    0.5787451 -26.82  0.003917359    1.444    0.307
        36 -11.0436     44.6923    229.9342   1.1976510197e+02   2.0818450757e+01    0.2964561     0.221009  58.33   0.00137714    1.134    0.118
        37 -13.3489     87.6443    154.7131   1.0098432252e+02   3.1957537377e+01     1.990599    0.9442285 -62.75  0.008054934    2.135    0.532
        38 -11.3688    133.5815    144.1100   8.6944855105e+01   2.6540621714e+01     1.245412    0.2946258 -52.75  0.002858484    5.846    0.829
        39 -10.5293    174.4328    148.9194   7.8459570043e+01   1.7423365263e+01     0.281557    0.2669439  69.82 0.0007790204    1.245    0.197
        40 -11.0725     38.2048    145.9755   1.1262416921e+02   4.0295934771e+01    0.3456663    0.1542683  43.34  0.001572151    2.436    0.590
        41 -12.0815     29.7327    143.5621   1.1453324128e+02   4.1687948921e+01    0.5219441     0.386688  36.36  0.003153639    1.559    0.358
        42 -10.8411     34.6051    139.4727   1.1268222073e+02   4.2236773526e+01    0.2717265    0.2240069 -74.78  0.000654652    1.024    0.023
        43 -11.5495     25.6376    137.5467   1.1484040680e+02   4.3511825900e+01    0.3441206    0.3188564  76.22  0.001334323    1.192    0.161
        44 -11.0952     82.1371    141.9620   1.0006341090e+02   3.5877949692e+01    0.3993678    0.2677998  73.72  0.001788861    2.065    0.516
        45 -11.1566    101.9067    139.8294   9.4243450606e+01   3.3273342512e+01     0.606819    0.3621705 -24.88  0.002320897    2.632    0.620
        46 -12.3201     89.0068    139.9308   9.7776501893e+01   3.5335258070e+01    0.2996036    0.2517085 -42.89 0.0004238565    1.173    0.147
        47 -11.5370    135.5987    128.3633   8.2672139453e+01   2.9701145165e+01    0.6195052    0.2107144 -49.06   0.00192152    2.993    0.666
        48 -10.5500    106.0269    130.8456   9.1111619514e+01   3.4711150803e+01    0.3585145    0.3156396 -70.87  0.001189411    1.203    0.169
        49 -10.3071    111.0247    130.4471   8.9653120791e+01   3.3916559156e+01     0.339762    0.2592315   2.33  0.000860621    1.705    0.414
        50 -12.4598     44.9955    129.6861   1.0827325240e+02   4.3610785345e+01    0.4044999    0.3655051 -60.61  0.001818124    1.083    0.076
        51 -10.4765    160.4191    127.5532   7.6437634669e+01   2.4750482090e+01     0.343982    0.2772532 -65.24  0.001634075    1.495    0.331
        52 -10.8966     98.3515    126.4863   9.2231907237e+01   3.7072085145e+01    0.3015031     0.244887 -16.60 0.0005727501    1.429    0.300
        53 -11.0829    118.6549    123.1152   8.5795871670e+01   3.4211538750e+01     0.647965    0.3867908  -1.82  0.001941377    4.319    0.768
        54  -9.5802     91.2260    124.1270   9.3712974328e+01   3.8815962437e+01    0.2579527    0.1835032  66.12 0.0006518947    1.898    0.473
        55 -11.1807    138.6349    170.2850   9.1288713358e+01   1.9763689538e+01    0.4185996    0.3069555  54.99  0.002042047    1.536    0.349
        56 -12.1209     32.1177    120.4106   1.1049090326e+02   4.7144352975e+01    0.5279149    0.2013251 -40.96  0.002019172    3.161    0.684
        57  -9.9782    107.6392    119.1262   8.7825484945e+01   3.7185423679e+01    0.2184559    0.2067534  49.81 0.0003217651    1.150    0.130
        58  -9.9599     34.4630    171.4221   1.1663158603e+02   3.4565021121e+01     0.234966    0.1810354  76.94 0.0008549631    1.192    0.161
        59 -10.9972    134.8952    112.0581   7.8600476563e+01   3.3450453759e+01    0.5534083   0.09151814 -43.90  0.001209883    5.758    0.826
        60  -9.5518    168.0656    113.0053   7.0917002473e+01   2.6101166865e+01    0.2543352    0.1955006 -75.03  0.001132752    1.805    0.446
        61 -10.2039    205.4625    110.1767   6.2675981775e+01   1.8476693231e+01    0.3058824    0.2150726  38.50 0.0009568126    1.579    0.367
        62 -10.7403    116.0722    109.6849   8.2992543448e+01   3.7766285380e+01    0.5633078    0.3049819  47.16  0.002257061    2.048    0.512
        63  -9.9856    157.6536    160.1286   8.4750290800e+01   1.8387597790e+01    0.2742419    0.2274977 -75.12  0.001363772    1.549    0.354
        64  -9.1282    140.0391    106.5429   7.5771662118e+01   3.3546515757e+01    0.3225116     0.198999 -73.29  0.001041003    3.527    0.717
        65 -10.1037    134.6324    104.9917   7.6714940864e+01   3.5025057460e+01    0.3697161    0.1439332 -42.23   0.00124253    2.448    0.592
        66 -11.5231     34.3662    108.9786   1.0779462729e+02   4.9733319488e+01    0.3063978    0.2330796 -74.32   0.00119849    1.250    0.200
        67 -11.2592     39.2586    102.6335   1.0496586550e+02   5.0807564622e+01    0.4022998    0.1979214  41.25  0.001840003    2.475    0.596
        68  -9.9379     33.4161    100.2162   1.0639067138e+02   5.1932820569e+01    0.2114624    0.1917527   4.28 0.0006609784    1.304    0.233
        69 -10.6627    241.1798     99.1565   5.4242088854e+01   1.3019816195e+01    0.1910028    0.1488497 -54.06 0.0003126109    1.312    0.238
        70  -9.9887    127.8210     94.9494   7.5605339890e+01   3.8573264460e+01    0.2853493    0.2096129  76.38  0.001030402    2.070    0.517
        71 -10.2658     41.6466     91.8626   1.0177228872e+02   5.3129651315e+01    0.2088638      0.17363 -22.46 0.0005104023    1.251    0.200
        72 -10.5678     52.9488     90.5457   9.7545564797e+01   5.2195943476e+01    0.2869013    0.1596081 -42.91 0.0009881911    1.581    0.367
        73  -9.2737    156.9165     88.9392   6.6689021399e+01   3.3319540663e+01    0.2483701    0.1891919 -71.96  0.001115711    1.758    0.431
        74  -9.3096     75.1323     85.1494   8.8489290678e+01   5.0409227929e+01    0.1808885    0.1692557 -71.89            0    1.273    0.214
        75  -9.0155    115.7253     84.7915   7.5832888019e+01   4.3167450706e+01    0.2265695    0.1208903  54.26 0.0008584257    2.356    0.576
        76  -9.8197    158.8085     81.8335   6.4179137013e+01   3.4194220938e+01    0.2098142    0.1818493 -65.76 0.0005520595    1.308    0.235
        77  -9.5194     70.0066     81.7932   8.9222207681e+01   5.1910598501e+01    0.1955992    0.1879541 -86.33 0.0005388808    1.286    0.222
        78  -9.3779     54.0479     65.2852   8.9788957721e+01   5.7597770230e+01    0.1801057    0.1622589 -10.52 0.0003782866    1.125    0.111
        79 -10.7154     13.4526     59.8356   1.0437940845e+02   6.2658846817e+01    0.2521246    0.1851329 -55.77 0.0004406386    1.190    0.160
        80 -14.6184     42.1165    201.4102   1.1790120272e+02   2.6982907015e+01     2.750061     1.284637  71.64  0.006720939    2.610    0.617
        81  -9.1386     37.4124     56.7833   9.3534631432e+01   6.1266516539e+01    0.1770445   0.09978641 -39.95 0.0003145654    1.456    0.313
        82 -12.9070    191.9790     45.0101   4.7532795333e+01   3.2066283004e+01    0.6993676    0.5827197  40.65 0.0009204489    1.328    0.247
        83 -10.3330     33.6342    227.1967   1.2161196757e+02   2.2569014233e+01    0.1726565     0.160543  77.74 0.0003697389    1.303    0.232
        84 -13.8156     68.4051    243.1264   1.1643371256e+02   1.5487483882e+01    0.9408688    0.5197791  76.61  0.005258151    2.089    0.521
        85 -11.1137    141.3833     46.6757   5.6891168747e+01   4.3987863109e+01    0.3854491      0.27524 -75.25 0.0009825637    2.016    0.504
        86 -10.3676    144.3551     41.2890   5.4490674612e+01   4.4014982927e+01    0.2480696      0.22802 -69.00 0.0003622371    1.206    0.171
        87 -10.5679    187.9607     31.2839   4.4304043005e+01   3.4750463193e+01    0.1919524    0.1702944  77.07 0.0005596575    1.090    0.082
        88 -11.4776      3.4779     24.8351   9.7740199698e+01   7.0179126775e+01    0.3419563    0.2197295  31.39  0.002193456    2.097    0.523
        89 -10.2333     13.0226     52.6684   1.0256264484e+02   6.4193127028e+01    0.2414604    0.1107865  16.96   0.00123751    2.548    0.608
        90  -9.2361    189.5210     14.9905   3.9685170988e+01   3.6168058452e+01    0.1833872    0.1250806 -29.13 0.0005640638    1.533    0.348
        91 -10.2980    113.6902    207.1134   1.0323729722e+02   1.6153187912e+01    0.2119172    0.1656227  84.88  0.001192545    1.492    0.330
        92 -16.0891     42.3441    249.3424   1.2155419380e+02   1.7445135528e+01     11.09113      3.44478  26.32   0.02627802   14.444    0.931
        93 -11.8953    194.6000    196.8727   8.4329868177e+01   4.6059791341e+00     1.166977    0.7529743 -68.60   0.00457127    3.822    0.738
        94 -10.6107    106.7679    210.5558   1.0520926607e+02   1.6513121005e+01    0.2457613    0.1230188  32.96   0.00112949    2.043    0.510
