#   1 NUMBER                 Running object number                                     
#   2 MAG_AUTO               Kron-like elliptical aperture magnitude                    [mag]
#   3 X_IMAGE                Object position along x                                    [pixel]
#   4 Y_IMAGE                Object position along y                                    [pixel]
#   5 X_WORLD                Barycenter position along world x axis                     [deg]
#   6 Y_WORLD                Barycenter position along world y axis                     [deg]
#   7 A_WORLD                Profile RMS along major axis (world units)                 [deg]
#   8 B_WORLD                Profile RMS along minor axis (world units)                 [deg]
#   9 THETA_WORLD            Position angle (CCW/world-x)                               [deg]
#  10 FWHM_WORLD             FWHM assuming a gaussian core                              [deg]
#  11 ELONGATION             A_IMAGE/B_IMAGE                                           
#  12 ELLIPTICITY            1 - B_IMAGE/A_IMAGE                                       
         1 -14.7687    212.4546      5.2950   4.3673382023e+01   3.0148217333e+01     2.949705     1.811961  43.60   0.01121931    1.913    0.477
         2 -13.7327    193.0573     30.0924   5.3117160093e+01   3.2516315914e+01    0.8251906    0.7455785  44.93  0.001604634    1.168    0.144
         3 -13.8943    174.0215     50.0896   6.2332182983e+01   3.4866986504e+01      1.82858     1.258603  28.14  0.004916206    1.757    0.431
         4 -14.2874    188.5414     36.2887   5.5659000330e+01   3.2939205685e+01     1.154558     1.061435  23.89   0.00435824    1.162    0.139
         5 -12.4269     58.9934      2.9725   7.3087005532e+01   6.9958641485e+01     0.560396    0.2515959  45.03  0.002449089    2.221    0.550
         6 -12.7131    195.7226    197.7875   9.2391400949e+01   8.1535448472e+00     1.029382    0.8789799  79.23  0.006806743    2.114    0.527
         7 -16.3846     72.8323    147.5067   1.1170399933e+02   3.6333164762e+01     6.813486     3.084155  62.59   0.02748815    2.914    0.657
         8 -18.7072     36.6796    243.1491   1.2637260810e+02   2.3096628873e+01     6.543682     2.206032  32.35    0.0344903    2.534    0.605
         9 -16.1634     57.6328    207.3199   1.2067627274e+02   2.6585020287e+01     3.199617     2.168866  57.87   0.01707052    1.153    0.133
        10 -10.8684      7.9200    192.7056   1.3005462050e+02   3.4180412797e+01    0.2199977    0.0909114  36.81  0.001086697    1.905    0.475
        11 -12.5009    149.3921    187.2743   9.9597031315e+01   1.6966856492e+01    0.3648024     0.296295  76.69  0.001873277    1.674    0.403
        12 -10.6548    159.9677    197.1646   9.8924413772e+01   1.3820767867e+01    0.1775439    0.1632689  22.26 0.0003460261    1.175    0.149
        13 -11.6635    207.5910    194.7524   8.9843952785e+01   6.6963661637e+00    0.2592295    0.1870478 -28.02  0.001398931    1.578    0.366
        14 -10.8550     99.3288    180.7522   1.0939937715e+02   2.5891030577e+01     0.243775     0.180374  40.26 0.0006350455    1.171    0.146
        15  -9.8517     53.2330    181.0027   1.1977186600e+02   3.1911353343e+01    0.1526601    0.1211197  63.44            0    1.038    0.037
        16 -10.8518    204.5523    176.2376   8.7286477373e+01   9.4174541675e+00    0.3359573    0.2081235 -47.78  0.001818492    2.401    0.583
        17  -9.2353    198.5332    177.5315   8.8587278654e+01   1.0240685260e+01    0.1236582    0.1021485  23.15 1.900064e-05    1.056    0.053
        18 -12.1653    141.7823    174.8828   9.9322641849e+01   2.0202708547e+01    0.3829323    0.2326103  32.93  0.002041228    1.508    0.337
        19 -10.3100    163.8824    169.6876   9.3883667462e+01   1.7255726598e+01    0.2045157    0.1879603 -55.71 0.0004131726    1.365    0.268
        20  -9.2291     63.7520    170.3554   1.1645417571e+02   3.2751066544e+01    0.1553343     0.105381  32.09 0.0004549236    1.497    0.332
        21 -11.2617    230.2565    166.9659   8.1253704296e+01   6.3789097028e+00    0.3261659    0.1441161 -40.68  0.001528808    2.990    0.666
        22 -10.4340    192.5751    164.8642   8.7429438517e+01   1.2952336577e+01    0.2423079    0.2116836   5.40 0.0006760498    1.101    0.092
        23 -19.1851     17.9192    104.8601   1.2290711777e+02   5.2107741343e+01     16.60856    0.7789273 -76.93   0.02682872   17.800    0.944
        24  -9.1055    117.3008    161.7012   1.0273861310e+02   2.6639416401e+01    0.1326559   0.09384234  65.10  0.000331388    1.580    0.367
        25  -9.3668      1.4074    161.2170   1.3052139682e+02   4.0785531703e+01     0.137958   0.07902772  73.70 0.0002071097    1.371    0.271
        26 -12.3909     97.4930    153.1837   1.0621531989e+02   3.1511635330e+01    0.5552083    0.4382312 -21.60   0.00309674    1.827    0.453
        27 -10.9727    188.7904    154.6483   8.6221643994e+01   1.5086837489e+01    0.5371477    0.2592625  39.91  0.002515917    1.857    0.461
        28 -11.6535    133.8892    145.4855   9.6131478551e+01   2.6819990431e+01     1.093724     0.304542 -55.10  0.003074888    5.769    0.827
        29 -10.2258    113.1099    151.3703   1.0210977287e+02   2.9338293460e+01    0.2326402    0.1906822 -81.11 0.0005489092    1.378    0.274
        30 -10.4622    174.4026    148.8538   8.7923394217e+01   1.8637588128e+01    0.2685668    0.2341152  63.51 0.0008969308    1.400    0.286
        31 -11.1702    144.0507    147.1194   9.4098773119e+01   2.4640080898e+01    0.3269123    0.2352261 -65.46  0.001681468    1.826    0.452
        32  -9.7681    159.1403    146.2365   9.0599203207e+01   2.1957801150e+01    0.2416045    0.1833644 -79.95   0.00106189    2.071    0.517
        33  -9.9072    115.5607    144.3966   1.0034197844e+02   3.0310432565e+01    0.2617448    0.1769625  80.31 0.0006956957    2.102    0.524
        34 -11.9284    108.5203    139.2250   1.0120604696e+02   3.2582997724e+01    0.5245628    0.3521627 -35.42  0.002575585    1.961    0.490
        35 -12.5321     96.8057    138.7459   1.0415252430e+02   3.4638614880e+01    0.2587177    0.2428245  54.12 0.0005494889    1.080    0.074
        36  -9.4532    128.0706    139.4799   9.6392290255e+01   2.9046493475e+01    0.2188097    0.1278118  41.95  0.001022531    1.562    0.360
        37 -10.9322     81.7803    195.4812   1.1475437229e+02   2.5677320851e+01    0.2999184    0.2662097   4.19  0.002133382    1.558    0.358
        38 -11.5126    135.8233    127.3869   9.2082738996e+01   2.9943716339e+01    0.8927203    0.2335608 -51.69  0.002472303    5.109    0.804
        39 -10.9950    115.4201    129.7539   9.7680987093e+01   3.3335389918e+01    0.3064607    0.2588109 -10.97 0.0006119391    1.517    0.341
        40 -10.1762    160.4937    127.4686   8.6398641133e+01   2.4971944559e+01    0.2693045    0.2141513 -48.94  0.001300867    1.404    0.288
        41 -10.8812    120.6893    123.2904   9.5008200752e+01   3.3700226365e+01    0.4183801    0.2634057 -20.60  0.001654604    2.872    0.652
        42 -10.0721    110.5767    118.8737   9.6756543505e+01   3.6530629842e+01    0.2217823    0.1882299  35.55 0.0003586227    1.196    0.164
        43 -11.9318     65.6291    113.8616   1.0886866491e+02   4.4949872900e+01    0.4212479    0.2440619 -56.19  0.001140194    1.717    0.418
        44 -10.2075    168.1600    112.8563   8.1348921761e+01   2.5938712261e+01    0.3298946    0.2572645 -82.11  0.001525383    1.887    0.470
        45 -11.3770    105.9443    130.8143   1.0035845884e+02   3.4798789788e+01    0.3693839    0.3106449 -85.14  0.001251126    1.276    0.216
        46 -11.5502    119.2897    110.5802   9.2568694797e+01   3.6637944715e+01    0.5961049    0.3448474  56.83  0.002511433    1.971    0.493
        47 -10.2780    205.4932    110.1373   7.3473133852e+01   1.8412407904e+01    0.3001575    0.1890507  38.28 0.0009915216    1.578    0.366
        48 -11.2997    103.2670    125.5752   1.0008557770e+02   3.6392341619e+01    0.2767165    0.2370214   6.75 0.0006019122    1.467    0.318
        49 -10.2643     70.1105    103.1035   1.0552424938e+02   4.6871849050e+01    0.2072182    0.1917215 -36.82  0.001217859    1.246    0.197
        50 -10.1147     51.8912     90.7644   1.0932211788e+02   5.2274164787e+01    0.2607422    0.1693303  51.16  0.001197835    1.598    0.374
        51 -12.2661    165.6274     65.8766   6.8903213040e+01   3.4591273396e+01    0.8418375     0.524332 -47.29 0.0006398622    1.716    0.417
        52 -11.5390    158.1126    236.8121   1.0421760008e+02   8.9711183315e+00    0.3131075    0.2729364  72.33  0.002517027    1.654    0.395
        53 -10.2664    168.9892    235.5270   1.0217649503e+02   7.6221451269e+00    0.1635123    0.1438586  11.97 0.0001747683    1.285    0.222
        54 -10.1567     87.3354    202.8850   1.1426567656e+02   2.3658695009e+01    0.3054141    0.2081769  82.86  0.001977843    1.675    0.403
        55 -10.6040      1.6308    210.4356   1.3170340776e+02   3.1568601305e+01    0.1399857   0.07703044  54.51  0.001028097    1.232    0.188
