#   1 NUMBER                 Running object number                                     
#   2 MAG_AUTO               Kron-like elliptical aperture magnitude                    [mag]
#   3 X_IMAGE                Object position along x                                    [pixel]
#   4 Y_IMAGE                Object position along y                                    [pixel]
#   5 X_WORLD                Barycenter position along world x axis                     [deg]
#   6 Y_WORLD                Barycenter position along world y axis                     [deg]
#   7 A_WORLD                Profile RMS along major axis (world units)                 [deg]
#   8 B_WORLD                Profile RMS along minor axis (world units)                 [deg]
#   9 THETA_WORLD            Position angle (CCW/world-x)                               [deg]
#  10 FWHM_WORLD             FWHM assuming a gaussian core                              [deg]
#  11 ELONGATION             A_IMAGE/B_IMAGE                                           
#  12 ELLIPTICITY            1 - B_IMAGE/A_IMAGE                                       
         1 -15.6484    163.9352    117.5938   2.5283604176e+01   2.7453578146e+01     4.945275     4.069028 -10.32   0.01307049    1.554    0.356
         2 -15.8434    203.9612    120.3889   1.9450050630e+01   2.0623270710e+01     3.753322     1.850755 -35.57   0.01957371    2.091    0.522
         3 -16.5573    247.0972    112.0488   1.2944855747e+01   1.6058154818e+01     4.121392     1.822248 -61.36   0.01341802    3.479    0.713
         4 -15.5246    193.5019    192.8207   3.3506363228e+01   9.7224974240e+00     6.252092      3.54372  56.58   0.02634967    4.639    0.784
         5 -15.7578    177.9260    167.1888   3.2035891643e+01   1.6199927160e+01      2.49128     2.047915 -41.58   0.01604636    1.111    0.100
         6 -17.7858    241.8854    139.4452   1.7849368187e+01   1.2737895862e+01     4.238086     2.817034 -29.76   0.02174808    1.484    0.326
         7 -13.7158    204.7720     19.1702   7.3214706296e-01   3.4200634131e+01     3.115762    0.9706368 -66.46   0.01216618    5.120    0.805
         8 -14.3493    233.4558      7.9338   3.5716431652e+02   3.0679741033e+01       2.4598    0.9177108  81.89   0.01553707    2.654    0.623
         9 -11.9810    229.5558     29.9347   9.7617055454e-01   2.8987430088e+01    0.2979418    0.1603235 -67.65  0.002120234    1.576    0.365
        10 -11.1074    160.2919     22.0829   5.0834679492e+00   4.2165180842e+01    0.3112241    0.1329291 -66.36  0.001458721    2.866    0.651
        11  -9.2238    169.4491    209.5156   4.0653076819e+01   9.4727100534e+00    0.1258359    0.1037015 -17.63 0.0002110651    1.006    0.006
        12 -10.8586     11.9966    206.0135   8.1293890480e+01   2.7539776575e+01    0.2647288    0.1750568  28.89  0.001043706    1.382    0.276
        13 -11.6592    171.8331    198.2160   3.8401651847e+01   1.1257048409e+01    0.5113396    0.3769435  87.89    0.0025459    3.015    0.668
        14 -10.7769    249.5226    247.6803   3.2634456680e+01  -3.4323944262e+00    0.2139378    0.1499019 -41.62 0.0009540133    1.604    0.376
        15 -10.2826     13.8710    200.1671   8.0350509084e+01   2.8859207501e+01    0.2072257    0.1706471  46.11 0.0002782367    1.160    0.138
        16  -9.7092    161.9600    196.4897   4.0114632650e+01   1.2761519434e+01    0.1823128    0.1206002  26.00 0.0004684181    1.544    0.352
        17 -15.6034    236.3898    131.5859   1.7234522539e+01   1.4552067347e+01     1.547315    0.4724001 -36.22  0.006342607    3.887    0.743
        18 -10.4574     12.2023    189.8345   8.0104465760e+01   3.1610393314e+01    0.1991892     0.157706 -35.31 0.0008353658    1.351    0.260
        19  -8.9082    200.7569    218.5571   3.6199870342e+01   4.6850807616e+00    0.1298925    0.1026677  20.86 0.0003047145    1.430    0.301
        20 -10.0147     89.9120    184.8829   5.5893403386e+01   2.4679800029e+01    0.2376615    0.1865282 -17.35 0.0007039809    1.335    0.251
        21 -10.3635    242.5003    246.4981   3.3489166278e+01  -2.8067784130e+00    0.1019163   0.06986816 -21.80 -0.0001242986    1.019    0.019
        22 -11.1284    154.9013    179.3605   3.8736937795e+01   1.6987413568e+01    0.2894318    0.1899916 -50.73  0.001119271    1.517    0.341
        23  -9.5106     28.5002    178.5187   7.3968017004e+01   3.3249955887e+01     0.142196    0.1378696   3.76 0.0008103032    1.021    0.021
        24 -13.6899    187.0885    173.6563   3.1487627948e+01   1.3838679492e+01    0.6604926    0.3872858 -46.38  0.001809919    1.523    0.344
        25 -12.0979    117.5825    168.2651   4.5559639962e+01   2.4649327901e+01    0.4724564    0.3482898  -2.30  0.002358554    1.560    0.359
        26 -10.0660    223.2483    239.7116   3.5498991897e+01  -4.6777393699e-01       0.1645    0.1148422  12.09 0.0007445045    1.453    0.312
        27 -10.2635    193.7715    223.9695   3.8227316699e+01   4.4756395857e+00    0.2866645    0.1832716 -19.74  0.001204573    1.375    0.272
        28 -11.6186     67.8530    143.8824   5.5822541899e+01   3.7838825476e+01     0.775243    0.4444264  54.28   0.00307845    2.247    0.555
        29  -8.9841    161.4607    218.4815   4.3641218807e+01   8.7270495598e+00    0.1260283    0.1050748 -13.22 4.684892e-05    1.019    0.019
        30 -10.4953    223.5748    223.3376   3.3148681233e+01   1.8962811817e+00    0.1856997    0.1479827 -23.14 0.0003668055    1.150    0.131
        31 -11.2937    120.5208    116.5141   3.4370960307e+01   3.5412721934e+01    0.4591593    0.2987607  47.76  0.001900049    1.561    0.360
        32 -10.8367    125.5180    127.5076   3.5532708342e+01   3.2243628725e+01    0.2813146    0.1661247 -46.54 0.0008505824    1.666    0.400
        33 -11.4055    125.9923    121.6738   3.4160172646e+01   3.3363746613e+01    0.4162764    0.2559645 -48.53 0.0007329801    1.606    0.377
        34 -10.3473    121.0964    132.3450   3.7660276080e+01   3.1994384266e+01    0.2440017    0.1864521 -37.81 0.0005534237    1.338    0.252
        35 -10.4641      3.4239    137.7663   7.8641476240e+01   4.5999466237e+01    0.2621405    0.2283829  -5.95 0.0004392171    1.157    0.136
        36 -10.5240     80.8995    126.5419   4.8043359322e+01   4.0125062761e+01    0.7833159    0.2079653 -54.78  0.002319342    3.789    0.736
        37 -11.0519    112.5555    125.3427   3.8387276663e+01   3.4990749824e+01     0.849288    0.5397989 -60.93  0.003904944    1.793    0.442
        38 -11.1547    114.7272    121.5771   3.6985065737e+01   3.5408632827e+01    0.5216138    0.4077309  76.39  0.002638796    1.635    0.388
        39 -11.6038    174.0353    222.4977   4.1708733432e+01   6.6799098578e+00     0.451537     0.191151  20.62  0.002147122    2.495    0.599
        40 -11.3322    112.3521     98.4411   3.2238988564e+01   4.0573246397e+01    0.6161804     0.332886 -37.65   0.00267325    2.143    0.533
        41 -11.7882    114.0779    109.9339   3.4519003722e+01   3.7949940622e+01    0.6306184    0.3582084 -54.74  0.002240595    1.886    0.470
        42 -12.5348    122.3776    104.8399   3.1248725141e+01   3.7400790254e+01    0.9420996    0.7874742  81.09  0.005242153    1.356    0.262
        43 -12.5289     45.7961     99.8539   5.5029003321e+01   5.1789933178e+01    0.4823837    0.4457346  -2.94 0.0008148385    1.036    0.035
        44 -13.1582     62.2162    105.9148   4.9955312517e+01   4.7962696660e+01     1.024323    0.6379083  44.18  0.001287278    1.641    0.391
        45 -13.9157     55.8536    101.3090   5.1305902068e+01   5.0008396402e+01     2.421453    0.9684013  32.39  0.007204175    2.320    0.569
        46 -13.7696     14.9429     96.6412   6.8111458973e+01   5.5950514095e+01     1.757797     1.302848  12.31  0.007071899    1.300    0.231
        47  -8.9917     95.0380    107.2945   3.9223600611e+01   4.2032009006e+01    0.2040904    0.1804203  38.74 0.0004263954    1.094    0.086
        48 -12.0309    173.7110    216.0357   4.0806305522e+01   7.8433028701e+00    0.4112924    0.2898858 -15.97  0.002547798    1.284    0.221
        49 -11.1849    234.3948    215.9627   3.0456154246e+01   2.0738057167e+00    0.2056406    0.1890439  -6.41 0.0004982559    1.453    0.312
        50 -11.4994    190.1353    212.7772   3.7214696400e+01   6.6867519168e+00    0.2853809    0.2640989 -45.98  0.001986912    1.439    0.305
        51  -9.6842    108.1673     94.4317   3.2351675320e+01   4.2165947657e+01    0.3501803    0.2411147 -16.02  0.001572319    2.307    0.566
        52  -9.6272     68.8211    226.4061   6.7153797238e+01   1.7468058208e+01    0.2105986    0.1873922 -48.68 0.0002830886    1.227    0.185
        53 -10.0974    171.0375     90.8853   1.8598601052e+01   3.0763651777e+01     0.214524    0.1657217 -41.37 0.0004543974    1.292    0.226
        54  -9.9243    172.7484     86.9961   1.7531090089e+01   3.1074909601e+01    0.2561047    0.1724987 -27.24  0.001273832    1.961    0.490
        55 -12.2213    182.5168     80.0454   1.4721118180e+01   3.0399380742e+01    0.7418752    0.4876384 -36.82  0.003645343    1.606    0.377
        56  -8.5616     92.5967     85.5852   3.4465462272e+01   4.6919475215e+01    0.1382564    0.1307819  46.91 0.0001400761    1.010    0.010
        57  -9.5934    202.3454     82.4053   1.2692238662e+01   2.6689785611e+01    0.2422519    0.1503886 -67.33 0.0008914423    1.692    0.409
        58 -11.9606      2.2141     70.3705   6.9522498939e+01   6.3158766357e+01    0.6527355    0.2288469 -70.47  0.002448132    3.275    0.695
        59 -11.7667    171.5098     68.1470   1.3765469399e+01   3.4149336491e+01    0.4669668    0.3673292 -47.96  0.002320402    1.235    0.190
        60  -8.4398    246.2491     67.3721   5.9011505336e+00   2.2113846137e+01    0.1208244   0.09434195  76.79 0.0005827271    1.502    0.334
        61  -9.2751    249.4560     64.5032   5.2039338715e+00   2.2030131489e+01    0.2412485    0.1398399  41.96  0.001501902    3.590    0.721
        62  -9.1815    245.1404     64.0673   5.4583366485e+00   2.2678758797e+01    0.1899174    0.1232666 -84.56 0.0009857167    1.645    0.392
        63  -9.8727    215.7360     66.5592   8.3849848960e+00   2.6728554546e+01    0.1714567    0.1627161 -80.89  0.001190243    1.329    0.248
        64 -10.2212    222.9520    213.6545   3.1844126927e+01   3.4036311621e+00    0.1922938     0.149039 -21.91 0.0003939994    1.061    0.057
        65 -10.7312    180.6337     63.3784   1.1586880014e+01   3.3138211627e+01    0.2786721    0.2251523  -7.09 0.0008819105    2.035    0.509
        66 -10.9387    185.1703     58.8097   1.0121508637e+01   3.2937842655e+01    0.4028614    0.1834476  45.78  0.001775633    3.492    0.714
        67 -10.6249    218.8606     55.8396   6.2054880211e+00   2.7614625006e+01     0.268642    0.2042938  44.27  0.001928467    2.044    0.511
        68  -9.7272    212.5568    214.0258   3.3547907188e+01   4.2925106901e+00    0.1684086    0.1492721  24.06 0.0006646779    1.508    0.337
        69 -10.0328      6.3554     52.9714   6.2941878445e+01   6.6682421421e+01    0.1846918    0.1523056 -32.72 0.0008000827    1.159    0.137
        70 -11.3687    230.1192     54.5545   5.0581811808e+00   2.6032867695e+01    0.3212631    0.2537778 -77.33  0.001578272    1.171    0.146
        71 -10.8981    224.8134    246.2991   3.6150764888e+01  -1.5202332584e+00    0.2453018    0.1648465  39.87  0.001661345    2.584    0.613
        72  -9.4302    247.6857     45.9207   2.4010672993e+00   2.4494701333e+01    0.1368932    0.1160467 -87.46 0.0006034616    1.359    0.264
        73  -9.2655    205.6499     41.8644   4.8239682803e+00   3.1496677009e+01    0.1567487    0.1297578  79.21  0.000533991    1.319    0.242
        74 -11.6975    225.3559     49.5238   4.5778125955e+00   2.7375187928e+01    0.4269005    0.3181639 -81.08  0.001883522    1.227    0.185
        75 -10.5217    248.0198     38.1330   1.1598626473e+00   2.5333431075e+01    0.2552561    0.1190002  65.05  0.001668747    2.512    0.602
        76 -12.0729    226.6108     62.3858   6.6739912969e+00   2.5584998257e+01    0.6094745    0.3234543  57.54  0.004021169    2.301    0.565
        77  -9.5143    244.3409     35.2966   9.3496826248e-01   2.6177862227e+01   0.07565005    0.0744503 -52.00 0.0004144457    1.662    0.398
        78 -15.3044    197.0934    175.8804   3.0134116161e+01   1.2218018161e+01     2.206754       1.4941  68.98   0.01097881    3.350    0.701
        79 -10.9503    248.9271     28.2726   3.5957613494e+02   2.6285940066e+01    0.2145881    0.1575396 -27.49  0.001738181    2.032    0.508
