#   1 NUMBER                 Running object number                                     
#   2 MAG_AUTO               Kron-like elliptical aperture magnitude                    [mag]
#   3 X_IMAGE                Object position along x                                    [pixel]
#   4 Y_IMAGE                Object position along y                                    [pixel]
#   5 X_WORLD                Barycenter position along world x axis                     [deg]
#   6 Y_WORLD                Barycenter position along world y axis                     [deg]
#   7 A_WORLD                Profile RMS along major axis (world units)                 [deg]
#   8 B_WORLD                Profile RMS along minor axis (world units)                 [deg]
#   9 THETA_WORLD            Position angle (CCW/world-x)                               [deg]
#  10 FWHM_WORLD             FWHM assuming a gaussian core                              [deg]
#  11 ELONGATION             A_IMAGE/B_IMAGE                                           
#  12 ELLIPTICITY            1 - B_IMAGE/A_IMAGE                                       
         1 -15.1895      7.4977    143.6155   1.4394272934e+02   4.4319180803e+01     7.916434     2.649449 -82.84   0.03127962    3.470    0.712
         2 -13.6131    197.6105     28.0202   6.8888145299e+01   3.2675022497e+01     1.495745       1.4499   9.03  0.007262598    1.260    0.206
         3 -13.4920    212.0182      8.9372   6.2502572872e+01   3.1361333975e+01     1.003178    0.8319308  57.69  0.005311146    1.315    0.240
         4 -13.0867      3.7021     10.7449   1.1672140554e+02   7.0766875062e+01     1.439442    0.3197795 -43.61  0.006722269    3.221    0.690
         5 -12.5703    140.5604    248.9185   1.2911407813e+02   3.9808494100e+00    0.6916524    0.3246307  46.58  0.003476696    1.737    0.424
         6 -11.2481    248.5038    249.2791   1.0951706309e+02  -1.3759117287e+01    0.4350149    0.1862308  32.89  0.002257532    2.032    0.508
         7 -11.8312    123.9450    249.8293   1.3227679952e+02   6.6064861702e+00    0.5362614    0.1765944  47.41  0.002299646    2.464    0.594
         8 -11.3951     97.7118    249.2923   1.3694492760e+02   1.0898711515e+01    0.3117073    0.2921019  19.08  0.001965064    1.616    0.381
         9 -11.0458    101.4564    246.4776   1.3598285443e+02   1.0817150147e+01    0.2508936    0.1625592  80.20 0.0008903301    1.616    0.381
        10 -10.1814     46.5486    249.1532   1.4565956780e+02   1.8146168272e+01    0.2759027    0.1251397  71.89  0.001498485    2.142    0.533
        11 -10.2960     29.3468    248.7295   1.4837613251e+02   2.0314091518e+01     0.426834    0.1563363 -61.59  0.002261571    3.089    0.676
        12 -11.5256     34.2841    245.3098   1.4737358495e+02   2.0359720712e+01    0.5750589    0.3169205 -75.46  0.003797661    1.659    0.397
        13  -9.3485     16.5186    250.5195   1.5045257086e+02   2.1436894226e+01    0.1063033   0.07236025  75.55 0.0001958671    1.020    0.019
        14 -10.2065      2.5047    249.5308   1.5248116185e+02   2.3086989347e+01    0.1803757    0.1304368  71.35  0.001493493    1.181    0.153
        15 -10.0131     19.9440    242.9754   1.4949631099e+02   2.2435750015e+01    0.1784918   0.08667707  70.10 0.0004618009    1.652    0.395
        16 -10.9455     12.4833    240.1839   1.5049511085e+02   2.3756928049e+01    0.2071039    0.1469028  42.36  0.001424429    1.744    0.427
        17 -14.5220    102.6864    229.0462   1.3380497238e+02   1.3861078737e+01     10.05443    0.4290727  47.36   0.01729489   15.067    0.934
        18 -10.0324     54.4155    229.3164   1.4275832236e+02   2.0894400242e+01    0.3326175    0.1707354  72.15  0.001144552    1.888    0.470
        19  -8.9533     60.0689    227.2348   1.4156102145e+02   2.0553545497e+01    0.2120762   0.09966521  64.69  0.001067804    2.086    0.521
        20 -10.1001     55.9830    223.5441   1.4196557989e+02   2.1835261720e+01     0.277571    0.2392327 -19.93  0.001810685    2.185    0.542
        21 -10.3339    173.8505    222.9070   1.1897366290e+02   2.4769898825e+00    0.3832144    0.2169364  53.34  0.001838734    1.810    0.448
        22 -11.8348     22.1294    126.7612   1.3831918154e+02   4.6955744797e+01    0.4556156     0.237613  54.56  0.001543953    2.386    0.581
        23  -8.9927     91.7323    214.0670   1.3414217389e+02   1.8597517274e+01    0.2720186    0.1254056  62.56  0.001148116    2.563    0.610
        24  -8.9114    152.5237    213.0342   1.2165401257e+02   8.2079071742e+00    0.1787079    0.1368713 -54.64 0.0001643462    1.451    0.311
        25 -12.5101      9.8026    206.8770   1.4887712219e+02   3.0513833358e+01    0.6346096    0.3849675  38.41  0.003078516    1.938    0.484
        26 -11.6869     60.2447    199.3500   1.3873229002e+02   2.6320494312e+01    0.2615618    0.2146636 -69.35 0.0005836308    1.295    0.228
        27  -9.9381    192.5933    194.3962   1.1016283841e+02   3.9692317928e+00    0.7236352    0.3475051 -63.73  0.001775755    7.839    0.872
        28 -11.7158     15.0332    197.0694   1.4723418545e+02   3.2030200943e+01    0.2944102    0.1688558  63.83   0.00126925    1.534    0.348
        29 -11.9553     66.6962    190.9001   1.3642953024e+02   2.7293421866e+01    0.2704716    0.2284282 -70.01 0.0004927522    1.240    0.193
        30 -10.9639      6.2069    188.6928   1.4823088343e+02   3.4614897386e+01      0.24377    0.1624026  64.76  0.001035849    1.341    0.254
        31 -12.8448     33.5105    233.3509   1.4667743254e+02   2.2706981045e+01    0.2852226    0.2278188 -80.91 0.0007996142    1.356    0.263
        32 -10.9065     76.9928    177.9670   1.3249529255e+02   2.8734166784e+01    0.2519662    0.2149862 -78.93 0.0003513206    1.086    0.079
        33 -13.2301     63.6207    176.0036   1.3520000962e+02   3.1069689465e+01    0.5060754    0.2769782 -47.55  0.001672338    2.228    0.551
        34 -10.1046     97.9644    174.9285   1.2728320948e+02   2.6132862826e+01    0.2229003     0.186671 -78.31 0.0003358806    1.110    0.100
        35 -11.7766     84.3020    169.1710   1.2951295729e+02   2.9656612760e+01    0.6215046    0.5768278 -44.17  0.003778716    1.316    0.240
        36  -9.7200     93.0972    167.4798   1.2718555366e+02   2.8652673536e+01    0.3040846    0.2469513  51.84 0.0009994664    1.240    0.193
        37 -14.0216     38.6555    226.3568   1.4528101118e+02   2.3459424533e+01    0.9013329    0.6051014  66.19  0.002458878    1.184    0.156
        38 -10.0226     97.2607    152.7202   1.2357123970e+02   3.1412976654e+01    0.3302296    0.2640502 -51.63 0.0007029838    1.261    0.207
        39  -9.2265    100.2449    148.6784   1.2205756028e+02   3.1854586816e+01    0.2198372    0.1881985 -42.15 0.0005380729    1.285    0.222
        40 -12.0725     85.8986    151.8129   1.2621234809e+02   3.3473628010e+01    0.2984209    0.2454702 -47.62 0.0005298237    1.300    0.231
        41  -8.6790    134.0000    148.0124   1.1361066609e+02   2.5642958256e+01    0.2551489   0.08585186 -49.69 0.0008034525    2.949    0.661
        42 -12.2510     67.3678    143.6192   1.2941179197e+02   3.8115951240e+01    0.6619159    0.4341634  69.33  0.003051362    1.817    0.450
        43  -9.7412    109.1183    137.7331   1.1756435632e+02   3.2842935978e+01    0.4105796     0.267582 -21.41  0.001412413    2.666    0.625
        44 -10.5006     96.3714    134.7841   1.2022960612e+02   3.5781382628e+01    0.2516003     0.227309 -26.11 0.0003879714    1.282    0.220
        45 -11.3989    151.8690    248.2657   1.2693285379e+02   2.1609834712e+00    0.2981533    0.2344593  68.86  0.001888389    1.345    0.257
        46 -10.9594     56.5865    130.3811   1.2988469432e+02   4.2612117766e+01    0.4465498    0.1892826 -74.35  0.001602373    3.335    0.700
        47 -10.9962     31.5372    131.8719   1.3665339860e+02   4.4959818355e+01    0.2913921     0.181032  47.83  0.001355148    1.837    0.456
        48  -8.6167     88.9957    129.9761   1.2115954144e+02   3.8127072709e+01    0.2207588    0.1638888  78.52 0.0005974922    1.647    0.393
        49  -8.9683    106.4866    124.0337   1.1517573935e+02   3.6499429030e+01    0.2066819    0.1404743 -52.24 0.0001041286    1.395    0.283
        50  -9.6045    167.8968    113.1820   9.7237394330e+01   2.5791120093e+01    0.3365054    0.2428848  81.09  0.001333805    1.859    0.462
        51  -9.3001    203.2118    111.7846   8.9573011665e+01   1.7705392866e+01    0.2082264    0.1841686   5.92 0.0004869911    1.332    0.250
        52 -10.2409    242.4879     89.4962   7.7615241427e+01   1.2703790395e+01    0.1427359    0.1286706 -56.72 -1.991838e-06    1.008    0.008
        53 -10.1206     41.0737     66.5760   1.2031785512e+02   5.8233822210e+01    0.4143262    0.2130034  49.52  0.001888145    3.369    0.703
        54  -9.0279     31.6053     62.1325   1.2241193241e+02   5.9995449083e+01    0.1730812    0.1551414  20.64 0.0006641365    1.353    0.261
        55 -11.5824     12.7670     54.6220   1.2723207661e+02   6.2872564336e+01    0.3293438    0.1970498  43.15  0.001678814    2.503    0.600
        56 -10.4412     81.6914    249.0585   1.3973717188e+02   1.3355271680e+01    0.1677811    0.1311267  77.20  0.001072834    1.097    0.088
        57 -11.4989    107.1699    248.8631   1.3520868311e+02   9.4914461894e+00    0.4529388     0.165627  54.45  0.001967506    2.593    0.614
