#   1 NUMBER                 Running object number                                     
#   2 MAG_AUTO               Kron-like elliptical aperture magnitude                    [mag]
#   3 X_IMAGE                Object position along x                                    [pixel]
#   4 Y_IMAGE                Object position along y                                    [pixel]
#   5 X_WORLD                Barycenter position along world x axis                     [deg]
#   6 Y_WORLD                Barycenter position along world y axis                     [deg]
#   7 A_WORLD                Profile RMS along major axis (world units)                 [deg]
#   8 B_WORLD                Profile RMS along minor axis (world units)                 [deg]
#   9 THETA_WORLD            Position angle (CCW/world-x)                               [deg]
#  10 FWHM_WORLD             FWHM assuming a gaussian core                              [deg]
#  11 ELONGATION             A_IMAGE/B_IMAGE                                           
#  12 ELLIPTICITY            1 - B_IMAGE/A_IMAGE                                       
         1 -13.8740    198.7580     52.0868   1.5203229766e+01   2.9156186839e+01     1.256642    0.9811745  45.85   0.00425273    1.563    0.360
         2 -11.4681    248.8728     16.3479   2.5709075457e+00   2.2928051832e+01    0.3015135    0.1946988 -47.72  0.001955314    1.387    0.279
         3 -12.4470     35.7423     14.5064   4.4045858168e+01   6.8913153606e+01    0.4520656    0.1994469  32.60  0.002374301    2.094    0.522
         4 -13.9316    228.1755     25.4095   5.9932219425e+00   2.6121685128e+01     0.910776    0.8230091  89.71  0.004083462    1.268    0.211
         5 -11.7901     58.1046      3.1507   2.9578071956e+01   6.6615878312e+01    0.4771678    0.1032615  47.27  0.001840404    3.476    0.712
         6  99.0000     50.6768    245.4684   8.6241514492e+01   1.6726965228e+01    0.2892579    0.1037807  47.69  0.001350865    2.185    0.542
         7 -10.2189    237.9863    249.5067   4.9264040023e+01  -1.1477587091e+01    0.1726307    0.1327776 -11.91 0.0005158663    1.146    0.128
         8 -14.3641     42.9259    179.5427   8.1796297905e+01   3.2492029615e+01      12.0487     2.059263  47.21   0.03151685    6.351    0.843
         9 -10.0253     37.2681    199.7726   8.5231401084e+01   2.8326413700e+01    0.2152305    0.1610867  72.77 0.0006386689    1.148    0.129
        10  -9.8433    211.0372    198.8156   4.5491095164e+01   9.3232757856e-02    0.2153774    0.1823294 -23.01 0.0004860196    1.112    0.101
        11  -9.6430     69.0300    195.4023   7.7241862096e+01   2.5239018399e+01    0.3604392    0.1953929 -60.18  0.001692102    1.835    0.455
        12  -9.7388    191.8362    192.4689   4.8115264728e+01   4.5176932103e+00    0.4304014    0.2331749 -65.32  0.001427333    4.388    0.772
        13 -15.5765     69.8642    143.9921   6.9240538363e+01   3.7845354871e+01     4.344243     2.742146  66.98   0.01908031    2.008    0.502
        14  -9.4964     71.8141    223.6051   7.9834557457e+01   1.8429411576e+01    0.1193631   0.09090783 -52.23 0.0003196037    1.600    0.375
        15  -9.2462    207.7968    189.6761   4.4390350102e+01   2.2564711475e+00     0.190407     0.158121 -18.72 0.0006290337    1.155    0.134
        16  -9.4588     72.1802    186.3454   7.5283736877e+01   2.6953194910e+01     0.192134      0.15236  51.42 0.0007003507    1.193    0.162
        17 -10.7184    141.9976    183.4831   5.7470553443e+01   1.5620332352e+01    0.2307435    0.2071797 -54.59 0.0004818614    1.161    0.139
        18  -8.9189     78.5014    183.9765   7.3355160540e+01   2.6583508114e+01    0.1977286    0.1354317 -67.90 0.0003921146    1.435    0.303
        19 -11.9646    115.8565    181.8196   6.3552990516e+01   2.0852452348e+01    0.5822068    0.3189888  30.42  0.002371121    2.059    0.514
        20 -11.3147    173.8066    177.5738   4.9041107970e+01   1.0789546623e+01    0.8566344    0.3924375 -49.70  0.003332683    2.307    0.567
        21 -11.5100    179.5531    169.2862   4.6113051170e+01   1.1385363492e+01    0.6646718    0.5446005 -41.36  0.002948188    1.213    0.176
        22 -10.4995     96.8904    180.2192   6.8083858667e+01   2.4544834576e+01    0.3290585    0.2126426 -68.53  0.000271601    1.627    0.385
        23 -10.7991     96.7861    175.4925   6.7328622806e+01   2.5706695002e+01    0.2991283    0.2475941 -71.40 0.0003962728    1.204    0.169
        24  -9.8598     62.5458    181.1239   7.7023256963e+01   2.9593699624e+01    0.3267049    0.1849786  34.17 0.0005947496    1.826    0.452
        25 -10.2234    125.4801    179.5080   6.0745635440e+01   1.9627186272e+01     0.266862    0.1460199  28.35 0.0009031203    2.216    0.549
        26  -9.1425     75.6874    175.3203   7.2808644017e+01   2.9128424155e+01      0.18256    0.1639335 -39.42  0.001015111    1.314    0.239
        27 -10.8899    140.1316    172.2307   5.5767276782e+01   1.8505439644e+01    0.4400539    0.3012854 -81.57  0.001846102    2.128    0.530
        28 -11.4225    113.6880    172.9921   6.2526071231e+01   2.3334230568e+01    0.3575121    0.2894149 -70.92  0.001270385    1.286    0.222
        29 -10.9932    110.9689    167.4064   6.2196956129e+01   2.5171680041e+01    0.5339695    0.2954562 -71.90  0.001856019    2.442    0.591
        30 -11.6157     46.5652    236.9014   8.6397185077e+01   1.8997144199e+01    0.1718061    0.1380499 -83.21 0.0006002805    1.262    0.207
        31 -10.3683     56.4298    235.5840   8.4268085505e+01   1.7997479452e+01    0.1340094    0.1202686  88.50 0.0009022035    1.227    0.185
        32 -10.4555    230.1728    166.3772   3.5673960668e+01   2.6140993447e+00     0.178958    0.1280044  53.70 0.0007362431    1.722    0.419
        33 -11.9643    237.3761    160.4195   3.3256850040e+01   2.4443287030e+00    0.4890294     0.331613 -67.10  0.002376771    2.302    0.566
        34  -9.3444     46.5019    229.1555   8.5785651935e+01   2.0634723608e+01    0.3426942    0.1527004  39.24  0.001696617    1.978    0.494
        35  -9.5434    173.3778    224.2308   5.7583225981e+01   1.8359969351e+00    0.3741371     0.199672  15.37  0.001440966    3.141    0.682
        36 -11.3044    133.6239    145.0277   5.1701623238e+01   2.6106531272e+01     1.253709    0.2901784 -53.98  0.002817644    5.927    0.831
        37  -9.9289    121.2164    147.4414   5.5471235403e+01   2.8038279219e+01     0.270699    0.2357013 -87.62 0.0005558062    1.231    0.188
        38 -11.2108    109.0194    145.1385   5.8277419717e+01   3.0951688668e+01    0.4116614    0.3174598 -44.35  0.001134833    1.350    0.259
        39 -10.1054    147.9169    144.0651   4.7910977140e+01   2.3344137121e+01     0.233343    0.2245007 -88.26  0.000350748    1.044    0.042
        40  -9.4230    128.5944    138.7815   5.1597827976e+01   2.8604272753e+01    0.2744717    0.1938938 -60.56 0.0008698861    1.503    0.335
        41  -9.1382    242.2186    136.4062   2.7615287297e+01   5.8126803587e+00    0.1611599    0.1291218  69.70 0.0003221247    1.562    0.360
        42 -11.9370    105.1608    131.4859   5.6351692007e+01   3.4996731677e+01    0.6742911    0.5157813 -51.28  0.002656573    1.291    0.225
        43 -11.7000     92.5853    131.9564   6.0108652818e+01   3.7182812833e+01    0.3635595     0.321284  82.92 0.0004499732    1.196    0.164
        44 -11.4695    135.3239    124.9138   4.6561778748e+01   3.0385776769e+01      1.01407    0.2674976 -50.33  0.002692025    4.135    0.758
        45 -11.0336    113.2196    125.3747   5.2633736484e+01   3.4885606205e+01    0.4936127    0.3070188 -40.20  0.001691716    1.734    0.423
        46  -9.0547    147.7517    126.3638   4.3800015152e+01   2.7349995931e+01    0.3035096    0.1470656  49.99  0.001114258    2.119    0.528
        47 -10.9822    101.4202    121.2657   5.5039212329e+01   3.8152484528e+01    0.5256355    0.3261595  52.11  0.001848988    1.760    0.432
        48  -8.9613     93.2799    123.6109   5.8014215768e+01   3.9089442051e+01    0.1584356    0.1183149  86.48 0.0001436613    1.738    0.425
        49 -10.9276     76.9626    120.5956   6.2336002937e+01   4.2578006519e+01    0.3467115    0.2428738  55.08  0.001461473    1.619    0.382
        50 -10.2914    108.8698    116.2417   5.1630486266e+01   3.7885995942e+01    0.2824505    0.2200922 -44.05  0.000346382    1.293    0.227
        51 -10.9102    159.1097    223.0822   6.0421073216e+01   4.4325414830e+00    0.2135159    0.1781006   6.68 0.0008025312    1.285    0.222
        52 -11.3222    116.0402    108.9742   4.7717562391e+01   3.8079472518e+01    0.5428578    0.2667928  54.99  0.001942044    2.476    0.596
        53 -10.9975    111.9003    103.9871   4.7572608792e+01   4.0043182247e+01    0.3697923    0.3022008  54.08  0.001833557    1.257    0.205
        54 -11.1566    132.5218    103.4112   4.1777280196e+01   3.5728998511e+01    0.5923126    0.3915571 -82.24  0.001272676    2.533    0.605
        55 -11.1824     66.0417    104.1616   6.2055494074e+01   4.8167907507e+01    0.3748599     0.292396  57.48  0.001951121    1.501    0.334
        56  -9.8901     67.6863    101.3336   6.0803230885e+01   4.8582354266e+01    0.2814414    0.2245139 -86.24 0.0007790922    1.557    0.358
        57 -12.0769    117.3475    101.6963   4.5407267958e+01   3.9403623805e+01    0.6093279    0.3952752 -73.07  0.002394528    2.356    0.576
        58  -9.3902    135.0392     96.0446   3.9134952237e+01   3.6694973170e+01    0.1848905    0.1766464  60.58 0.0004110427    1.026    0.025
        59  -9.4608    149.9861     99.5567   3.6442839397e+01   3.2542725008e+01    0.2845997     0.206322 -62.58 0.0008221311    1.546    0.353
        60 -11.8244     50.5082     92.2011   6.4551283537e+01   5.3020875242e+01     0.525247    0.3305021  43.27   0.00216266    1.813    0.448
        61 -11.8642     27.2557     88.2202   7.2230781163e+01   5.6384186619e+01    0.5175268    0.2479793 -45.26  0.002488686    1.837    0.456
        62  -9.7935    102.1912     88.3588   4.6077990300e+01   4.5363236087e+01    0.2081322    0.1368826  51.86 0.0004287379    1.611    0.379
        63 -11.3781     37.9097     88.0620   6.8189223628e+01   5.5395159462e+01    0.3036682    0.2254793   8.83  0.001726242    1.504    0.335
        64 -10.1517     58.3583     85.3457   5.9909848531e+01   5.3512765391e+01    0.2321751    0.2272465  71.36 0.0003094182    1.172    0.146
        65 -10.5292     89.4622    222.0846   7.5740359606e+01   1.6140781088e+01    0.3485561    0.2350042  78.33  0.001324396    1.650    0.394
        66 -10.8455    248.9881    233.9694   4.4815832879e+01  -1.0785360813e+01    0.2350423    0.1400064 -15.37  0.001397352    1.629    0.386
        67 -11.3896    171.4424     70.4615   2.4182665879e+01   3.2804786671e+01    0.5220097    0.2852323 -54.98  0.002192658    2.039    0.510
        68 -10.6262     82.0742     71.6721   4.7458556023e+01   5.2538292473e+01    0.4530092    0.2547052  33.97  0.002041547    1.836    0.455
        69 -18.9912     11.3240    177.3882   8.9325947256e+01   3.6262656018e+01     16.29037      4.52288 -78.40    0.0604565    3.345    0.701
        70 -12.4262    182.0965     64.3775   2.0743816266e+01   3.1232596977e+01    0.4907344    0.4652431 -37.48 0.0008494465    1.216    0.178
        71  -8.9471    198.1842    214.8277   5.0912562175e+01  -5.8421719561e-01    0.1753023    0.1386227  -9.19 0.0003787435    1.274    0.215
        72  -8.9971    165.3796    210.9304   5.7062409502e+01   5.6577260993e+00    0.1948633    0.1347906 -48.68 0.0009945593    1.579    0.367
        73  -8.9228    163.5039     64.4627   2.4054903418e+01   3.5713247993e+01    0.1465911     0.133586  86.16 0.0001480812    1.020    0.019
        74  -9.7850    250.0000    248.9850   4.7101519141e+01  -1.2869233598e+01    0.1728387    0.0562567 -36.93  0.000807134    2.975    0.664
        75 -12.6764    204.8038     47.0373   1.3223824764e+01   2.8477615735e+01     0.528294    0.4918483 -84.10   0.00162436    1.167    0.143
        76 -10.3532     68.4007     56.1940   4.7162805226e+01   5.7747874338e+01     0.343458    0.2153686  53.75 0.0007188732    2.100    0.524
        77 -10.3573     46.4089     56.2793   5.5784478534e+01   6.0976874209e+01    0.2270948    0.1971375  37.02 0.0006355947    1.345    0.256
        78  -9.0651    130.7765     56.7588   2.8722329013e+01   4.4814868211e+01    0.2389399    0.1174593  66.01 0.0008971856    2.491    0.599
        79  -9.6330     62.1081     44.8506   4.5463205283e+01   6.0678512280e+01    0.1837108    0.1721537  41.71 0.0005337374    1.292    0.226
        80  -9.0532     70.8121     39.8207   4.0345495541e+01   5.9981100569e+01    0.1605599    0.1516663  52.66 0.0003363738    1.300    0.231
        81  -9.3254     50.8906    200.1782   8.2116842973e+01   2.6569808893e+01    0.3575023    0.1078635 -68.49  0.001323286    3.127    0.680
        82 -10.9383     60.4380     21.9978   3.7024711809e+01   6.4194613916e+01    0.3490054    0.2291772  18.53  0.001281434    1.534    0.348
        83 -11.5850    242.2334    246.7036   4.8071905108e+01  -1.1639041390e+01    0.3702412     0.189691 -42.12  0.001666005    2.281    0.562
        84 -10.7692    164.7762    248.2858   6.3044166636e+01  -8.9887462365e-01    0.2180875     0.205162  10.58 0.0002484744    1.146    0.127
        85  -9.2070    189.5119     15.0449   7.4674285799e+00   3.6064391303e+01    0.1734236    0.1217952 -38.80 0.0006373968    1.548    0.354
        86  -9.9813     52.3256    248.9648   8.6185786405e+01   1.5818898131e+01    0.1387765   0.09996714 -66.95 0.0005898842    1.579    0.367
