#   1 NUMBER                 Running object number                                     
#   2 MAG_AUTO               Kron-like elliptical aperture magnitude                    [mag]
#   3 X_IMAGE                Object position along x                                    [pixel]
#   4 Y_IMAGE                Object position along y                                    [pixel]
#   5 X_WORLD                Barycenter position along world x axis                     [deg]
#   6 Y_WORLD                Barycenter position along world y axis                     [deg]
#   7 A_WORLD                Profile RMS along major axis (world units)                 [deg]
#   8 B_WORLD                Profile RMS along minor axis (world units)                 [deg]
#   9 THETA_WORLD            Position angle (CCW/world-x)                               [deg]
#  10 FWHM_WORLD             FWHM assuming a gaussian core                              [deg]
#  11 ELONGATION             A_IMAGE/B_IMAGE                                           
#  12 ELLIPTICITY            1 - B_IMAGE/A_IMAGE                                       
         1 -13.0055    174.7109     43.1712   5.6688185461e+01   3.6170349827e+01     1.229491    0.9834362  12.75   0.00406699    1.529    0.346
         2 -14.8909    106.9284     15.1542   6.1028636791e+01   5.6420563624e+01     5.153036     3.152149  66.76   0.02485698    1.918    0.479
         3 -12.5377    191.5567     15.1320   4.5867256646e+01   3.5296652676e+01    0.9505026    0.7907384  79.04  0.004775815    1.105    0.095
         4 -12.3304    193.6554      9.0766   4.3915857064e+01   3.5399625356e+01    0.7711675    0.3944122  86.14  0.002670628    2.123    0.529
         5 -11.7612    225.8631      4.8908   3.9672439341e+01   2.7859694322e+01    0.4481845    0.2129558  58.25  0.002107181    2.141    0.533
         6  -8.1084      5.4463    199.5928   1.2956288964e+02   3.2092255575e+01    0.1095839   0.07608055  75.40 0.0002032092    1.039    0.037
         7 -18.7104     55.1362    232.2314   1.2273393862e+02   2.0461989669e+01     5.084131     3.804159  45.12   0.02431669    1.387    0.279
         8 -11.4084    153.6653    186.3049   9.7431996977e+01   1.3690454858e+01    0.3697614    0.2871569  84.78  0.001124402    1.681    0.405
         9 -10.4236     44.4338    187.1989   1.2114184646e+02   3.0664431652e+01    0.1782209    0.1415464  53.52 0.0003442042    1.256    0.204
        10 -10.0548    159.2454    195.9960   9.7912638380e+01   1.0860942404e+01    0.2383129    0.1813469  41.94  0.000645734    1.166    0.143
        11  -9.9390    220.8045    185.1408   8.3756701924e+01   1.3081170713e+00    0.1869119    0.1411582   7.37 0.0003611604    1.322    0.244
        12 -11.2985    188.7304    179.3722   8.8844027074e+01   8.2389783806e+00    0.6122613    0.3066295 -45.36  0.001971226    2.212    0.548
        13  -9.6293     17.3822    181.6677   1.2620708244e+02   3.4672553657e+01    0.1265266    0.1249797  26.80 0.0006508172    1.527    0.345
        14  -9.5960     26.5897    180.9938   1.2429208697e+02   3.3922174728e+01    0.1574813    0.1347546  61.72 0.0009374268    1.256    0.204
        15 -11.7648      4.5946    176.4092   1.2840865212e+02   3.6908357000e+01    0.5822182    0.5508775 -31.90  0.004720752    1.632    0.387
        16 -10.9136     11.4911    169.5349   1.2655001587e+02   3.7793654891e+01    0.4261766    0.2194621  21.56    0.0014228    2.854    0.650
        17 -10.8042      1.8420    172.4514   1.2871424239e+02   3.7966480656e+01    0.3200194    0.2125617 -71.16   0.00177066    1.399    0.285
        18 -11.5488      3.8179    167.2955   1.2798599581e+02   3.8908187240e+01    0.4620923    0.2863493  75.10  0.001691641    1.312    0.238
        19 -10.7507     73.9436    178.7978   1.1389967488e+02   2.8705734260e+01    0.2995937    0.1715711 -75.09 0.0006764665    1.731    0.422
        20 -16.6390     14.0580     85.4952   1.1659528339e+02   5.6675285943e+01     7.419719     2.984884 -71.31   0.02874135    2.128    0.530
        21 -12.5148    127.4958    173.5081   1.0097167653e+02   2.1129965066e+01     1.045335    0.3896327  40.82  0.003899163    2.552    0.608
        22 -10.8656    139.5605    169.6993   9.7557305332e+01   1.9668221815e+01    0.4018733    0.2653076  44.73  0.001281569    1.421    0.296
        23  -9.2813     53.6489    177.1929   1.1819991471e+02   3.1731857869e+01    0.1924779    0.1375564  57.33 0.0003586022    1.276    0.216
        24  -9.5505    195.8823    174.6116   8.6467529763e+01   7.6799048800e+00       0.2631     0.207581 -44.11  0.001313271    1.397    0.284
        25 -11.9613    140.1931    175.9330   9.8542454950e+01   1.8268128227e+01     0.787929    0.4446613  67.29  0.003029535    2.863    0.651
        26  -9.0911     23.7618    173.8284   1.2430912417e+02   3.5744852478e+01    0.1662627    0.1369023 -85.93 0.0008095959    1.160    0.138
        27 -10.1716    231.3650    199.6874   8.4598799245e+01  -2.6225288470e+00    0.2325642    0.2124821 -89.35 0.0008419952    1.787    0.440
        28 -11.1515    141.8046    182.0046   9.9247693389e+01   1.6745899591e+01    0.3403225    0.1852676  48.65  0.001537124    1.729    0.422
        29 -11.1938     58.8130    166.5334   1.1583056770e+02   3.3467587853e+01    0.4075254    0.2567178 -80.74 0.0002784436    1.472    0.320
        30  -9.7678     49.3879    165.2720   1.1785121611e+02   3.4904856001e+01    0.2675597    0.1750466  44.58  0.001115006    1.538    0.350
        31 -10.4555     54.1036    161.8154   1.1635571183e+02   3.5125714926e+01    0.4353455    0.1906134 -69.84  0.001199002    2.069    0.517
        32 -10.0787     25.6709    166.5271   1.2328766661e+02   3.7160042722e+01     0.321272    0.1722753  26.01  0.001764968    2.451    0.592
        33  -8.5433    209.0473    164.9297   8.1890648199e+01   6.7667019183e+00     0.162699    0.1473108  17.94            0    1.032    0.031
        34 -12.8599    151.0246    196.4102   9.9687541183e+01   1.2289700861e+01    0.6649593    0.6291795  36.64  0.004185165    1.085    0.079
        35  -9.2745    120.3114    157.5649   9.9790127606e+01   2.5897701621e+01    0.2517571    0.1767245 -69.90 0.0009657923    1.576    0.365
        36 -10.7012    100.5989    157.0139   1.0446116113e+02   2.9495590100e+01    0.2422353    0.2232128  62.91 0.0003593732    1.077    0.071
        37 -11.2371    104.4994    151.6100   1.0254723912e+02   3.0066193424e+01    0.5916197    0.4357925 -24.60  0.001100117    1.998    0.500
        38 -10.0166    188.8953    155.8941   8.3988639679e+01   1.2444524278e+01    0.4532991      0.24629  41.24  0.001745983    1.793    0.442
        39 -10.7098    133.7762    146.7406   9.4403251760e+01   2.5713438926e+01     1.087034    0.2765974 -55.69  0.002495856    6.467    0.845
        40 -12.4891     90.3687    150.7189   1.0591192722e+02   3.2615390972e+01      0.33843    0.2818938 -33.99 0.0006495069    1.500    0.333
        41  -9.6743    219.0968    194.3204   8.5826719469e+01   2.3367241191e-01    0.1804796    0.1518955  24.76 0.0004357948    1.079    0.073
        42 -10.4371    250.2769    192.1548   7.9891044151e+01  -4.6814204219e+00    0.2003136    0.1559094 -16.84 0.0006291668    1.187    0.158
        43 -10.4221     32.2569    207.7976   1.2515091594e+02   2.7799546963e+01    0.1761866    0.1325241  35.89 0.0006431665    1.640    0.390
        44 -10.0298    113.1185    137.3421   9.7583847461e+01   3.1805064870e+01    0.4195669    0.2845842 -35.78  0.001914436    1.779    0.438
        45 -11.2796    102.8324    136.7131   1.0011772973e+02   3.3802392190e+01    0.2641979    0.2475401  55.01 0.0003487137    1.100    0.091
        46  -9.1780    160.1186    128.8244   8.4081270258e+01   2.4022057840e+01    0.2481494     0.217028 -87.99  0.001236768    1.319    0.242
        47  -9.3434    118.1767    129.1140   9.4491565052e+01   3.2738438749e+01    0.2242276     0.204433 -19.35 0.0007479173    1.257    0.204
        48 -10.1356    106.8328    124.6359   9.6489218597e+01   3.5902679392e+01    0.2568193    0.2262157 -40.90 0.0006517321    1.189    0.159
        49  -9.6449    135.0000    121.8832   8.8468342254e+01   3.0968186148e+01    0.4283584   0.08728707 -46.66  0.001044874    4.876    0.795
        50 -11.6687    141.8041    190.2075   1.0062265092e+02   1.5139762761e+01     0.334145    0.2354285  72.19  0.001677608    1.778    0.438
        51  -8.8249    112.7709    118.6131   9.3495658143e+01   3.6185384567e+01    0.1949131    0.1415746  52.82 0.0004230683    1.449    0.310
        52  -9.9677    167.7934    113.7748   7.8549313052e+01   2.5380120371e+01    0.4020583    0.3051535 -82.77  0.001762657    1.814    0.449
        53  -9.6418    210.4053    110.6629   6.9065570469e+01   1.6075227322e+01    0.2438462    0.2252063  60.99 0.0003195588    1.163    0.140
        54 -10.6236    220.6005    189.4882   8.4633711081e+01   6.8818044460e-01     0.356025    0.1816227  25.26  0.001552108    2.334    0.572
        55  -9.3694     87.6920    109.3207   9.8349888419e+01   4.2796953204e+01    0.2437128    0.2063806 -81.28 0.0005492875    1.250    0.200
        56  -9.1637    134.4100    106.7097   8.4740067114e+01   3.4420869337e+01    0.3142167    0.1478048 -48.96  0.001144307    2.164    0.538
        57  -8.3961     98.7564     91.2885   9.0439745748e+01   4.5001394699e+01    0.1389573    0.1143317 -80.29 0.0001828385    1.466    0.318
        58  -9.7555    105.9630     74.6771   8.3328102653e+01   4.7150978403e+01    0.2119701    0.1960141  38.48  0.001130625    1.125    0.111
        59 -10.3917    114.1173     70.3198   7.9542614640e+01   4.6340703338e+01    0.2598684      0.23803 -34.92 0.0002693507    1.068    0.063
        60 -12.7175    160.9252     58.0832   6.3973587561e+01   3.7454759316e+01     1.073762    0.7980933  26.71  0.001014997    1.597    0.374
        61 -11.4731    247.9895    248.5133   9.0012141704e+01  -1.0956471406e+01    0.3833445    0.2556748  20.10  0.002704905    1.129    0.115
        62 -11.5584    178.8692     36.5200   5.3959978357e+01   3.6002566315e+01    0.3756916     0.319482  27.14 0.0009871236    1.336    0.252
        63 -11.8204     12.4029    243.5687   1.3046745127e+02   2.3267658155e+01    0.1944244    0.1447361 -75.88  0.001596192    1.595    0.373
        64 -10.6141     13.3521    234.4011   1.2991457965e+02   2.4777030204e+01   0.09897112   0.07162425  75.72  0.000220461    1.104    0.094
        65 -10.0311     16.2776    218.8049   1.2866555367e+02   2.7342841192e+01    0.1122247   0.09031632 -82.68            0    1.380    0.275
