#   1 NUMBER                 Running object number                                     
#   2 MAG_AUTO               Kron-like elliptical aperture magnitude                    [mag]
#   3 X_IMAGE                Object position along x                                    [pixel]
#   4 Y_IMAGE                Object position along y                                    [pixel]
#   5 X_WORLD                Barycenter position along world x axis                     [deg]
#   6 Y_WORLD                Barycenter position along world y axis                     [deg]
#   7 A_WORLD                Profile RMS along major axis (world units)                 [deg]
#   8 B_WORLD                Profile RMS along minor axis (world units)                 [deg]
#   9 THETA_WORLD            Position angle (CCW/world-x)                               [deg]
#  10 FWHM_WORLD             FWHM assuming a gaussian core                              [deg]
#  11 ELONGATION             A_IMAGE/B_IMAGE                                           
#  12 ELLIPTICITY            1 - B_IMAGE/A_IMAGE                                       
         1 -13.5818    212.8131    121.6082   2.9001476558e+02   5.1420715942e+00    0.1426555   0.07225917  27.20   0.01304704    1.973    0.493
         2 -10.0467    235.4316      3.2266   2.8903999248e+02   6.3831912476e+00   0.01909696   0.01448206 -59.71  0.001203714    1.300    0.231
         3 -10.7576     56.8964    235.3978   2.9250945148e+02   4.7223820997e+00   0.02347006  0.009379678 -57.56  0.001936113    2.329    0.571
         4  -9.9081     58.0447    249.3716   2.9257922576e+02   4.5532878628e+00   0.01514372   0.01419283 -16.39 0.0003113984    1.090    0.083
         5  -9.0267    249.1116    238.5158   2.9029343891e+02   3.5740959762e+00   0.01140532  0.009408318  80.65  0.001293306    1.375    0.273
         6  -8.4369    125.2383    237.3828   2.9172613032e+02   4.3046944746e+00  0.009353593  0.005901414  37.38 0.0006424731    1.576    0.366
         7 -13.5731     85.4273    216.8873   2.9206713546e+02   4.7729664175e+00    0.1100105    0.0768513 -50.27   0.01180763    1.405    0.288
         8 -13.3777     86.2298    199.8867   2.9195641906e+02   4.9659728372e+00    0.1066595   0.06900514  -3.26   0.01025331    2.029    0.507
         9 -11.0106    236.0675    212.6730   2.9029024427e+02   3.9497815448e+00   0.02622017   0.01199852 -67.03  0.002203678    2.356    0.576
        10  -9.0430     55.2670    204.9943   2.9234738765e+02   5.0852885850e+00  0.009410984  0.008450236 -61.70  0.000349902    1.107    0.097
        11 -10.5489    245.2092    203.2112   2.9012743101e+02   4.0065802851e+00   0.01658644  0.009984005 -49.72  0.001642185    1.630    0.386
        12 -10.9050    228.9720    200.2767   2.9029845116e+02   4.1348841453e+00   0.02209927   0.01168481 -62.71  0.002049929    1.880    0.468
        13 -10.2575    239.7887    198.5826   2.9016266311e+02   4.0917788451e+00   0.01333432   0.01089354  61.65  0.001515083    1.352    0.260
        14 -10.1427    235.1871    194.2265   2.9019002390e+02   4.1690623427e+00   0.01565527  0.008977201 -31.59  0.001403439    2.201    0.546
        15  -9.8315    180.0653    198.4945   2.9085621956e+02   4.4392081493e+00   0.01148407  0.009888689 -59.82 -8.368927e-05    1.149    0.130
        16  -7.9264    138.9976    199.0170   2.9133704402e+02   4.6709900707e+00  0.009902763  0.007434754 -27.26  0.001061158    1.488    0.328
        17  -8.7096     36.2263    227.5951   2.9270361828e+02   4.9322411791e+00   0.01215516   0.01066818 -35.83 0.0005156887    1.158    0.136
        18 -10.0358     53.3525    226.9412   2.9250036995e+02   4.8411427679e+00   0.01322696   0.01007522  13.94 0.0008250597    1.398    0.285
        19 -10.7871     55.9963    220.0091   2.9242832486e+02   4.9065007635e+00   0.02377399   0.01342397 -89.72            0    2.782    0.641
        20  -8.1426    210.5294    195.5500   2.9048444984e+02   4.2967718579e+00  0.006510036   0.00645451 -29.21 2.971923e-05    1.005    0.005
        21 -10.3522     50.4540    234.3439   2.9257815914e+02   4.7717776330e+00   0.01556119   0.01190839 -62.91  0.001734395    1.300    0.231
        22 -10.2997    223.1438    188.6310   2.9029643169e+02   4.3039300419e+00    0.0184218   0.01112011 -69.23  0.001793092    1.766    0.434
        23  -7.4403    130.4559    232.4617   2.9163608965e+02   4.3317187486e+00  0.006535977  0.006427298 -35.50  0.000106866    1.005    0.005
        24 -10.2493    228.0669    184.1823   2.9021258302e+02   4.3270121341e+00   0.01471288   0.01106252  54.76  0.001600559    1.464    0.317
        25  -9.5863    230.5514    216.1760   2.9037527563e+02   3.9411105807e+00   0.01683151  0.006002709 -59.61  0.001302575    2.626    0.619
        26  -7.5798    180.6330    183.7881   2.9076163464e+02   4.6067607526e+00  0.008785155  0.006334347 -76.69 0.0001568722    1.529    0.346
        27 -10.0747    243.4454    183.9975   2.9003282128e+02   4.2398729112e+00   0.02230906  0.005445768 -51.42  0.001468747    3.642    0.725
        28  -8.9057     29.6782    183.1244   2.9251514989e+02   5.4870765919e+00    0.0205961  0.004111512  27.03  0.001189405    4.825    0.793
        29  -9.3847    247.6897    177.1096   2.8994224624e+02   4.2951817760e+00   0.01197503  0.008849704  39.64 0.0006531457    1.365    0.268
        30  -9.8299    249.0506    212.0321   2.9013564585e+02   3.8818844855e+00   0.01419869   0.01201796 -45.68  0.001663193    1.173    0.148
        31 -10.3270    100.0641    214.7015   2.9188374671e+02   4.7138340108e+00   0.02323351  0.009948235  36.49   0.00197002    2.251    0.556
        32 -10.2606     55.6183    214.5873   2.9240043916e+02   4.9717223445e+00   0.01861969   0.01001724  49.47  0.001670385    2.147    0.534
        33  -8.9112      8.6668    153.9331   2.9258609345e+02   5.9474674577e+00   0.01153816  0.009035974   7.81 0.0006403771    1.389    0.280
        34  -8.5327     10.6018    148.2486   2.9252964937e+02   6.0024192710e+00  0.009365869  0.005859751 -51.29 0.0002940707    1.557    0.358
        35  -8.9833    125.6448    144.3740   2.9116575842e+02   5.3832633295e+00    0.0113043   0.01033285 -33.51  0.000268118    1.105    0.095
        36  -9.8210    190.5609    135.1205   2.9035465059e+02   5.1144215322e+00   0.01228968   0.01074276  33.87 0.0003076003    1.148    0.129
        37 -12.7114    238.4752    115.8146   2.8968162157e+02   5.0601425625e+00    0.1007525   0.06196477  36.89    0.0101701    1.612    0.380
        38 -11.7050    237.6720    127.4099   2.8976055919e+02   4.9302543410e+00   0.06287713   0.01914188  33.38  0.004645172    2.973    0.664
        39  -9.0182    129.4910    247.4922   2.9173695729e+02   4.1626145495e+00  0.006567233  0.006437602 -32.95 -3.947731e-05    1.010    0.010
        40 -10.7111     26.0153    124.7002   2.9220941121e+02   6.1873903532e+00   0.02444236   0.01278641  23.16  0.002235196    1.997    0.499
        41 -11.9763    182.9960    112.7790   2.9030870744e+02   5.4177418353e+00   0.03036801   0.02322575 -79.31   0.00298608    1.439    0.305
        42 -12.3377    186.6901    107.8434   2.9023610399e+02   5.4535942399e+00   0.03419485   0.02837478 -25.32   0.00241908    1.292    0.226
        43  -8.6685    122.9718    129.2346   2.9110627890e+02   5.5746344119e+00   0.01034809  0.009348448 -65.43 0.0003437331    1.110    0.099
        44  -9.8882    165.5402    119.0503   2.9054951059e+02   5.4462230161e+00   0.01330734  0.008570246  42.70 0.0008761144    1.596    0.373
        45  -9.1624     25.0656    111.2444   2.9214013470e+02   6.3492407214e+00  0.009743643  0.008605819  22.93 0.0005177266    1.142    0.125
        46  -8.6113     26.9778    134.0000   2.9225370033e+02   6.0737514545e+00   0.01114841  0.003767294  26.34 0.0008081939    2.982    0.665
        47  -8.4368    174.3198    113.2933   2.9041278334e+02   5.4621310028e+00  0.006895514  0.004948558 -26.10 0.0003467671    1.608    0.378
        48  -9.0960    177.5136     96.0656   2.9027225341e+02   5.6435985861e+00   0.01033785  0.006481621 -62.54  0.001030953    1.585    0.369
        49  -8.3093     16.3264    121.3082   2.9230217562e+02   6.2826220873e+00  0.007012555  0.004916228 -27.10 0.0002597529    1.654    0.396
        50  -8.3396    127.9405     91.0439   2.9081958262e+02   5.9894385939e+00  0.009557148  0.009296772 -40.01            0    1.016    0.016
        51 -10.8840    179.8615     88.5640   2.9019989545e+02   5.7170393180e+00   0.02620707   0.01333727  52.38  0.002215059    2.488    0.598
        52  -7.5325    207.5359     87.0126   2.8986847787e+02   5.5742460741e+00  0.009589631  0.006476358 -62.86 0.0001509511    1.475    0.322
        53  -8.7334    182.4994     83.4762   2.9013864131e+02   5.7607682602e+00   0.01183963   0.00662388 -78.92 0.0009767872    2.320    0.569
        54  -7.3501    153.4754     68.5380   2.9038700464e+02   6.1026387765e+00   0.00660223  0.006374348 -29.13  6.86005e-05    1.033    0.032
        55  -8.5532    190.9804     64.9944   2.8992890100e+02   5.9259419865e+00  0.009542626  0.009138731 -29.38  0.001181395    1.045    0.043
        56  -7.9877    131.8012     53.6079   2.9054999217e+02   6.4016262286e+00   0.01028941  0.008535298 -46.49 0.0003789411    1.196    0.164
        57  -9.5692    246.2505     51.8300   2.8920671188e+02   5.7569946502e+00   0.01219349    0.0106724   3.45 0.0003139312    1.202    0.168
        58  -7.4894    171.8753     49.8355   2.9006031114e+02   6.2128092007e+00  0.008831693  0.007391728  57.66 0.0003912942    1.287    0.223
        59  -7.2714    113.9772     49.9774   2.9073604233e+02   6.5470623892e+00  0.007597654  0.007484025 -36.78 0.0009473664    1.002    0.002
        60  -7.8711    250.0173     47.3519   2.8913597936e+02   5.7869546100e+00  0.009275865  0.008442909  24.05   0.00052048    1.106    0.096
        61  -7.7190    187.4285     38.7114   2.8981229175e+02   6.2514341772e+00  0.008764871  0.006000645 -49.78 0.0003176165    1.436    0.304
        62  -7.0022    104.6997     36.3453   2.9076244014e+02   6.7589836200e+00  0.006961555  0.005006111  65.53 0.0007037481    1.680    0.405
        63  -7.2319    173.7740     34.0138   2.8994309786e+02   6.3852778232e+00  0.008297803  0.005429647 -62.81 -0.000430966    1.523    0.343
        64  -8.3491    159.7041     30.9953   2.9008889956e+02   6.5020211714e+00   0.01580405   0.00801281 -33.78 0.0009606438    2.629    0.620
        65 -10.2054    141.4218     29.8632   2.9029521063e+02   6.6212880882e+00   0.01179606   0.01142168 -45.90 0.0002445227    1.021    0.020
        66  -8.2063    152.2655     25.0494   2.9013986144e+02   6.6141686238e+00   0.00944129  0.008336101 -57.57 0.0005476407    1.119    0.106
        67  -7.4420     14.9771     18.0360   2.9170027434e+02   7.4897182968e+00  0.007653433  0.007343203  19.67            0    1.048    0.046
