#   1 NUMBER                 Running object number                                     
#   2 MAG_AUTO               Kron-like elliptical aperture magnitude                    [mag]
#   3 X_IMAGE                Object position along x                                    [pixel]
#   4 Y_IMAGE                Object position along y                                    [pixel]
#   5 X_WORLD                Barycenter position along world x axis                     [deg]
#   6 Y_WORLD                Barycenter position along world y axis                     [deg]
#   7 A_WORLD                Profile RMS along major axis (world units)                 [deg]
#   8 B_WORLD                Profile RMS along minor axis (world units)                 [deg]
#   9 THETA_WORLD            Position angle (CCW/world-x)                               [deg]
#  10 FWHM_WORLD             FWHM assuming a gaussian core                              [deg]
#  11 ELONGATION             A_IMAGE/B_IMAGE                                           
#  12 ELLIPTICITY            1 - B_IMAGE/A_IMAGE                                       
         1 -13.9540    216.7872      3.9194   4.2195661305e+01   2.9864605068e+01     1.742642    0.8612273  67.75  0.006935639    1.951    0.488
         2 -15.1982    192.1869     33.1338   5.3552288993e+01   3.2934474776e+01     3.592285     2.095028  19.50   0.01383625    2.689    0.628
         3 -10.6011     60.1402    229.8044   1.2243642551e+02   2.1463823552e+01    0.1576076     0.101178  64.61 0.0005605159    1.215    0.177
         4 -16.8609     71.7084    147.5773   1.1201492194e+02   3.6146570599e+01     10.24309     4.858243  77.12   0.02658889    4.158    0.759
         5 -10.4374     55.5085    211.0116   1.2195272643e+02   2.5287973468e+01     0.145852    0.0946814 -85.92 0.0003592989    1.458    0.314
         6 -12.8855     50.5631    208.1537   1.2266115136e+02   2.6392091492e+01    0.4350584    0.2124089  57.83  0.002601612    1.681    0.405
         7 -10.5821     48.7433    217.5051   1.2362540145e+02   2.4919314849e+01    0.2435692    0.1349258  36.13  0.001544088    1.860    0.462
         8 -10.2365     31.5622    211.0422   1.2629428254e+02   2.7964684137e+01    0.1415358   0.08909724  57.43 0.0003313631    1.213    0.176
         9 -11.0970     70.1181    209.4984   1.1911028928e+02   2.3751662195e+01    0.2024933    0.1369398  72.09 0.0003033554    1.294    0.227
        10 -10.1819     75.7250    206.9550   1.1782440281e+02   2.3482716214e+01    0.1889924    0.1788379 -63.86  0.001103661    1.444    0.307
        11  -9.9953     35.0881    205.9143   1.2536087363e+02   2.8530807423e+01    0.1221506   0.08401299  56.57 0.0005121581    1.174    0.148
        12 -13.0458    135.3639    199.2016   1.0525978633e+02   1.5947353850e+01    0.5585752    0.3183301  64.75  0.002688434    2.378    0.579
        13 -16.8487     58.4121    248.1428   1.2386576202e+02   1.8733335246e+01     8.612974      2.62335  31.26    0.0278602    8.301    0.880
        14 -11.7582    193.1272    194.9378   9.3504897074e+01   6.7604640476e+00     0.839125     0.458831 -62.29  0.002969815    5.641    0.823
        15 -10.7929    207.9356    196.1522   9.1027049702e+01   4.0709929879e+00    0.1845145    0.1625673  39.82 0.0009596182    1.270    0.213
        16 -10.2358     81.4967    195.0279   1.1554397481e+02   2.4925223670e+01    0.2459737    0.2211502  54.84  0.001756215    1.222    0.182
        17 -13.1125     68.5822    189.0583   1.1756298930e+02   2.7809405372e+01    0.7279201    0.5818229 -63.46  0.003931315    1.444    0.307
        18  -9.6350     61.0303    188.1293   1.1901407167e+02   2.8951833804e+01    0.2496349    0.1367664  66.94 0.0009943834    1.748    0.428
        19 -19.1791     11.4749    106.6064   1.2274088871e+02   5.1809061522e+01     15.98043     0.701875 -73.77   0.02821464   15.448    0.935
        20 -12.7289    150.0156    189.5121   1.0092726326e+02   1.5118873397e+01    0.5637643     0.370717 -87.53  0.002382406    2.799    0.643
        21 -17.5026     23.7291    241.1312   1.2904105365e+02   2.3638961855e+01     3.800195     2.096306 -80.64   0.02874184    1.779    0.438
        22  -9.4935     63.7630    223.3131   1.2135157311e+02   2.2119097969e+01    0.1081149   0.06279091  67.87 0.0006857933    1.500    0.333
        23  -9.5976    159.3201    203.6652   1.0124237960e+02   1.1232670657e+01    0.1233615   0.09122755  67.78 0.0004456132    1.702    0.413
        24 -12.0866     99.4124    180.6267   1.1015713819e+02   2.5117265496e+01     0.258573    0.2257792  59.97 0.0006499772    1.059    0.056
        25 -10.9851    149.0973    180.0650   9.9605891903e+01   1.6918330639e+01    0.2041094    0.1797542  54.88 0.0007795221    1.094    0.086
        26  -9.3504    169.1531    178.1786   9.5216185267e+01   1.3615755648e+01    0.1740927    0.1534573  68.36 0.0004330107    1.317    0.241
        27  -9.4466     43.7042    220.6630   1.2471150231e+02   2.4936977960e+01   0.08802092   0.08031742 -61.30 0.0007030006    1.651    0.394
        28 -11.0594     59.6202    216.5452   1.2160422755e+02   2.3802870328e+01    0.4085377    0.2354102  73.07  0.001692579    1.587    0.370
        29 -13.4709     59.1304    203.1506   1.2067293129e+02   2.6296588522e+01    0.5245678    0.3642506  78.25  0.001602781    1.243    0.195
        30 -10.5740    164.1048    170.3226   9.4830636827e+01   1.5891214777e+01    0.2224952    0.1953376 -60.12 0.0004091832    1.323    0.244
        31  -9.8420    201.3988    169.1807   8.7283388125e+01   9.0798499968e+00    0.2271096    0.1867624  45.58 0.0006915596    1.268    0.211
        32 -10.2533    205.1679    166.9113   8.6134727657e+01   8.7228353020e+00    0.2974969    0.2410126  -8.17 0.0009674516    1.234    0.189
        33 -10.9914    193.1090    165.4625   8.8128740745e+01   1.1216899192e+01    0.3100567    0.2734446 -42.35  0.001387364    1.301    0.231
        34 -10.1527    229.6984    166.3234   8.1633162355e+01   4.3397456207e+00    0.1154652    0.1059306 -67.43 0.0003369335    1.633    0.388
        35 -10.2375    158.5339    162.5177   9.4541844785e+01   1.8337670660e+01    0.1378932    0.1274963  41.99 0.0001585352    1.017    0.016
        36 -13.1524     96.2272    153.6431   1.0701874524e+02   3.1199954512e+01    0.6672073    0.5915421 -38.53  0.004040338    1.384    0.277
        37 -10.7930    188.7079    154.8684   8.6845724275e+01   1.3800897724e+01    0.4660608    0.2415176  47.48  0.002066228    1.892    0.471
        38 -11.7554    133.8610    145.5339   9.6714707621e+01   2.6349887935e+01     1.178264    0.3065888 -55.03  0.003072908    5.712    0.825
        39 -10.6100    113.4695    151.3030   1.0255709674e+02   2.8847490442e+01    0.3062014    0.2058749  82.57  0.001445518    1.982    0.496
        40 -10.1567    174.6692    148.9291   8.8443037547e+01   1.7633416543e+01    0.2517316    0.2243793  87.63 0.0006959277    1.384    0.277
        41 -11.3244    143.9096    146.6117   9.4631526892e+01   2.4199455815e+01    0.3628608    0.2203948 -60.69  0.001617189    2.009    0.502
        42 -12.4498    107.4645    139.7743   1.0192051146e+02   3.2371654579e+01    0.5661013    0.3652335 -37.10  0.002657305    1.984    0.496
        43 -10.9240    112.9542    141.9265   1.0097997782e+02   3.0945989445e+01    0.3172782    0.2156346  85.37  0.001363152    1.987    0.497
        44 -12.6108     95.6174    139.5884   1.0482963216e+02   3.4388131215e+01    0.2930253    0.2872591  48.45  0.001103045    1.171    0.146
        45  -9.5733    128.0505    139.4746   9.6867726156e+01   2.8711203276e+01    0.2216119    0.1372771  43.19  0.001026649    1.576    0.365
        46 -11.3909    106.0869    130.9101   1.0055872258e+02   3.4572707555e+01    0.3872741    0.3193837 -77.91   0.00119725    1.235    0.190
        47 -11.2017    102.3870    126.1385   1.0055167800e+02   3.6284186291e+01    0.3009577    0.2394181 -38.08  0.001590544    1.430    0.301
        48 -11.1233    135.9977    128.3331   9.2590411063e+01   2.9508881147e+01    0.5524266    0.1825276 -52.64  0.001718848    3.548    0.718
        49 -11.5774    114.7943    130.1221   9.8194629457e+01   3.3193473506e+01    0.3363159    0.2958662 -14.88  0.000895361    1.406    0.289
        50 -11.5702     41.4492    211.9902   1.2458081381e+02   2.6728375361e+01    0.4191881    0.2611189  26.80  0.002497745    2.230    0.551
        51 -10.0650    160.3124    127.5030   8.6767166685e+01   2.4635256247e+01    0.3039357    0.2287911 -69.49  0.001427176    1.725    0.420
        52 -11.4475    120.1007    123.8885   9.5519107364e+01   3.3571881015e+01    0.4627237    0.3032715 -20.17  0.001833302    2.597    0.615
        53  -9.8487    135.0000    119.9599   9.0904422427e+01   3.1475364595e+01    0.2462692   0.08435977 -46.54  0.000799593    2.923    0.658
        54 -10.2658    110.1215    119.0338   9.7013608329e+01   3.6509325011e+01    0.2279838    0.2031887  51.51 0.0002621722    1.137    0.121
        55 -10.0984    168.2340    113.1173   8.1496390558e+01   2.5684547609e+01    0.3442455    0.2315324 -71.12  0.001381315    2.366    0.577
        56 -11.8312    118.8849    110.1160   9.2622812683e+01   3.6830427837e+01    0.5882292    0.4146999  55.61  0.002794105    1.524    0.344
        57 -10.1243    205.6040    110.0855   7.3238706359e+01   1.7803441231e+01    0.2705186    0.2111828  39.44  0.000655003    1.300    0.230
        58  -9.5413    134.6205    106.1735   8.7577740960e+01   3.4469384098e+01    0.2220234    0.1412774 -35.19 0.0009514678    1.699    0.411
        59  -8.8176    167.6615     95.2564   7.6854634659e+01   2.9203163692e+01    0.1517858    0.1232634 -85.61 0.0002306302    1.577    0.366
        60 -11.7046     53.0616     90.8193   1.0748688822e+02   5.1760003239e+01    0.3415595    0.1823511 -63.75  0.001369785    1.649    0.393
        61 -11.0534     41.7274     91.7992   1.1134331215e+02   5.2765140362e+01    0.2334277    0.1855118 -70.84 0.0004765915    1.071    0.066
        62  -9.7505     69.1230     71.8679   9.7371258261e+01   5.4033174966e+01    0.1945489    0.1764256 -75.44 0.0003175973    1.180    0.152
        63 -11.9689    163.8193     64.5387   6.8498297766e+01   3.5656874389e+01    0.4162631    0.3662145 -68.95 0.0004533152    1.259    0.206
        64 -10.2281    249.2391    249.7609   9.2591080628e+01  -7.8619780165e+00    0.1753151   0.05753867  31.79 0.0008987941    2.462    0.594
        65 -13.5278    177.0286     47.9564   6.0639590892e+01   3.4877618308e+01    0.8497465    0.7458485   4.53  0.000813112    1.237    0.191
        66 -10.4277     72.2105    230.3729   1.2038031533e+02   1.9878058031e+01    0.1471094   0.09252094  55.57 0.0004566991    1.201    0.167
        67 -10.0752     94.3037    250.1364   1.1811513121e+02   1.3943995114e+01     0.167521    0.1128526  43.97 0.0004366305    1.229    0.187
