#   1 NUMBER                 Running object number                                     
#   2 MAG_AUTO               Kron-like elliptical aperture magnitude                    [mag]
#   3 X_IMAGE                Object position along x                                    [pixel]
#   4 Y_IMAGE                Object position along y                                    [pixel]
#   5 X_WORLD                Barycenter position along world x axis                     [deg]
#   6 Y_WORLD                Barycenter position along world y axis                     [deg]
#   7 A_WORLD                Profile RMS along major axis (world units)                 [deg]
#   8 B_WORLD                Profile RMS along minor axis (world units)                 [deg]
#   9 THETA_WORLD            Position angle (CCW/world-x)                               [deg]
#  10 FWHM_WORLD             FWHM assuming a gaussian core                              [deg]
#  11 ELONGATION             A_IMAGE/B_IMAGE                                           
#  12 ELLIPTICITY            1 - B_IMAGE/A_IMAGE                                       
         1 -10.5649      5.1971     20.1281   1.1583911340e+02   6.8970001129e+01    0.9090071    0.2375431 -34.11  0.003943632    3.565    0.719
         2  -9.9345      1.3786     17.4808   1.1662185446e+02   6.9620346651e+01    0.2978664   0.09203292 -46.56 0.0009493621    2.709    0.631
         3 -11.5914     26.4091      5.7230   1.0043746347e+02   6.8899624173e+01    0.7094752    0.5688255   2.33  0.005573976    1.213    0.176
         4 -10.9793     39.9559      3.2697   9.3781700658e+01   6.7477273562e+01    0.4722506    0.2681711  27.36  0.001551776    1.496    0.332
         5 -10.6226     16.7984     10.0519   1.0655826634e+02   6.9384766293e+01    0.2955984    0.1832796 -13.73 0.0003746681    1.308    0.236
         6 -10.2693     10.6194     10.1785   1.0944732672e+02   6.9927544899e+01    0.2985717    0.1984167 -19.36 0.0006626184    1.130    0.115
         7  -9.7577     35.9524     11.2861   9.8844297133e+01   6.7131232418e+01    0.3301029    0.2517052 -43.10    0.0021046    2.005    0.501
         8 -11.4754     28.0644     14.2777   1.0338076545e+02   6.7696329509e+01     1.018727    0.5260297  -5.08  0.005361433    2.327    0.570
         9 -10.7751     20.1171     14.7403   1.0701762026e+02   6.8462707775e+01    0.5931635    0.3090048   0.42  0.003407095    2.164    0.538
        10 -10.6483    244.0457     23.4161   5.9731464836e+01   2.2089855179e+01    0.3138852    0.2601214 -34.79  0.002088354    1.477    0.323
        11  -9.8678     74.9930     17.8064   8.7553270608e+01   6.0540630966e+01     0.370589    0.1716313 -16.77  0.001758185    2.578    0.612
        12 -12.2904     68.8110     11.7563   8.7134838707e+01   6.2227524909e+01    0.3471504    0.2272201  33.11 0.0002660687    1.278    0.217
        13  -8.9619    160.9867     10.4726   6.6318378988e+01   4.2744469280e+01    0.2239611    0.1750927  26.36 0.0007617506    1.537    0.350
        14  -9.0682     48.7970     10.0853   9.3344517725e+01   6.5541995922e+01    0.1972804     0.156572  16.87 0.0006097975    1.126    0.112
        15 -10.6023     80.8751      6.5221   8.1471483047e+01   6.0563478074e+01    0.3894619    0.2879404  56.69 0.0009966274    1.496    0.332
        16  -8.7917    144.7131      4.2983   6.7086112249e+01   4.7117863289e+01     0.284267    0.2002968  25.56  0.001654829    1.669    0.401
        17 -11.5652      9.2065      3.3626   1.0720803517e+02   7.0909442174e+01    0.7818704     0.233648  28.88  0.003946094    3.276    0.695
        18  -9.5686    158.0956      1.4215   6.4296655632e+01   4.4224560831e+01     0.390614    0.1078992  68.35  0.001016114    3.126    0.680
        19  -8.0820     55.5195      1.4837   8.7303344557e+01   6.5366635659e+01    0.1149749   0.08843889  17.67 0.0004332544    1.021    0.020
        20  -8.9868    187.6480    245.2989   1.1562452399e+02  -3.7325852033e+00    0.3060683    0.2336062  -8.03  0.001241455    1.522    0.343
        21  -9.0399    250.0170    250.4220   1.0484318531e+02  -1.4054919699e+01    0.1620734    0.1150261  22.56 0.0004222373    1.181    0.153
        22  -8.6767    232.0019    250.7391   1.0812653314e+02  -1.1527721166e+01    0.2607079   0.08865707  37.66  0.001011486    2.559    0.609
        23  -9.1828    202.5756    250.0333   1.1349972316e+02  -6.8860633250e+00    0.3173248    0.1904656  30.25 0.0008352846    1.441    0.306
        24  -9.1096    198.0058    250.5913   1.1445934486e+02  -6.2276391693e+00    0.2123475     0.102479  40.69 0.0003613446    1.775    0.437
        25  -8.2297    190.3562    249.7275   1.1579231830e+02  -4.8494635361e+00    0.1963351    0.1275444  11.39   0.00103471    1.900    0.474
        26  -8.5388    183.2148    250.7034   1.1732152503e+02  -3.8119085174e+00    0.1714003   0.09633268  34.12 0.0002994843    1.532    0.347
        27  -8.6048    166.2958    250.0632   1.2051758587e+02  -8.7055612283e-01    0.1849802    0.1572995  65.16  0.001172874    1.364    0.267
        28  -8.0287    150.2303    249.9690   1.2364892112e+02   1.8679207132e+00    0.1650893    0.1490724  44.84 0.0003983776    1.089    0.081
        29  -8.3197    136.2341    250.3910   1.2644252614e+02   4.1565780224e+00    0.2471755    0.1065091  38.21  0.001035024    2.062    0.515
        30 -10.1477    124.9659    248.5605   1.2840620478e+02   6.3514111197e+00    0.2602551    0.2126346 -74.95 0.0004970668    1.403    0.287
        31  -8.3240    108.5954    249.5911   1.3169788746e+02   8.8317022419e+00    0.1538679    0.1376688  21.16  0.001013843    1.447    0.309
        32  -9.7519     71.8553    250.0351   1.3862591300e+02   1.4301360251e+01    0.3136814    0.1724525  60.49 0.0005000771    1.600    0.375
        33 -10.3868     61.8557    248.9477   1.4033569562e+02   1.5891621368e+01    0.2189132    0.2028977  78.39 0.0004171758    1.343    0.255
        34 -10.5257     47.4093    250.2748   1.4299277430e+02   1.7542014354e+01    0.3473403    0.1427404  40.11  0.001588156    2.269    0.559
        35  -8.2821      1.6747    250.6345   1.5051960255e+02   2.2657986656e+01    0.1741192   0.09961966  34.56 0.0005149019    2.199    0.545
        36 -10.1889     16.3616    249.1163   1.4811552315e+02   2.1410163300e+01    0.2434241     0.202173  33.74  0.001077627    1.770    0.435
        37 -10.3815      8.9518    248.5257   1.4926783536e+02   2.2304303848e+01    0.4583787    0.2009272  57.31 0.0005324758    1.799    0.444
        38  -8.0858    171.2223    246.6005   1.1904012046e+02  -1.1564912971e+00    0.1688368    0.1059777  32.39 0.0002486507    1.435    0.303
        39 -10.1300     94.7904    245.0580   1.3383517521e+02   1.1834306756e+01    0.2542329    0.2017951  48.67 0.0003956275    1.164    0.141
        40  -9.4119     90.6906    245.3167   1.3464634289e+02   1.2414971143e+01    0.2136393    0.1496992 -78.28  0.000731786    1.508    0.337
        41  -8.3915    249.0356    245.4788   1.0417910539e+02  -1.3302600463e+01    0.1646339   0.09961175  31.40 0.0003967956    1.467    0.318
        42 -10.9615    234.2259    243.2005   1.0645492513e+02  -1.0865170359e+01    0.3549744    0.2369353  -5.96 0.0006210436    1.544    0.352
        43  -9.1859    240.6451    239.0748   1.0457926332e+02  -1.1265198975e+01    0.2079597    0.1508737  23.96 0.0004049551    1.185    0.156
        44  -9.1160    163.3817    244.5736   1.2028480757e+02   5.1277966197e-01    0.2213351    0.1939923  49.22 0.0004991326    1.127    0.113
        45  -8.6097    133.6920    245.0433   1.2623797243e+02   5.5110209554e+00    0.1659158    0.1535094  68.77 0.0003967591    1.138    0.121
        46  -9.6028    113.9306    244.0743   1.3000869986e+02   8.9724509232e+00    0.2055064     0.180364 -61.99 0.0003379658    1.340    0.254
        47  -9.8933     81.1654    244.4658   1.3636195294e+02   1.4003346445e+01     0.214657    0.1907809  58.19 0.0003976548    1.215    0.177
        48  -8.0114     66.9313    245.7366   1.3912923373e+02   1.5800681591e+01    0.1421435   0.08958293  45.20 0.0004977798    1.436    0.304
        49  -8.3824     48.0147    244.5491   1.4243533841e+02   1.8547195852e+01    0.1761381    0.1388968 -62.82  0.001229143    1.576    0.365
        50  -9.8316     41.1857    244.4477   1.4362786578e+02   1.9421477052e+01    0.2081258     0.168699  62.10 0.0005704166    1.198    0.165
        51  -8.6148    219.7169    244.0505   1.0928362472e+02  -8.7641915457e+00    0.2371663    0.1522328  47.63  0.001312824    1.797    0.443
        52  -8.6803     19.7514    244.0059   1.4724625615e+02   2.1997475302e+01     0.176311    0.1264257  59.22 0.0005349223    1.214    0.176
        53  -8.0702    177.1964    242.8430   1.1728980690e+02  -1.5778133353e+00    0.1758741    0.1366679  17.44 0.0007390268    1.319    0.242
        54 -10.2995    104.2255    241.0226   1.3154557586e+02   1.1107619557e+01    0.2907777    0.2432385 -76.46 0.0006530987    1.288    0.223
        55  -9.6818    214.8841    239.0075   1.0934656632e+02  -7.2821159179e+00    0.2544845    0.1917914 -30.49 0.0003945788    1.434    0.303
        56 -10.3491    194.6020    216.7607   1.0943615124e+02  -3.2949595406e-01    0.4904583      0.32461   7.15 0.0004580654    2.013    0.503
        57 -10.3190    192.2678    233.2942   1.1276892825e+02  -2.6435423217e+00    0.3324724    0.2839184   9.71 0.0004328795    1.135    0.119
        58 -10.4360    201.7020    238.8507   1.1184896623e+02  -5.1022669423e+00    0.7097878    0.4210254 -63.34 0.0009391303    3.866    0.741
        59 -11.4075    207.8318    232.4269   1.0957553186e+02  -5.1482301632e+00    0.9893296    0.5244856  23.00  0.003518572    2.186    0.543
        60 -10.1760    222.0741    225.6102   1.0564819645e+02  -6.4677599755e+00    0.7387605     0.365296  17.74  0.002919174    3.210    0.688
        61 -10.3763    239.0921    217.6900   1.0103499265e+02  -8.0167562308e+00    0.3905973    0.2255048  31.26 0.0005979283    1.633    0.388
        62  -8.9009    216.7046    220.8844   1.0582382062e+02  -4.8521423020e+00    0.2692449    0.2096506  15.40 0.0003231442    1.183    0.154
        63 -10.0674    231.9304    203.6129   9.9706746689e+01  -4.6869778947e+00    0.6537819    0.3656001  28.83  0.003194927    1.842    0.457
        64 -11.2696    227.1983    215.6369   1.0286312861e+02  -5.7872724046e+00    0.8103509    0.6148511  17.04  0.004314034    1.216    0.178
        65 -10.4496    233.6696    210.4843   1.0069004653e+02  -6.0556309586e+00    0.4122893    0.3222245  -0.73  0.001054719    1.205    0.170
        66 -11.1210    203.5836    216.8148   1.0764981599e+02  -1.9362464909e+00    0.6203849    0.3302902 -43.58  0.001858571    2.075    0.518
        67 -11.2016    211.5786    217.4437   1.0619174673e+02  -3.4328840936e+00    0.8210626    0.6324208  14.96  0.002637561    1.244    0.196
        68  -9.6957    170.4277    240.0636   1.1820204396e+02   3.8291020755e-02    0.2771955    0.2244788  49.16  0.001603797    1.202    0.168
        69  -7.6476    155.4049    241.1962   1.2137476184e+02   2.4548863651e+00    0.1489919    0.1267631 -74.62 0.0002828323    1.456    0.313
        70  -9.6465    126.5730    240.5400   1.2705672279e+02   7.5191381997e+00    0.2342434    0.2056329  53.19 0.0001706278    1.049    0.047
        71  -9.2689    111.6926    238.0425   1.2970626758e+02   1.0459480573e+01    0.3883101     0.313594 -30.22   0.00174672    1.790    0.441
        72  -8.8450     97.7157    237.5244   1.3241501059e+02   1.2806135292e+01    0.2115154    0.1105129 -63.28  0.001070849    2.095    0.523
        73  -9.9674     69.0838    240.1310   1.3820388153e+02   1.6575511267e+01    0.2215776    0.1876243  59.07  0.000388815    1.174    0.148
        74  -9.3970     35.3791    240.0925   1.4431371674e+02   2.0960736227e+01    0.2276715    0.1761343  44.17 0.0004816341    1.462    0.316
        75  -9.1002     32.4165    237.5119   1.4464065647e+02   2.1810576961e+01       0.1614    0.1284963  58.40 0.0004983532    1.240    0.194
        76 -10.6329     35.5892    232.0192   1.4365824562e+02   2.2517535899e+01    0.4376953    0.1789474 -69.31  0.001476116    2.241    0.554
        77  -9.2805    118.3057    239.3873   1.2855738830e+02   9.1158017112e+00    0.2139612    0.1914482  58.21 0.0003945202    1.079    0.073
        78  -9.4129     61.9259    239.6673   1.3949433083e+02   1.7656228322e+01    0.1986255    0.1630071  88.92 0.0003800743    1.162    0.140
        79  -9.3846     18.6490    239.3319   1.4713103381e+02   2.3007028340e+01    0.3397777    0.1465538  83.37  0.001798597    2.338    0.572
        80 -10.4024     10.4527    239.0039   1.4847521439e+02   2.3934877597e+01    0.2697273    0.1818953  68.11 0.0004601923    1.133    0.117
        81  -9.7443      3.5443    235.5849   1.4940973024e+02   2.5281636764e+01    0.2123939    0.1683518  67.60 0.0005832351    1.225    0.184
        82  -9.4694    149.4344    238.2081   1.2213679843e+02   4.0088589373e+00    0.2502652    0.2216664 -47.11 0.0004659855    1.323    0.244
        83  -7.8044    148.5817    232.7769   1.2150658934e+02   5.1226677709e+00    0.1704676    0.1300957 -69.11  0.000952656    1.624    0.384
        84  -9.6795     41.7936    236.9308   1.4293263536e+02   2.0800200260e+01    0.2794301    0.1706121 -84.20  0.001392654    1.475    0.322
        85  -9.4290    220.4907    238.0144   1.0811750820e+02  -8.0342749579e+00    0.2270598       0.1571  30.16 0.0004450414    1.249    0.199
        86  -7.4585     48.4767    238.5655   1.4186178553e+02   1.9643853342e+01    0.1169014   0.09180484  72.65 9.980684e-05    1.034    0.033
        87  -8.1814    183.7014    237.1179   1.1509509590e+02  -1.7793080365e+00    0.1735364    0.1532444  23.83 0.0004424957    1.049    0.046
        88  -9.9437    100.5773    231.3245   1.3110322282e+02   1.3556485403e+01    0.2664417    0.2439555  -6.88 0.0003646336    1.541    0.351
        89 -10.1055     91.4378    236.3623   1.3351642457e+02   1.4009517618e+01    0.2302457    0.2130546 -86.95 0.0003946821    1.226    0.185
        90 -11.2175     93.2336    228.4939   1.3224205490e+02   1.5281419399e+01    0.4491393    0.3977369  76.61  0.001546374    1.088    0.081
        91  -9.7674     78.7860    236.1662   1.3595900599e+02   1.5954003764e+01    0.2429853    0.1897955  68.33 0.0003796725    1.065    0.061
        92  -8.1250    225.0422    236.2558   1.0696108513e+02  -8.5016398597e+00    0.1705244    0.1431809   9.18 0.0004752098    1.039    0.037
        93  -9.4221    140.3415    235.0611   1.2352345995e+02   6.1542365515e+00    0.2257572    0.1838902  37.30 0.0004377612    1.145    0.127
        94 -10.2141    171.7379    233.5762   1.1692016974e+02   8.9132490355e-01    0.3411271    0.2461289  47.03  0.001919012    1.292    0.226
        95  -8.5490    129.9617    235.3292   1.2567144866e+02   7.8992404807e+00    0.1790894     0.144489  44.73 0.0002801243    1.092    0.084
        96  -8.2726    119.5295    234.5468   1.2768163040e+02   9.8179071224e+00    0.2383544     0.124129 -72.92  0.001028424    2.866    0.651
        97  -8.6501     64.8134    234.4208   1.3845816956e+02   1.8290689615e+01    0.1916116    0.1476844 -83.50 0.0002926002    1.231    0.188
        98  -9.1080    230.6292    233.1364   1.0537746078e+02  -8.9315025039e+00    0.2910084    0.1856477  20.65 0.0006421665    1.479    0.324
        99  -8.9741    108.5042    233.3477   1.2975601566e+02   1.1877825455e+01    0.2118273    0.1826191  60.21 0.0003182288    1.029    0.028
       100  -7.5135     72.6525    234.7162   1.3699041013e+02   1.7129363159e+01     0.106489   0.09891034  -4.23 0.0004785051    1.648    0.393
       101  -8.5622    176.8716    232.8964   1.1577597809e+02   1.0203052281e-01     0.246381    0.1917602   5.48 0.0007032191    1.482    0.325
       102  -8.8734    153.1305    233.0855   1.2062354682e+02   4.2645043725e+00    0.1978236     0.167576  50.01 0.0004539131    1.089    0.082
       103 -10.1862     10.4684    231.7341   1.4802725311e+02   2.5333448088e+01    0.2246775    0.1954784  83.63 0.0006771269    1.324    0.245
       104 -10.5912      7.9141    216.1868   1.4745937020e+02   2.8675705117e+01    0.4779153    0.3089328 -31.56 0.0005980209    3.499    0.714
       105 -10.5310      7.4688    226.4143   1.4820352119e+02   2.6675609225e+01    0.3666926    0.2943273 -64.62  0.001767908    1.562    0.360
       106 -10.3127      1.7693    227.0859   1.4921050992e+02   2.7095312730e+01    0.3954575    0.1225403 -71.11  0.001324881    2.630    0.620
       107 -10.1148    250.3257    231.5867   1.0152990874e+02  -1.1673380481e+01    0.2058761    0.1517149 -26.21 0.0007942676    1.339    0.253
       108  -9.5329    123.5053    231.0829   1.2640472472e+02   9.8016487493e+00    0.2363819    0.1866215  44.16 0.0003582734    1.139    0.122
       109  -9.3151     85.3153    231.2141   1.3414277813e+02   1.5958502727e+01     0.247529    0.2205313 -20.63  0.001393385    1.696    0.410
       110  -9.1339     55.4650    231.2393   1.3992595716e+02   2.0187497565e+01     0.192162    0.1742427  69.57 0.0004733255    1.261    0.207
       111  -9.4289    133.0720    230.3070   1.2432940770e+02   8.2982210004e+00    0.3301615     0.214686  46.51   0.00120325    1.335    0.251
       112  -8.4441    226.3086    230.1256   1.0565253017e+02  -7.8193857446e+00    0.1662634    0.1445196   7.80 0.0004730249    1.080    0.074
       113  -9.2240    158.9859    229.7055   1.1890267051e+02   3.8253589278e+00    0.2862347    0.2143198 -19.21 0.0003214065    1.771    0.435
       114  -9.4778    160.3448    218.3929   1.1678948789e+02   5.6348115214e+00    0.3674196    0.2457082  65.21  0.001097452    1.971    0.493
       115  -9.0270    163.2399    225.2042   1.1730699350e+02   3.8651456833e+00    0.2813862    0.2610849 -23.34 0.0008990873    1.209    0.173
       116  -9.2014    160.4752    222.5002   1.1743997044e+02   4.8550528981e+00    0.2693299     0.242373  27.31 0.0008111506    1.089    0.082
       117  -9.5647    113.8617    229.0614   1.2811019886e+02   1.1822476929e+01     0.326264     0.213664  55.20 0.0008300258    1.391    0.281
       118  -9.9334     45.2266    229.2112   1.4166230741e+02   2.1908417555e+01    0.2548082    0.2274087  28.99 0.0005166234    1.593    0.372
       119  -8.4353    144.5682    229.2952   1.2180895756e+02   6.4660123733e+00    0.2447592     0.164543  41.14  0.001206615    1.304    0.233
       120  -9.1895     79.2217    228.7431   1.3507523380e+02   1.7365776245e+01    0.2051926    0.1860116  67.83 0.0003462614    1.173    0.147
       121  -8.9550     29.5771    228.9984   1.4450579144e+02   2.3816807034e+01    0.1684732    0.1527969  49.72  0.000369786    1.449    0.310
       122 -10.3791    236.3406    226.5237   1.0314874153e+02  -8.8745001871e+00    0.2815313    0.2485569  25.09  0.001202542    1.241    0.194
       123  -8.6661    152.9805    228.0643   1.1988270400e+02   5.1933424422e+00    0.1987978    0.1779341  46.91 0.0003663166    1.040    0.039
       124  -8.4429    107.3621    228.2691   1.2933911752e+02   1.3056454783e+01    0.2023272    0.1583372  39.42 0.0005271462    1.278    0.218
       125  -8.9026     58.6548    227.3493   1.3895049197e+02   2.0548766263e+01    0.2790716    0.1450973  58.62  0.001485109    1.764    0.433
       126 -10.1145     19.6266    226.8610   1.4612046925e+02   2.5340102732e+01    0.2325475    0.1918923 -86.60 0.0006315341    1.243    0.195
       127  -8.7816    175.5760    227.2269   1.1510796297e+02   1.2925302957e+00    0.2252541     0.163656  36.33 0.0003489952    1.211    0.174
       128  -7.8639    139.3417    227.4848   1.2262008247e+02   7.7279216433e+00    0.1293077    0.1184005  53.87 0.0001222221    1.054    0.051
       129  -9.5749    229.3984    225.8099   1.0430585147e+02  -7.6793833381e+00    0.2157506    0.1811895   7.35 0.0003876796    1.015    0.015
       130  -9.8757    200.1110    225.0893   1.0981270188e+02  -2.6819469476e+00    0.2349082    0.2236179 -31.16 0.0004331445    1.245    0.197
       131  -8.6174    185.1050    226.1332   1.1299204079e+02  -2.1892429366e-01     0.195759    0.1760361  26.91   0.00047279    1.040    0.038
       132 -10.3533     25.2697    239.4863   1.4601851613e+02   2.2247268542e+01    0.2140657    0.1933257 -83.16 0.0007115179    1.440    0.305
       133  -8.8709    120.9301    224.8925   1.2607781532e+02   1.1439447710e+01    0.1991235    0.1841972 -87.14 0.0002816087    1.148    0.129
       134 -10.5204    248.9949    223.1936   1.0025697524e+02  -1.0325073318e+01     0.260361    0.2310071 -19.47 0.0004451898    1.281    0.219
       135  -9.4127    191.5416    223.9382   1.1131923719e+02  -9.9199984162e-01     0.233758    0.2072501  23.58 0.0005727814    1.020    0.020
       136  -8.2548    170.8590    223.8975   1.1552006644e+02   2.7206634425e+00    0.1939832    0.1679239  16.76 0.0002600748    1.171    0.146
       137  -8.3969    155.9769    224.0145   1.1862181677e+02   5.3936770380e+00    0.1976943    0.1783278  36.33  0.001196004    1.044    0.042
       138  -9.3229    129.8141    223.7542   1.2405637716e+02   1.0119201850e+01    0.2213026    0.2033517  77.19 0.0003423476    1.112    0.100
       139  -8.4616    110.0017    224.4831   1.2829640858e+02   1.3370443466e+01    0.2075574    0.1578814  64.24 0.0005366477    1.234    0.190
       140  -8.7402    104.6949    223.8619   1.2931519550e+02   1.4372742998e+01    0.3130789    0.1831191  29.82  0.001039227    2.090    0.522
       141  -8.5011    135.9587    223.1768   1.2268104528e+02   9.1459821667e+00    0.2435159    0.1670313  39.07 0.0008347174    1.337    0.252
       142  -8.8479     83.0324    223.0692   1.3366680994e+02   1.7950718727e+01    0.1870126    0.1605472  68.22  0.000340855    1.046    0.044
       143  -8.6932     75.3649    222.7847   1.3518484365e+02   1.9146746941e+01     0.203117    0.1443223  56.97 0.0005117665    1.225    0.184
       144  -9.2839     59.8085    220.8822   1.3808385853e+02   2.1722305114e+01    0.2233757    0.1910113  56.33 0.0004282269    1.208    0.172
       145 -10.0574     50.3395    221.5781   1.4000246936e+02   2.2820283981e+01    0.3185262    0.3107281  14.99  0.001178394    1.505    0.335
       146 -10.2978     48.7088    217.7749   1.3995806601e+02   2.3817591655e+01    0.5075678    0.3490434  89.84  0.002916646    1.285    0.222
       147  -9.3946    135.7533    239.3200   1.2505177162e+02   6.1779869863e+00    0.3844436    0.2173871  58.67  0.001855316    1.963    0.491
       148  -8.9023    175.0974    221.4038   1.1422741242e+02   2.3928822124e+00    0.2500442    0.2029386 -57.30 0.0005161073    1.490    0.329
       149  -8.5791    115.2319    221.9565   1.2685935975e+02   1.2994635602e+01     0.178937    0.1762883  -3.82 0.0004588289    1.251    0.200
       150  -8.7595     97.8506    222.0353   1.3049773123e+02   1.5853817719e+01    0.1877133    0.1704954  68.49 0.0004050131    1.094    0.086
       151  -8.0323     92.8736    221.8941   1.3150939051e+02   1.6674004094e+01    0.1725556    0.1658003  72.73 0.0002993321    1.215    0.177
       152  -9.7636     16.0445    221.3446   1.4636667851e+02   2.6821983824e+01    0.2245871     0.201865  85.21 0.0005755521    1.334    0.250
       153 -10.0543    186.5461    219.4653   1.1154818136e+02   6.5767986986e-01    0.4477894    0.2902201  -8.67 0.0009513242    2.317    0.568
       154  -8.6790    181.0062    221.0284   1.1295041396e+02   1.3878955225e+00    0.2032518    0.1844017  16.16 0.0004613202    1.069    0.064
       155  -8.7795    141.5048    220.5161   1.2110510187e+02   8.6655299668e+00     0.224999    0.2080758  49.83 0.0005955425    1.046    0.044
       156  -8.4432     68.3624    221.0380   1.3639906376e+02   2.0511624063e+01    0.1691025    0.1365311 -86.07 0.0005515185    1.150    0.131
       157  -9.5954     40.3921    220.7703   1.4183502932e+02   2.4220955444e+01    0.2036857    0.1745196 -76.89 0.0004452832    1.290    0.225
       158  -8.3939    109.1055    219.6893   1.2783428783e+02   1.4485627102e+01    0.1805142    0.1548801  55.22 0.0003683324    1.051    0.049
       159  -8.0099     87.9817    220.4321   1.3233847869e+02   1.7737983981e+01    0.1849584    0.1159021  42.81 0.0003626653    1.491    0.329
       160  -7.9905    129.8650    219.3491   1.2339174388e+02   1.0972416593e+01    0.1932929    0.1188288  33.72 0.0006074816    1.672    0.402
       161  -8.5122    104.4555    219.0612   1.2872803813e+02   1.5386738877e+01     0.176306    0.1283214 -63.76 0.0003944369    1.456    0.313
       162  -8.2472    136.9593    218.3114   1.2172589927e+02   9.9107218073e+00    0.1913385    0.1568579  43.09 0.0003203733    1.106    0.096
       163  -8.3688    120.1379    217.4228   1.2517518602e+02   1.3063061839e+01     0.200053    0.1839468 -51.73 0.0003892708    1.255    0.203
       164  -7.6383     96.2641    218.2859   1.3034600942e+02   1.6878511523e+01    0.1140476    0.1049901 -18.15 0.0001886413    1.491    0.330
       165  -8.2445     91.0329    216.6607   1.3123380494e+02   1.8046238898e+01    0.1802599    0.1519499  57.04 0.0005007903    1.087    0.080
       166  -7.9707     72.5120    217.1114   1.3512507098e+02   2.0740759555e+01    0.1726801    0.1161745 -70.06  0.000411318    1.458    0.314
       167  -8.8539     56.0434    216.8706   1.3842236965e+02   2.3061404609e+01    0.2014204    0.1435227 -82.37 0.0007965699    1.272    0.214
       168  -8.7243     21.7243    216.9474   1.4501314376e+02   2.7122507618e+01    0.1636735    0.1460991 -67.41 0.0004588977    1.448    0.309
       169  -9.8977    180.3021    215.6057   1.1214929427e+02   2.4698608555e+00    0.3293078    0.1897969 -36.77  0.001139389    1.960    0.490
       170  -8.0687    124.8201    215.8532   1.2394231855e+02   1.2560884843e+01    0.1856082    0.1457702  67.99 0.0002604343    1.298    0.230
       171  -9.1449     83.0229    215.9411   1.3281793617e+02   1.9433370063e+01    0.1904688      0.16776  72.33 0.0003338903    1.061    0.058
       172  -9.6985    171.9341    214.3830   1.1367434344e+02   4.2346138257e+00    0.2560114    0.2316598  48.66  0.000586203    1.116    0.104
       173  -8.2171    166.2443    215.3626   1.1503711845e+02   5.1083659475e+00     0.134311    0.1053354  -6.22 0.0003091688    1.605    0.377
       174  -8.6940    144.0604    214.9980   1.1968598541e+02   9.2703268480e+00    0.2084702    0.1870758  45.99 0.0004074468    1.014    0.014
       175  -9.8932    248.7518    212.8451   9.8391779894e+01  -8.8046997207e+00    0.2994365    0.2048987 -12.61 0.0005773306    1.424    0.298
       176  -9.5498    200.9043    209.6779   1.0687393117e+02  -2.5571531242e-01    0.3160468    0.2897107  64.15 0.0006559055    1.351    0.260
       177 -11.7712    186.0106    210.1820   1.0999859047e+02   2.3845093681e+00    0.7152606    0.6075642 -42.92  0.001736902    1.301    0.231
       178 -13.3584    188.7528    191.4460   1.0587955148e+02   5.3091911294e+00     1.714972    0.8008066  36.29  0.006871589    2.173    0.540
       179 -10.4565    193.9290    208.3493   1.0803805572e+02   1.2475717185e+00    0.4244591    0.3850578 -18.34 0.0007662402    1.138    0.121
       180 -10.3027    222.8764    204.3045   1.0154875295e+02  -3.2524167836e+00    0.9111303    0.4460449  48.06  0.002456538    2.327    0.570
       181 -10.4850    207.0114    205.6959   1.0490705642e+02  -6.7751555596e-01    0.4427406    0.4158113  -5.20 0.0001447347    1.104    0.094
       182 -11.3112    212.4117    199.2970   1.0261224032e+02  -5.5771866551e-01    0.7962632    0.4738855  29.30  0.003810054    1.729    0.422
       183 -10.6630    193.9928    200.8064   1.0660651573e+02   2.5801204709e+00    0.6770158    0.4218837  -9.71   0.00178575    2.559    0.609
       184 -10.3765    199.7635    201.5148   1.0556518736e+02   1.3760559821e+00     0.500136    0.3448352 -19.65  0.001786055    1.689    0.408
       185 -13.1588    205.8350    194.7233   1.0302480268e+02   1.4514948070e+00     1.388671     1.072806  11.24  0.007439824    1.381    0.276
       186  -7.9477    155.3090    213.2973   1.1700155933e+02   7.5254533520e+00    0.1366723    0.1078328   6.99 0.0002821171    1.594    0.373
       187  -8.6825    118.0497    212.9885   1.2497032309e+02   1.4329791353e+01    0.2023643    0.1856486  56.00 0.0003584235    1.064    0.060
       188  -8.2328    111.7841    213.2486   1.2635844837e+02   1.5355124442e+01    0.1693283    0.1603017  -1.50 0.0004312253    1.333    0.250
       189  -8.1618     74.9789    212.7531   1.3411033456e+02   2.1305039790e+01     0.175406    0.1463524  61.33 0.0001885248    1.092    0.085
       190  -7.8560     63.5226    213.4774   1.3655674325e+02   2.2772962483e+01    0.1261204    0.1065108  78.03 6.255849e-05    1.034    0.033
       191  -8.8070     41.9171    212.9170   1.4082861649e+02   2.5675766370e+01    0.1767025    0.1456026  82.22 0.0004242888    1.060    0.056
       192  -8.6594    176.4718    212.4760   1.1239063521e+02   3.7406121446e+00    0.1403752    0.1254038  26.06 3.745414e-05    1.040    0.039
       193  -9.4266     98.7671    211.8344   1.2895724469e+02   1.7822449540e+01    0.2107613    0.1734939  37.15  0.000628884    1.305    0.234
       194  -9.3551     25.2151    211.3707   1.4391790942e+02   2.7904852601e+01     0.200635    0.1650256  85.10  0.000484232    1.109    0.099
       195 -10.1592     17.1802    210.5162   1.4536226208e+02   2.8922682274e+01    0.4230132    0.1971477 -86.12  0.001201808    1.945    0.486
       196  -8.7652    125.1246    211.1588   1.2316206142e+02   1.3461056416e+01    0.1942841    0.1768971  33.53 0.0003043428    1.177    0.150
       197  -8.8370    162.0249    209.4810   1.1491340378e+02   7.0013273766e+00    0.2012123     0.188838 -48.27 0.0004488748    1.175    0.149
       198  -8.4546    107.1946    210.1384   1.2690203482e+02   1.6782942948e+01    0.1893819     0.179131  31.50 0.0008630563    1.236    0.191
       199  -8.2926     93.8049    209.1706   1.2966231361e+02   1.9189161224e+01    0.1666793    0.1607825   2.33 0.0003717613    1.341    0.255
       200  -8.8615     78.8887    208.3270   1.3274839753e+02   2.1676577356e+01    0.2226965    0.1769682 -68.36  0.000452319    1.268    0.212
       201 -10.2009     67.3834    208.1689   1.3515932064e+02   2.3374681152e+01    0.3176174    0.2370815  84.69 0.0009653577    1.232    0.189
       202  -9.0970     72.1742    208.1800   1.3415330551e+02   2.2691971508e+01    0.2105038    0.2003219  -8.77 0.0008746617    1.460    0.315
       203  -8.5266    149.7011    207.9625   1.1730302372e+02   9.6088787906e+00    0.1800705    0.1765916 -75.04 0.0003172809    1.110    0.099
       204  -8.6918    134.0395    208.4964   1.2080006172e+02   1.2398665233e+01    0.2035669    0.1292486  39.92 0.0009850366    1.468    0.319
       205  -8.3728    115.0812    207.4212   1.2478178452e+02   1.6004314105e+01    0.2058832    0.1900544 -49.93  0.000425737    1.243    0.196
       206  -8.6982    120.1459    206.8449   1.2358207198e+02   1.5237318345e+01    0.2083212    0.1732205  67.94 0.0003755026    1.173    0.147
       207  -8.5417     47.8642    206.4594   1.3900744685e+02   2.6325330632e+01    0.1729605    0.1522398 -75.59 0.0005189539    1.241    0.194
       208  -8.2762    127.2687    206.3200   1.2193361926e+02   1.4074543706e+01    0.2043518    0.1902721  35.65  0.000378113    1.141    0.123
       209  -9.4322    124.0299    206.0132   1.2259756798e+02   1.4720328047e+01    0.2006871    0.1823937  59.94            0    1.006    0.006
       210  -7.9222    104.1353    205.8662   1.2695189617e+02   1.8203772454e+01    0.1674262    0.1586053 -38.01 0.0003512417    1.292    0.226
       211  -8.1961     39.4750    206.0232   1.4065929482e+02   2.7433758875e+01     0.169981    0.1025819 -72.42  0.000392056    1.475    0.322
       212  -8.1623     32.5464    206.5580   1.4208562496e+02   2.8115277332e+01    0.1211251   0.09367798  80.81 0.0001015966    1.036    0.035
       213  -9.3379    247.1599    204.7589   9.7148439142e+01  -7.3510629421e+00    0.2158313    0.1610014 -22.64 0.0003690059    1.228    0.186
       214 -10.2298      7.3497    203.8362   1.4669593494e+02   3.1267150803e+01    0.2273305    0.2088283 -47.85 0.0007377129    1.578    0.366
       215  -8.8712    140.9698    203.8701   1.1851400950e+02   1.2062988292e+01    0.2064869    0.1868339  13.48 0.0003666556    1.248    0.199
       216  -9.1725     93.9506    203.5180   1.2885281436e+02   2.0383190759e+01    0.2535389    0.1800531  88.33  0.001338293    1.532    0.347
       217 -10.3738     81.4081    201.2681   1.3129639999e+02   2.2834458877e+01    0.3931074    0.2974877  89.47  0.002249614    1.291    0.225
       218  -8.2151     56.9541    202.6900   1.3672229493e+02   2.5981540676e+01    0.1712047    0.1426898  64.15 0.0003930338    1.118    0.106
       219  -8.0072     43.4288    203.4913   1.3961029657e+02   2.7509233662e+01    0.1221483     0.101188  87.96 0.0002705237    1.056    0.053
       220  -8.8464     21.1464    202.6735   1.4397768545e+02   3.0166154042e+01    0.2044847    0.1574372  52.95  0.001063994    1.324    0.244
       221  -8.2955     16.7615    201.1963   1.4470560987e+02   3.0921356893e+01    0.1950532    0.1518119  33.65  0.001038023    1.629    0.386
       222  -9.4309    186.9846    201.3697   1.0816192276e+02   3.7999814414e+00    0.2273642    0.1952866 -54.46 0.0006202549    1.350    0.259
       223  -8.6295    131.3242    201.6808   1.2028024025e+02   1.4302258416e+01    0.2091898    0.1932011  75.09 0.0005451519    1.074    0.069
       224  -8.8461    133.0062    199.0034   1.1945532700e+02   1.4552834112e+01    0.2081569    0.1974326  44.88            0    1.072    0.068
       225  -7.9651    121.5032    202.4797   1.2259514584e+02   1.5915107144e+01    0.1404639    0.1291996  58.29 0.0002933814    1.030    0.029
       226  -8.1621    110.4604    202.5072   1.2505499591e+02   1.7848815121e+01    0.1387101     0.126391  66.08 0.0002441303    1.021    0.020
       227  -8.5883     98.9842    201.9803   1.2752327500e+02   1.9897799202e+01    0.2053359    0.1832671  64.22 0.0003923572    1.038    0.037
       228 -10.2694     69.2652    201.0226   1.3390378989e+02   2.4667575419e+01     0.389872    0.2481215  61.18  0.001798172    1.525    0.344
       229 -11.2785     64.1510    195.6179   1.3434681517e+02   2.6576999599e+01    0.5482411    0.3547487  59.58  0.001097788    1.493    0.330
       230  -9.3974    250.4010    199.2610   9.5519388119e+01  -7.0253721180e+00    0.1912027     0.149362 -23.68 0.0005619127    1.165    0.142
       231  -9.2968    243.3670    198.3812   9.6600799563e+01  -5.7569824550e+00    0.2146275     0.189159 -11.46 0.0006758585    1.080    0.074
       232 -10.0700    140.4263    197.6524   1.1756365844e+02   1.3446345683e+01    0.3888812    0.2798244   8.52  0.001782348    2.088    0.521
       233  -7.9563    104.1131    198.9064   1.2592439948e+02   1.9711725253e+01    0.1724789    0.1648736 -15.42 0.0003702718    1.301    0.232
       234  -8.2395     42.4322    199.1205   1.3936970971e+02   2.8579462431e+01    0.1825658    0.1040342 -69.72  0.001007045    1.566    0.361
       235  -8.4694    230.9574    197.8693   9.8776651345e+01  -3.5946542932e+00    0.1999316    0.1591931   1.43 0.0003593962    1.219    0.180
       236  -8.4178     21.6301    197.7058   1.4345777015e+02   3.1178636068e+01    0.1637632    0.1475422  20.30 0.0006329333    1.591    0.371
       237 -10.8523    179.1992    202.0122   1.0991391287e+02   5.1609077469e+00    0.4379947    0.2952477 -44.08  0.001965461    1.597    0.374
       238  -8.2470    150.5173    197.4371   1.1528097337e+02   1.1568894878e+01    0.1445235    0.1336167  39.37 7.852927e-05    1.036    0.035
       239  -8.2224     89.5080    197.1675   1.2894069792e+02   2.2484994157e+01    0.1917689     0.128445 -64.20 0.0005906498    1.485    0.326
       240  -7.7547     34.5064    201.5304   1.4122899388e+02   2.8973432503e+01    0.1207314   0.09818097  86.89 0.0002017132    1.040    0.038
       241  -9.1094    238.0400    196.0134   9.7105328572e+01  -4.4976355275e+00    0.1941287    0.1703911  -0.29 0.0003556579    1.018    0.017
       242  -9.0602    114.0431    194.9485   1.2306138780e+02   1.8860828183e+01    0.2097762    0.1936641  66.11 0.0003576324    1.017    0.017
       243  -9.1109     74.7718    194.0397   1.3179998011e+02   2.5426045977e+01    0.1827993    0.1589324  86.45 0.0005415277    1.025    0.025
       244  -8.5126     27.4480    192.7475   1.4183099793e+02   3.1651979587e+01    0.2355654    0.1227124  55.73 0.0006331769    1.869    0.465
       245  -9.3625    226.3088    192.1138   9.8518531588e+01  -1.8286034578e+00    0.2357997    0.1780109  22.08  0.000672341    1.310    0.237
       246 -12.0056    154.3235    188.3273   1.1274956370e+02   1.2703724551e+01     0.636546    0.5821016 -70.74  0.003177524    1.188    0.158
       247  -9.0745     95.0124    189.3521   1.2653443256e+02   2.3344045234e+01    0.3332843    0.1990682  62.70  0.001523628    1.910    0.476
       248  -7.5805     31.2943    190.2927   1.4079367458e+02   3.1781482043e+01     0.111399    0.0860176 -51.00 0.0006138518    1.556    0.357
       249  -7.8301     14.4271    189.2255   1.4416242174e+02   3.3712879033e+01    0.1595659   0.09057676 -87.56 0.0004044228    1.510    0.338
       250  -9.7816    222.4434    187.8615   9.8405220257e+01  -4.0900603212e-01    0.3093836    0.1905155  46.93 0.0005761281    1.742    0.426
       251  -8.1464      1.4153    188.0280   1.4664791577e+02   3.5122369948e+01     0.165647   0.08633517 -76.85 0.0003347327    1.509    0.337
       252 -10.0167    231.5821    185.7424   9.6257113973e+01  -1.6887101461e+00    0.3226055    0.2695793  -7.26  0.001118393    1.136    0.120
       253  -9.5471    229.5061    182.5038   9.5988869584e+01  -7.6618280321e-01    0.2582312    0.2187324 -18.02 0.0006491634    1.104    0.094
       254 -10.0533    233.0410    181.4936   9.5128659285e+01  -1.2280036704e+00    0.4770527    0.3300527  40.26  0.002117285    1.484    0.326
       255  -7.3631    138.6815    214.2881   1.2072510419e+02   1.0390720925e+01    0.1405609    0.1019034  68.28 0.0006251939    1.595    0.373
       256 -12.1196    184.0529    182.6295   1.0511263682e+02   7.9284695804e+00     1.234026    0.5493377  27.13  0.003694154    4.173    0.760
       257  -7.9994     57.5151    187.4781   1.3480067981e+02   2.9292499500e+01     0.130281    0.1114706  87.48 3.454235e-05    1.007    0.007
       258 -10.2228    142.7778    184.7002   1.1468159418e+02   1.5730974187e+01    0.3158477    0.2375511 -17.71  0.001484944    1.833    0.454
       259  -8.7554    134.8053    183.8116   1.1635276448e+02   1.7464746476e+01    0.2012331    0.1686233  75.75  0.000510791    1.299    0.230
       260  -9.5100    224.2314    182.9109   9.7064081783e+01   1.2262012773e-01     0.197555    0.1919015 -60.85 0.0006627337    1.253    0.202
       261  -8.6750    132.8150    213.7551   1.2190275348e+02   1.1558338969e+01    0.2026234    0.1843321 -40.07 0.0003232113    1.272    0.214
       262  -8.8886     28.9635    201.8652   1.4237021275e+02   2.9514373056e+01    0.1702033     0.141799 -70.68 0.0005500487    1.284    0.221
       263  -9.3280     32.4932    182.4689   1.3972977485e+02   3.3391200921e+01    0.2307784    0.2173084  89.03 0.0009358103    1.233    0.189
       264  -9.6884     29.3505    180.1838   1.4016934199e+02   3.4233763340e+01       0.3331    0.2267287  43.63  0.002062942    1.557    0.358
       265  -9.8088      8.1218    182.7989   1.4488833725e+02   3.5675204077e+01    0.1989803    0.1385845 -72.20 0.0005333113    1.227    0.185
       266 -10.1211    199.0009    181.9362   1.0184676609e+02   5.0979519327e+00    0.2263356    0.2157088   7.43 0.0008854856    1.029    0.028
       267  -8.1686    122.4520    182.4408   1.1898358960e+02   2.0097373012e+01    0.2019751    0.1395131 -42.57 0.0001257943    1.619    0.382
       268 -10.9118    116.7869    179.0722   1.1971660296e+02   2.1892849777e+01    0.6699563    0.3945486  53.43  0.001812411    1.767    0.434
       269  -8.6821      3.8666    182.5402   1.4572807520e+02   3.6093493984e+01    0.1452338    0.1080969  40.98  0.001018204    1.556    0.357
       270  -7.8370     56.2588    181.3533   1.3430664997e+02   3.0847549812e+01    0.1263352   0.09255931 -46.11 0.0004623765    1.611    0.379
       271  -8.5943      9.1938    190.7529   1.4533495091e+02   3.3864882669e+01    0.1453715    0.1155776 -65.73 0.0004258355    1.340    0.254
       272  -7.9421     43.3346    180.1618   1.3708029426e+02   3.2701324013e+01    0.1825513    0.1030913 -79.45 0.0009376465    1.675    0.403
       273  -7.3644     14.3644    180.3156   1.4337995263e+02   3.5662225649e+01     0.114727   0.07901906 -47.74 0.0007040193    1.767    0.434
       274  -9.5356    205.7746    177.8691   9.9634550480e+01   4.5306631568e+00    0.3119021    0.1941823 -28.12  0.001419675    1.774    0.436
       275 -11.9299    180.0324    167.5057   1.0283243646e+02   1.1764321487e+01    0.8093494    0.3920025 -33.67  0.002608909    2.513    0.602
       276 -13.2068    185.7959    166.2273   1.0131735568e+02   1.0821596210e+01     1.573469    0.9419317 -22.77   0.00624552    2.361    0.577
       277 -10.9788    177.7305    181.0075   1.0614195192e+02   9.5181869101e+00    0.3537196     0.335767  -4.96  0.001534098    1.067    0.063
       278  -8.3989    100.7707    175.9394   1.2299735031e+02   2.5434186793e+01    0.1913405    0.1709876  84.25  0.001073749    1.076    0.071
       279  -8.7517     84.0093    172.9909   1.2655382774e+02   2.8846138833e+01    0.1689115    0.1532577 -88.28 0.0003716277    1.010    0.010
       280  -9.4845     40.8221    171.6648   1.3662401119e+02   3.4926242046e+01     0.221518     0.147994 -63.68 0.0006306518    1.337    0.252
       281 -11.7235    148.5469    167.1954   1.0988444258e+02   1.8366057451e+01    0.6253062    0.4442314  24.19  0.002829921    1.696    0.410
       282 -10.5051      6.4374    163.4510   1.4349033690e+02   4.0058382589e+01    0.5380565    0.2910452 -53.13  0.003125655    1.845    0.458
       283 -11.0680    193.1407    163.5055   9.9178798612e+01   9.8343430494e+00    0.4736362    0.3611152  -8.59  0.001797941    1.616    0.381
       284 -10.6763    217.1345    161.3822   9.3913922585e+01   5.3509781940e+00    0.7217038    0.4107955  48.20  0.003039825    1.853    0.460
       285  -9.9678    217.2235    156.7735   9.2900376096e+01   6.1881541725e+00    0.3100105    0.2527964   1.18  0.001623005    1.380    0.275
       286  -8.3265    228.9275    156.2322   9.0603995041e+01   3.9745753855e+00    0.1917433    0.1763302  11.43 0.0004510048    1.097    0.088
       287  -9.0644     84.2324    154.3651   1.2329516161e+02   3.3174920411e+01    0.2436032    0.2252071 -67.55 0.0009091325    1.042    0.040
       288  -8.8121     39.7192    162.6353   1.3573547787e+02   3.7125066763e+01    0.1993207    0.1392251 -37.96  0.001113497    1.811    0.448
       289 -12.9532    170.4945    158.0407   1.0288406997e+02   1.5729518738e+01     1.085277    0.6843624  44.32  0.004781578    1.557    0.358
       290  -9.9942    123.3940    155.6762   1.1357250045e+02   2.5974079334e+01    0.4006591    0.3244162  50.31   0.00105908    1.228    0.186
       291  -9.1042    245.4591    150.0662   8.6400712481e+01   1.9248633864e+00    0.2441726    0.2064463  58.55 0.0007039466    1.397    0.284
       292  -8.1323     58.3105    150.3038   1.2929402084e+02   3.7807532485e+01    0.1326762   0.09810698 -35.56 0.0002760886    1.610    0.379
       293  -9.5439    149.8476    149.1556   1.0568049523e+02   2.2043799098e+01    0.2186525    0.1911176  -3.48  0.001085887    1.334    0.250
       294  -9.4138    133.9113    148.0318   1.0930917680e+02   2.5615809004e+01    0.2980322    0.2593928 -50.20 0.0008281696    1.157    0.136
       295 -11.2789     84.3651    146.1013   1.2170676081e+02   3.5098727602e+01    0.5565841    0.5253473  49.44  0.001671654    1.116    0.104
       296  -9.1730     26.8935    148.4245   1.3699533095e+02   4.1694698274e+01    0.2476295    0.1508194 -62.35  0.000841264    1.369    0.269
       297  -7.9682    100.5557    157.2219   1.1964801264e+02   2.9814483130e+01    0.2062544      0.13162 -44.31 0.0009359068    1.662    0.398
       298  -9.0412     12.1022    146.3743   1.4036559353e+02   4.3426783637e+01    0.2377061    0.1735668  59.15  0.001318299    1.487    0.328
       299  -7.8438    236.3608    145.8120   8.7041370168e+01   4.3975575776e+00    0.1952446    0.1233375 -29.06  0.000503532    1.614    0.380
       300 -11.1303    160.3341    159.4125   1.0549169235e+02   1.7597133584e+01    0.3767469    0.2912924 -48.01 0.0009870379    1.326    0.246
       301  -9.6241     48.3820    143.6768   1.3080652192e+02   4.0562181919e+01    0.3725928    0.2580546  28.79  0.001452652    1.687    0.407
       302  -9.0814    200.7613    141.5977   9.2732528542e+01   1.2524363892e+01    0.2123932    0.1441206  58.94 0.0009518897    1.673    0.402
       303  -7.7832    150.5276    141.5555   1.0378140853e+02   2.3559080274e+01    0.1537818    0.1509945  27.76 0.0003241167    1.032    0.031
       304  -8.7325    225.0243    139.0938   8.7567623450e+01   7.8742505690e+00    0.2749552    0.2011878  46.90     0.000851    1.441    0.306
       305  -9.0620    176.5003    139.4934   9.7332487840e+01   1.8285232871e+01    0.1521931    0.1515409  61.17 0.0008106363    1.011    0.011
       306  -9.7602     98.7969    137.7529   1.1614353015e+02   3.4661091558e+01    0.3722504    0.3251738 -66.53  0.001233689    1.137    0.121
       307  -9.8056    244.7254    133.6353   8.3017660416e+01   4.9221971906e+00    0.3665473    0.2408312  86.32  0.001562173    2.846    0.649
       308  -9.6652     42.2101    134.2092   1.3090829199e+02   4.3446382543e+01     0.288165    0.2464294 -61.28 0.0008891709    1.038    0.037
       309 -10.0398    173.1884    129.6765   9.5727610542e+01   2.1050521875e+01    0.3745682    0.2418109  23.92  0.001190311    2.190    0.543
       310  -7.7546    234.3828    133.1497   8.4622925876e+01   7.0496854579e+00    0.1946285    0.1226703 -48.04 0.0005824096    1.560    0.359
       311  -9.2384    146.1594    130.9876   1.0233406017e+02   2.6802894872e+01    0.2654562    0.1858204 -75.69  0.001088655    2.051    0.513
       312  -8.8996    242.3112    125.8596   8.1724792212e+01   6.7536366008e+00    0.1968554    0.1621512 -34.71 0.0005120495    1.137    0.120
       313  -8.2283    222.5561    126.5196   8.5187410062e+01   1.0697352202e+01    0.1439807    0.1358382 -40.81 0.0002077748    1.008    0.008
       314 -10.3659      9.6738    172.5951   1.4365607097e+02   3.7773499336e+01     0.412808    0.3215763 -29.15  0.002779248    1.862    0.463
       315  -9.7032    150.3656    123.7997   9.9552807466e+01   2.7417630424e+01    0.2742435    0.2389645  41.74  0.001376505    1.145    0.127
       316  -9.5019    165.7070    120.4322   9.5132223322e+01   2.4650971176e+01    0.3032751    0.1515664  52.45  0.001135465    2.071    0.517
       317 -10.6840    100.7873    116.9234   1.1080706062e+02   3.9048788271e+01     0.496722    0.3665338 -46.78 0.0006299975    1.310    0.237
       318 -10.6586     18.1737    115.2799   1.3449959736e+02   4.9936281769e+01    0.3833168    0.2687851 -76.11  0.001050737    1.343    0.255
       319  -8.6666    231.7978    116.5575   8.1372872245e+01   1.0541987753e+01    0.2481605    0.1797111  64.05  0.001259781    1.554    0.356
       320  -9.4880    146.8414    110.8181   9.7105312014e+01   3.0915272362e+01    0.2172165    0.1885467 -84.83 0.0005482045    1.333    0.250
       321  -9.7202    129.0203    110.4746   1.0150106266e+02   3.4886649623e+01     0.291267    0.2006168  50.42  0.001320728    1.490    0.329
       322  -9.1616     34.0044    109.5485   1.2885967781e+02   4.9867497081e+01    0.2957699    0.1953901 -31.74  0.001070627    1.637    0.389
       323  -9.6226    144.7213    106.5743   9.6510163215e+01   3.2256962257e+01    0.3021748    0.2358795   7.32  0.001385732    1.665    0.399
       324  -9.1360    250.5286    103.4805   7.5655749524e+01   8.9428941728e+00    0.3223197     0.122792 -38.11  0.001022629    2.410    0.585
       325 -10.3516      8.1940     99.3452   1.3480210317e+02   5.4100727850e+01    0.3242122    0.2351802 -49.23  0.001229699    1.142    0.125
       326  -8.7307    142.2066     98.3953   9.4937203500e+01   3.4454399011e+01    0.2144918    0.1446193  58.36 0.0004807762    1.608    0.378
       327  -8.4451     72.3423     98.2881   1.1453683465e+02   4.7762762959e+01    0.2155868    0.1487058 -20.64 0.0006228067    1.725    0.420
       328 -11.1240    242.6874     95.1129   7.4960218638e+01   1.1944213601e+01        0.407     0.343138 -34.41  0.002372045    1.217    0.178
       329  -8.9568     54.1498     95.8356   1.1964613435e+02   5.0709146306e+01    0.1894583    0.1783203 -62.04 0.0005549559    1.168    0.144
       330  -8.9409      2.2146     94.4279   1.3579466974e+02   5.5496085345e+01    0.1985864    0.1833315  80.70  0.001525093    1.314    0.239
       331  -8.8259    158.1629     91.2133   8.9240312888e+01   3.2134940832e+01    0.2562121    0.2352483  41.57  0.000526996    1.084    0.077
       332  -8.6776    114.3700     95.7368   1.0146497137e+02   4.0952627765e+01     0.327954    0.2138629   9.81  0.001204522    2.462    0.594
       333  -9.2551     16.8597     89.8466   1.3034311373e+02   5.5535278735e+01    0.4615513    0.2641598 -35.70  0.002664454    1.668    0.401
       334  -8.5145     16.3093     85.6688   1.2967436231e+02   5.6444701659e+01    0.3129055    0.1873595  36.63  0.001850442    2.084    0.520
       335  -9.2024    237.8210     89.3458   7.4387282892e+01   1.3930250303e+01     0.189629    0.1224316  49.82 0.0007953888    1.713    0.416
       336  -8.7912     33.9096     89.0261   1.2460504485e+02   5.4308050578e+01    0.1910732    0.1547185 -43.19 0.0003835477    1.028    0.027
       337  -9.6233    154.5468     82.5203   8.7673857173e+01   3.4564733978e+01    0.4168696     0.278171  52.47  0.001103583    1.445    0.308
       338 -10.1617    156.7938     78.1692   8.5971838671e+01   3.4791600932e+01    0.4696113     0.364898 -18.15   0.00101982    1.522    0.343
       339 -10.7169    243.8607     82.8913   7.2145313868e+01   1.3693220834e+01    0.3219438    0.2934183  39.86  0.001207993    1.338    0.253
       340 -10.9333    247.8625     74.6164   6.9858513293e+01   1.4154390064e+01    0.4105837     0.293509 -31.26  0.002264154    1.543    0.352
       341 -10.3996    245.0000     71.0133   6.9449552087e+01   1.5315154970e+01     0.296366    0.1707595 -48.81  0.001486213    1.572    0.364
       342 -12.7747     79.9720     76.0981   1.0600400505e+02   5.1050554345e+01    0.3733955    0.3509437 -16.46 0.0004311387    1.085    0.078
       343 -11.0418    115.8373     74.3886   9.4890131909e+01   4.4686280873e+01    0.4770816    0.4127274  73.16  0.001734031    1.407    0.289
       344 -12.2440     22.2621     74.4402   1.2514715728e+02   5.8280448992e+01    0.4004838    0.3853302  -7.77  0.002889107    1.253    0.202
       345  -9.8806     45.1469     75.2291   1.1736489084e+02   5.5964743125e+01     0.296349    0.2721582 -77.77 0.0009971511    1.419    0.295
       346  -9.0396    101.7878     73.4845   9.8567391007e+01   4.7661915751e+01    0.2578173    0.1972154 -36.38 0.0008661073    1.309    0.236
       347 -10.7235    227.3141     70.7608   7.1712257047e+01   1.9230089264e+01    0.4233115    0.3198636 -77.78 0.0005867619    1.361    0.265
       348  -9.0023      8.1287     72.8541   1.2972501696e+02   5.9576255253e+01    0.1710356    0.1455441 -68.52  0.001245888    1.313    0.238
       349  -7.9638    184.4210     77.8277   8.0313993723e+01   2.8189210202e+01    0.1956044    0.1450691 -21.64 0.0005725009    1.635    0.389
       350 -10.8566    143.8736     63.8650   8.4771433282e+01   4.0203092038e+01    0.5277822    0.4047734 -12.45  0.001587126    1.562    0.360
       351  -9.4848     52.1413     65.5824   1.1216446448e+02   5.6975694755e+01    0.2869115    0.2343795 -59.91 0.0009502555    1.545    0.353
       352 -10.2176    220.6814     79.8516   7.4748266567e+01   1.9284680296e+01    0.3759468    0.2669381  70.03 0.0005092999    1.449    0.310
       353  -9.1121    106.7801     66.4071   9.4953981648e+01   4.7908721313e+01    0.1991693    0.1257325  35.04 0.0009426705    1.579    0.367
       354  -9.7371     59.1036     61.2403   1.0839002194e+02   5.6853886934e+01    0.4603111    0.2982178  -5.01  0.002420835    1.833    0.454
       355 -11.4548     79.4114     54.9687   9.9520488213e+01   5.4826896870e+01    0.9730513    0.5605701  11.86  0.004263587    2.549    0.608
       356  -8.8389     27.7730     55.4871   1.1807305431e+02   6.1404348783e+01    0.2029549     0.182084 -60.27  0.001296113    1.463    0.317
       357  -7.9849    141.6226     53.7208   8.2284332586e+01   4.2260594029e+01    0.1513183    0.1017507  30.20 0.0007008243    1.708    0.414
       358  -7.8200    113.2971     53.3363   8.9028815282e+01   4.8636255559e+01    0.1438763    0.1021653  14.72 0.0004481721    1.652    0.395
       359  -9.5351     32.6798     54.8881   1.1603287317e+02   6.1050686608e+01    0.6396222    0.2127519 -46.39  0.002886702    2.495    0.599
       360  -8.4288    249.6643     51.3032   6.4791755900e+01   1.7227278975e+01    0.1361265   0.08352987 -69.75 0.0004356413    1.664    0.399
       361  -7.7437    171.9693     50.0008   7.5227081847e+01   3.5500130433e+01    0.1617238    0.1467363  69.68            0    1.006    0.006
       362  -8.6480    246.5015     46.5618   6.4158011886e+01   1.8559861309e+01      0.12751    0.1076979 -75.02 5.408731e-05    1.019    0.019
       363  -9.0621     15.1148     56.4279   1.2316510448e+02   6.2256538066e+01    0.3849426    0.1711656 -20.32  0.001808337    2.974    0.664
       364 -11.1984     21.4499     29.3691   1.1206840703e+02   6.6281361639e+01     1.197847    0.6209955  39.29  0.006704361    2.786    0.641
       365  -9.6675     13.9112     26.8711   1.1440441503e+02   6.7305137167e+01    0.2746617    0.1556451   8.70  0.001088509    1.766    0.434
       366 -10.3664     24.5177     38.5221   1.1399499234e+02   6.4580659420e+01     0.203511    0.1680071  12.19 0.0005578286    1.323    0.244
       367 -12.5554     19.7271     41.1139   1.1680269420e+02   6.4576475789e+01    0.5673544    0.3078292 -11.38  0.001275748    2.051    0.513
       368 -12.4010     12.9511     39.0802   1.1893560608e+02   6.5445151963e+01    0.5562606    0.3290748  -1.74   0.00196125    1.741    0.426
       369  -8.2391     75.6165     42.1870   9.6368864816e+01   5.7398858965e+01    0.1823212    0.1110038 -21.06 0.0009502909    1.709    0.415
       370  -8.4392     49.8797     40.7135   1.0484466392e+02   6.1436986263e+01    0.2203914    0.1409218 -24.96  0.000873815    1.418    0.295
       371  -8.7995     32.3936     40.7567   1.1158950881e+02   6.3459250514e+01    0.2033256    0.1469294  13.28 0.0007443019    1.349    0.259
       372  -9.6715     53.6836     36.4730   1.0190988920e+02   6.1556094916e+01    0.3040662    0.1987251   2.35  0.001151719    1.577    0.366
       373  -8.6349     44.9856     37.9829   1.0571285240e+02   6.2467469445e+01    0.2661187    0.1499457  -8.50  0.001151012    2.179    0.541
       374 -10.0859     45.8599     33.0605   1.0358080548e+02   6.3078498222e+01    0.3140031    0.2144015 -34.69 0.0009742129    1.440    0.306
       375  -9.6510    145.7205     34.4053   7.5699769316e+01   4.3844446873e+01    0.3992948    0.2325793  57.02  0.001212384    1.506    0.336
       376  -9.2519      4.7347     32.5605   1.2032352296e+02   6.7080769551e+01    0.3314344    0.1568536  31.17  0.001957658    2.650    0.623
       377  -9.3902     75.4769     32.2998   9.2851261120e+01   5.8761824557e+01    0.3492013    0.1632765  44.45  0.001135726    2.058    0.514
       378  -8.6202     79.4592     31.4791   9.1286587926e+01   5.8175459585e+01    0.2214956    0.1544919 -21.90 0.0007734474    1.434    0.302
       379  -8.2100    205.5118     31.4801   6.5566741166e+01   2.9815875784e+01    0.1334363    0.1141035  89.73 0.0008102165    1.010    0.010
       380  -9.1198     66.6463     30.4040   9.5068579277e+01   6.0460655334e+01    0.2234581    0.1763219   7.31  0.000587735    1.080    0.074
       381  -8.1309     54.4656     31.5361   9.9792179594e+01   6.2138262266e+01    0.1201351   0.09960885   0.19 0.0006614845    1.060    0.057
       382  -8.0384    110.7473     29.7680   8.1934817571e+01   5.2275133456e+01    0.2053779    0.1053271  64.02 0.0008833902    2.417    0.586
       383  -7.8081     91.6839     28.6816   8.6623206840e+01   5.6260861500e+01    0.1352223   0.08659505  20.01 0.0007039389    1.654    0.395
       384  -8.5084     40.6701     27.3061   1.0342075371e+02   6.4528732876e+01   0.09633417    0.0950347  21.01 0.0004980499    1.658    0.397
       385 -10.2010    225.2919    248.0378   1.0891039424e+02  -1.0167865924e+01    0.2329007    0.2027136   9.78 0.0003909373    1.146    0.128
       386  -7.9457    221.4633    248.4492   1.0968809565e+02  -9.6387141456e+00    0.1828967   0.09807204  29.57 5.782272e-05    1.641    0.391
       387  -8.0395    148.0000    245.4972   1.2346647693e+02   2.9979856290e+00    0.2567749   0.07548124 -50.70 0.0009488516    4.049    0.753
       388  -9.8635    157.2277    246.0248   1.2171491249e+02   1.3292256005e+00    0.3778194     0.241594  18.64 0.0003401452    2.087    0.521
       389  -9.2824    151.9555    244.4814   1.2253817957e+02   2.4922515519e+00    0.2664515    0.2439279 -86.71 0.0003706361    1.285    0.222
       390  -8.4286    119.9711    248.6723   1.2939220932e+02   7.1545942596e+00     0.173765    0.1330373  47.43 0.0003297571    1.100    0.091
       391 -10.4443     33.0678    248.1614   1.4529272170e+02   1.9697698557e+01     0.222011    0.1872674  69.80 0.0004614395    1.250    0.200
       392  -9.2618     24.9365    248.9235   1.4670266235e+02   2.0496442917e+01    0.2117891    0.1675414  33.34  0.001171673    1.781    0.438
       393 -11.1022    211.5388    246.8293   1.1128242139e+02  -7.8649872680e+00    0.3376215    0.2203195  34.82 0.0004929574    1.311    0.237
       394 -10.2116     66.8998     25.2519   9.3031387305e+01   6.1062500356e+01     0.437624    0.1935918  28.58  0.001999318    2.492    0.599
       395  -8.4744    210.6432    241.9517   1.1064739941e+02  -7.0253957936e+00    0.1719113    0.1577007  28.20 0.0003757446    1.232    0.188
       396  -9.1666     84.0009     20.0156   8.5677568382e+01   5.8679916970e+01    0.2539964    0.1708819 -26.96  0.001295158    1.594    0.373
       397  -9.6180    140.8601    247.2254   1.2511515615e+02   3.9187111617e+00    0.2086296    0.1965835  32.13 0.0003747685    1.173    0.148
       398  -9.3432     58.4866     18.3856   9.3242277073e+01   6.3191792746e+01    0.2461666    0.1651462  13.85 0.0007119769    1.347    0.258
       399  -7.9225    128.5565     22.5068   7.5525999958e+01   4.9149749051e+01    0.1323089    0.1140254  46.80 0.0001189119    1.009    0.009
       400  -8.8061     76.0258    246.2518   1.3750058819e+02   1.4414946884e+01    0.2954457    0.1491397 -54.25  0.001550704    2.420    0.587
       401 -10.0333    243.2171    245.2981   1.0518482054e+02  -1.2455454119e+01    0.2364395     0.168389 -14.06 0.0003605063    1.321    0.243
       402  -9.1929    245.1487    229.8538   1.0214527022e+02  -1.0679290425e+01    0.2880938    0.2005298 -15.48  0.001076795    1.355    0.262
       403 -10.2223    247.8413    238.5995   1.0320536837e+02  -1.2247672880e+01    0.3180781    0.1935818  28.90  0.001327992    1.455    0.313
       404  -9.4383    243.3097    234.5326   1.0330520646e+02  -1.1046456314e+01    0.2984325    0.2596582 -75.00  0.000743382    2.172    0.540
       405  -8.6180    238.7469    234.5695   1.0413793182e+02  -1.0372121054e+01    0.2042695    0.1787048 -42.34  0.001363272    1.565    0.361
       406  -9.3332    193.1725    243.3403   1.1423814381e+02  -4.3594655157e+00    0.4530565    0.3040346  66.90  0.001525759    2.669    0.625
