#   1 NUMBER                 Running object number                                     
#   2 MAG_AUTO               Kron-like elliptical aperture magnitude                    [mag]
#   3 X_IMAGE                Object position along x                                    [pixel]
#   4 Y_IMAGE                Object position along y                                    [pixel]
#   5 X_WORLD                Barycenter position along world x axis                     [deg]
#   6 Y_WORLD                Barycenter position along world y axis                     [deg]
#   7 A_WORLD                Profile RMS along major axis (world units)                 [deg]
#   8 B_WORLD                Profile RMS along minor axis (world units)                 [deg]
#   9 THETA_WORLD            Position angle (CCW/world-x)                               [deg]
#  10 FWHM_WORLD             FWHM assuming a gaussian core                              [deg]
#  11 ELONGATION             A_IMAGE/B_IMAGE                                           
#  12 ELLIPTICITY            1 - B_IMAGE/A_IMAGE                                       
         1 -14.8130      9.9974    152.6949   1.4609238780e+02   4.2366696214e+01      6.12838     1.891739 -87.95    0.0237598    3.798    0.737
         2 -13.2233    192.6732     29.3363   6.9561977619e+01   3.2977573609e+01     1.322581     1.282308  46.88  0.007099919    1.123    0.109
         3 -13.4918    207.1540     10.1071   6.2519970283e+01   3.1332737755e+01     1.514012     1.064204  37.58  0.007936238    1.747    0.428
         4 -11.9700      2.3661      6.0144   1.2103213659e+02   7.3633984723e+01    0.7942018    0.2581212 -52.13  0.003964339    2.628    0.620
         5 -11.9382      2.1623     27.2218   1.2903666326e+02   6.9885677316e+01     1.279084    0.1327601 -61.16  0.003098654   10.122    0.901
         6 -10.8386    107.6731    248.2570   1.3483547597e+02   1.1655387430e+01     0.257919    0.1887834  66.90  0.001210809    1.271    0.213
         7 -11.0440    248.6938    248.6890   1.0966522691e+02  -1.0373562556e+01    0.3104627    0.2048173  40.17  0.002098009    1.602    0.376
         8 -11.0705    126.2029    249.8498   1.3163531697e+02   8.5758067051e+00     0.419136    0.1202474  44.47  0.001815049    2.567    0.610
         9 -10.6162    101.4707    246.4720   1.3578794160e+02   1.2861729882e+01      0.19188    0.1604888  77.79 0.0009348357    1.239    0.193
        10 -10.7514     97.9663    249.0097   1.3664950621e+02   1.2971711444e+01    0.2726942    0.2181764  41.13  0.001288057    1.312    0.238
        11  -9.9944     97.2771    245.6351   1.3646865088e+02   1.3612898108e+01    0.1951981    0.1275903  66.67  0.001265769    1.415    0.293
        12 -10.0040      3.0833    249.1593   1.5243154782e+02   2.4448253452e+01    0.2477446    0.1952893  56.60  0.002222051    1.389    0.280
        13 -10.3725    235.0360    239.3872   1.1051833733e+02  -7.4400940697e+00     0.191554    0.1558765 -44.98  0.001310055    2.006    0.501
        14  -9.5356     11.4959    239.6920   1.5076893740e+02   2.5213133657e+01    0.2472025     0.105052  59.95   0.00122972    1.695    0.410
        15  -9.0714     69.1254    235.0596   1.4066331513e+02   1.9339212503e+01    0.1752922    0.1395081 -60.24  0.001258082    1.676    0.403
        16 -13.3140      8.4925    203.6511   1.4962131810e+02   3.2034436897e+01     2.517231    0.7901328 -89.89   0.01015948    3.217    0.689
        17  -9.9923      3.6039    228.0296   1.5156296882e+02   2.7994764417e+01    0.2670609    0.1035566  65.50  0.001619071    2.001    0.500
        18  -9.7195      7.8275    226.1274   1.5079053205e+02   2.7935744109e+01    0.1689815    0.1239253  51.68 0.0004644731    1.337    0.252
        19 -10.0015    230.5309    232.0058   1.1011899217e+02  -5.9325778653e+00    0.2020114    0.1922872  75.98 0.0008647726    1.805    0.446
        20 -10.2099    173.5203    222.6960   1.1920516819e+02   4.7901114011e+00    0.3313626    0.1457026  35.52  0.001506374    2.028    0.507
        21 -10.0876    228.5073    228.0287   1.0982574649e+02  -5.1549951620e+00    0.2721294    0.2132453 -58.19  0.001649337    2.424    0.587
        22  -8.6653     94.4012    216.5172   1.3412834561e+02   1.9081342171e+01    0.2299382    0.1265178  75.86  0.001044668    2.380    0.580
        23 -10.1977    139.9633    230.5046   1.2680781560e+02   9.3405927695e+00    0.2023211    0.1010731  41.42  0.001034999    1.600    0.375
        24  -8.6097    152.5556    212.9410   1.2190061437e+02   1.0027727666e+01    0.1606174    0.1326087 -49.20 0.0003327479    1.464    0.317
        25  -9.0549     34.8099    202.2763   1.4460945499e+02   2.9666645651e+01    0.1647216    0.1150256  68.98  0.000393943    1.120    0.107
        26 -11.3207     64.2533    198.1841   1.3836348963e+02   2.6931583700e+01    0.2977439      0.22974 -48.38  0.001179987    1.761    0.432
        27  -9.6131    191.9690    192.9291   1.1059777644e+02   6.0191740701e+00    0.4404653    0.2281809 -61.21  0.001394604    5.615    0.822
        28  -8.1846     51.7006    197.3427   1.4086242506e+02   2.8697312499e+01    0.1278948   0.07156936  68.53 0.0003252285    1.672    0.402
        29 -11.2760    139.5338    249.1271   1.2912337859e+02   6.5818232486e+00    0.3253499    0.2517361  50.46  0.002261281    1.086    0.079
        30  -9.6115     42.5003    194.4617   1.4248644281e+02   3.0370077062e+01    0.2804492    0.1219051  64.90  0.001366329    2.376    0.579
        31 -11.5239     69.9722    190.2326   1.3633502223e+02   2.7787487769e+01    0.2577174    0.2230895 -68.97 0.0004466697    1.303    0.233
        32 -12.9498     66.5967    175.5434   1.3541289125e+02   3.1356433801e+01    0.4582429    0.2683177 -45.92  0.001682555    2.281    0.562
        33 -10.7118     79.6131    177.5783   1.3269550561e+02   2.9092073429e+01    0.2271807    0.2096858  80.79 0.0004069351    1.130    0.115
        34  -8.1469    101.3002    177.6742   1.2773001694e+02   2.5693560135e+01    0.1412746   0.09569375  71.82 0.0004828444    1.635    0.389
        35 -11.5508     86.9715    168.3485   1.2971641305e+02   2.9990023701e+01    0.6071897    0.5153794  54.05  0.003667757    1.117    0.105
        36  -9.7615     99.3051    152.0099   1.2406553591e+02   3.1627918339e+01    0.2726093    0.2576382  89.05 0.0007861872    1.054    0.051
        37  -8.9667    101.9760    148.0037   1.2266388857e+02   3.2071654230e+01    0.2571368    0.1771368 -32.32 0.0009789796    1.979    0.495
        38 -11.6283     87.8401    151.3967   1.2686610842e+02   3.3638202567e+01    0.2779033    0.2506166 -45.48 0.0005974119    1.269    0.212
        39 -12.2741     67.2808    143.9276   1.3096544481e+02   3.8354068198e+01    0.7228929    0.4762855  69.62   0.00373949    1.681    0.405
        40 -11.5258     58.3519    134.0090   1.3179895405e+02   4.1807371938e+01    0.9959288    0.3917609 -80.36  0.002914682    5.340    0.813
        41  -8.2062    192.1963    143.9660   1.0048390760e+02   1.4357411858e+01    0.1869573    0.1175446 -37.93 0.0004220297    1.648    0.393
        42 -12.3806     38.5255    232.3870   1.4590607110e+02   2.3604014089e+01    0.2675524    0.2240179 -80.00 0.0007762948    1.446    0.309
        43 -10.1717     97.6154    134.4936   1.2121299082e+02   3.5893720829e+01    0.2602295    0.2305545 -25.12 0.0008656518    1.340    0.254
        44 -10.1846     83.5574    134.4611   1.2501196110e+02   3.8193668496e+01    0.2677592    0.2128408  73.08 0.0006393698    1.327    0.246
        45  -9.6874     35.8537    133.8298   1.3781461030e+02   4.4337144960e+01    0.1714917    0.1282659  70.72 0.0004715169    1.315    0.239
        46  -9.5808    110.4350    137.0190   1.1831927159e+02   3.3034329325e+01    0.3505276    0.2426755 -26.84  0.001219491    2.033    0.508
        47  -9.1111    107.1039    123.9720   1.1639362121e+02   3.6601097985e+01     0.204625    0.2037261 -60.16 0.0003166185    1.057    0.054
        48 -10.1942    168.0997    113.1076   9.8183486323e+01   2.5727326184e+01    0.3576429    0.2936668 -82.84 0.0008217179    1.543    0.352
        49  -8.9668    203.4583    111.4676   9.0358111903e+01   1.7608455061e+01    0.1533187    0.1433756  10.26 0.0008074027    1.067    0.063
        50 -14.3276     44.3395    223.9730   1.4433810255e+02   2.4446384959e+01       5.4343     1.081489  37.72   0.01510755    4.061    0.754
        51  -9.7553     73.0445     86.1116   1.1738156145e+02   5.0871112738e+01    0.2132074    0.1972583  61.34 0.0004602787    1.220    0.180
        52  -8.8503     36.6618     63.6277   1.2440608689e+02   6.0155397405e+01    0.1784466    0.1428166  49.67 0.0004108986    1.596    0.373
        53  -8.9627     32.6617     61.7269   1.2546173611e+02   6.0922709361e+01    0.1828378    0.1392598 -51.77  0.000364325    1.118    0.105
        54 -10.1106     28.6481     60.7256   1.2678489806e+02   6.1476536943e+01    0.2550118     0.199228  43.72 0.0007072109    1.618    0.382
        55  -9.0141     88.6283    249.1872   1.3832456178e+02   1.4283995318e+01    0.1289019    0.1016203 -63.58 0.0003858512    1.640    0.390
        56  -9.7661     81.4511    248.7977   1.3955668192e+02   1.5349634157e+01    0.1831608    0.1099712  43.47  0.001183812    1.389    0.280
        57 -10.4333     35.2962    244.5512   1.4714438684e+02   2.1864310113e+01    0.3338834    0.2512894 -63.80  0.002595747    1.827    0.453
