#   1 NUMBER                 Running object number                                     
#   2 MAG_AUTO               Kron-like elliptical aperture magnitude                    [mag]
#   3 X_IMAGE                Object position along x                                    [pixel]
#   4 Y_IMAGE                Object position along y                                    [pixel]
#   5 X_WORLD                Barycenter position along world x axis                     [deg]
#   6 Y_WORLD                Barycenter position along world y axis                     [deg]
#   7 A_WORLD                Profile RMS along major axis (world units)                 [deg]
#   8 B_WORLD                Profile RMS along minor axis (world units)                 [deg]
#   9 THETA_WORLD            Position angle (CCW/world-x)                               [deg]
#  10 FWHM_WORLD             FWHM assuming a gaussian core                              [deg]
#  11 ELONGATION             A_IMAGE/B_IMAGE                                           
#  12 ELLIPTICITY            1 - B_IMAGE/A_IMAGE                                       
         1 -12.9717     68.5370    144.1552   1.0562705137e+02   3.7395042487e+01     2.174355     1.126663  80.17  0.005860347    4.049    0.753
         2 -12.3162    196.9469     39.4448   4.6383203224e+01   3.1546884104e+01    0.9739085    0.9297052 -80.02  0.003214063    1.050    0.047
         3 -12.4505    206.6083     29.5168   4.2550926941e+01   3.0479922106e+01    0.8320459    0.7070356  29.07  0.001617674    1.478    0.323
         4 -11.5190    230.8224      4.2397   3.4211735004e+01   2.7749501834e+01     0.806946    0.4637036  76.17   0.00457172    1.626    0.385
         5  -9.2647     59.5258      3.4923   6.4064264649e+01   6.6920480281e+01    0.1249831   0.09883786  14.47 0.0008100742    1.005    0.005
         6  -8.6031     77.6283    226.5718   1.1407448973e+02   1.7567700092e+01    0.2032667    0.1386979 -82.48 0.0006005784    1.515    0.340
         7  -9.2014    141.4485    249.8717   1.0406490289e+02   4.0991031276e+00    0.2547948    0.1155776  43.86  0.001041085    1.843    0.457
         8 -15.4147     48.7975    201.5477   1.1763948169e+02   2.6402619073e+01     15.34834     6.212587  79.99   0.05423279    4.384    0.772
         9 -14.5861     31.7727    249.7691   1.2431392323e+02   1.8784342850e+01     8.010357     2.338805  27.18    0.0103792   16.025    0.938
        10 -15.6609      2.2876    224.2641   1.2810032597e+02   2.6484177621e+01     18.58147          nan -75.13   0.01710552   16.267    0.939
        11  -9.7379    109.4152    201.4027   1.0433418625e+02   1.8008773484e+01    0.3105866     0.275351 -28.32  0.001165035    1.381    0.276
        12  -9.1898    193.9327    197.1691   8.5291569052e+01   4.2923270534e+00    0.4309314    0.2047706 -48.26  0.001825275    2.547    0.607
        13  -8.4008     71.1888    185.9636   1.1100405613e+02   2.7055260137e+01    0.2017479    0.1545892  69.79 0.0006006038    1.236    0.191
        14  -8.3196     99.4946    180.8953   1.0360533588e+02   2.4061190099e+01    0.2008326    0.1339427 -59.93  0.000688325    1.508    0.337
        15  -8.2370    150.6772    179.1279   9.1214034756e+01   1.5544072058e+01    0.3557248    0.2296469 -76.70  0.001426161    2.727    0.633
        16  -8.1925    144.3259    180.3192   9.2898567880e+01   1.6465535490e+01    0.1473815     0.113445  -3.98 0.0007046222    1.679    0.404
        17 -10.6818     71.3791    174.4770   1.0947311263e+02   2.9685735863e+01    0.4655738    0.3019847 -34.44  0.002230875    2.235    0.553
        18 -10.5748     75.2193    169.7906   1.0787517438e+02   3.0264201053e+01    0.3451853    0.2918593 -29.13  0.001779398    1.501    0.334
        19  -8.2226     83.9925    174.4872   1.0639546088e+02   2.7903918765e+01    0.1987798    0.1341355  35.85 0.0005105013    1.534    0.348
        20  -8.5352    105.3139    173.3176   1.0097604505e+02   2.4852426952e+01    0.1406635    0.1127596 -19.44 0.0003545865    1.647    0.393
        21 -12.8522     18.8108    192.2453   1.2315114098e+02   3.1577993176e+01     1.166077    0.8316189 -86.07 0.0003605891    1.157    0.136
        22 -13.3188     57.4593    240.3567   1.1914592980e+02   1.7535902456e+01     1.053148    0.5208384  55.59   0.00410132    1.701    0.412
        23 -12.2620     55.5432    146.2987   1.0951921762e+02   3.8504791277e+01    0.8463817    0.6645072  -0.89  0.004681482    1.741    0.426
        24 -11.1345     83.6922    161.0669   1.0439303497e+02   3.1130465104e+01    0.9184628    0.4607271  58.58  0.001905875    2.638    0.621
        25 -12.0555     72.0757    155.7679   1.0656753437e+02   3.4069648382e+01    0.5451352    0.4538642 -45.79  0.001173617    1.300    0.231
        26  -9.6665    124.0285    247.5807   1.0715731881e+02   7.0831552864e+00    0.2474414    0.2171086  60.38  0.001742687    1.145    0.127
        27  -9.6272    133.2817    141.9694   8.7727221558e+01   2.7047427308e+01    0.6833227    0.2143261 -53.22  0.001964553    3.688    0.729
        28  -9.5152     40.2185    142.1438   1.1307816069e+02   4.1210851728e+01    0.1954214    0.1847899 -18.86 0.0005113813    1.303    0.232
        29 -10.4164     40.9897    147.3877   1.1357125721e+02   3.9849774697e+01    0.3705413    0.2523398 -72.70  0.001980531    1.262    0.208
        30  -9.7564     45.4675    145.0049   1.1205364700e+02   3.9961851471e+01    0.2432515    0.1891858  51.90 0.0007082972    1.357    0.263
        31  -8.0262     84.4572    143.9926   1.0121399887e+02   3.5165894818e+01    0.2155843    0.1354054 -60.69 0.0003416759    1.504    0.335
        32  -9.3283    103.4367    139.5099   9.5105354076e+01   3.3176181629e+01     0.554655    0.3400478 -21.85   0.00206942    2.841    0.648
        33 -10.6023     91.2401    139.2108   9.8412372354e+01   3.5280016626e+01    0.2899046    0.2653404 -31.20 0.0004826602    1.184    0.155
        34  -9.5408     44.7265    138.7120   1.1135743542e+02   4.1587762482e+01    0.2455336     0.173421 -71.84 0.0009292772    1.231    0.188
        35 -10.0135     41.4692    207.3040   1.1965597586e+02   2.6009798555e+01    0.3612737    0.1960861  73.71   0.00196482    1.811    0.448
        36  -9.0112    105.6295    130.8881   9.2617889898e+01   3.4865594511e+01    0.3423271    0.2615469 -59.65  0.001367969    1.300    0.231
        37 -10.6712     44.7831    130.2880   1.1005992711e+02   4.3660405690e+01    0.3348977    0.1926011 -60.52  0.001679198    1.475    0.322
        38  -9.8614    112.8327    129.5908   9.0319248364e+01   3.3864473631e+01    0.3787947    0.2785714 -19.54 0.0009948714    1.765    0.433
        39 -10.4999     66.5568    128.0615   1.0330320315e+02   4.1639372532e+01    0.3011592    0.2144501  67.55  0.001492317    1.697    0.411
        40 -10.7561     39.8885    124.5440   1.1057825780e+02   4.5574281188e+01    0.4363588    0.1845111 -54.83  0.001925323    1.983    0.496
        41  -9.2917     99.7599    125.9056   9.3146234970e+01   3.7094249919e+01    0.3198451    0.2541411 -11.65  0.001270538    1.581    0.368
        42  -8.7242    135.0000    120.0006   8.1982145302e+01   3.1695416814e+01    0.2649838   0.08814909 -45.78 0.0008013526    2.935    0.659
        43  -8.3643    108.5186    118.9924   8.8990237757e+01   3.7172164595e+01    0.2194994    0.2058665  37.60 0.0003403102    1.113    0.101
        44  -7.6270    157.5784    160.5335   8.5873481477e+01   1.8129876562e+01    0.1468005    0.1452776   7.76 7.075504e-05    1.047    0.045
        45 -12.2397     41.8606    109.7239   1.0740867083e+02   4.9017605123e+01     0.963437     0.504728 -78.58  0.004190958    2.271    0.560
        46 -10.6614     45.7738    109.5946   1.0613264943e+02   4.8650020613e+01    0.3737546      0.26574  45.01  0.002037586    1.622    0.384
        47  -8.7488    134.7628    111.0321   7.9688433783e+01   3.3739820012e+01    0.2185335     0.130018 -44.77 0.0008866662    1.640    0.390
        48  -8.5336    205.3359    110.1412   6.3669509298e+01   1.8138051038e+01    0.2519044    0.2045542  35.20 0.0008945458    1.336    0.252
        49  -9.9368    115.2241    108.1301   8.4272085962e+01   3.8407009357e+01    0.5392357    0.1255789 -48.04  0.001404236    4.210    0.762
        50 -10.3884     53.7163    109.7579   1.0362113811e+02   4.7735707838e+01    0.3395055     0.277983  67.95  0.001252261    1.429    0.300
        51  -9.2398     55.0507     94.6499   9.9820429049e+01   5.1212164899e+01    0.2604323     0.153364 -75.77 0.0009208873    2.292    0.564
        52 -10.6344     90.1742    154.0730   1.0150965425e+02   3.1831801216e+01    0.6053295    0.4284053 -23.59  0.001400306    2.019    0.505
        53  -8.1741    157.5080     81.5155   6.5642642925e+01   3.4584871418e+01    0.1531218    0.1508886 -19.49 9.732837e-05    1.002    0.002
        54 -10.5601    162.6237    224.1433   9.6312512099e+01   4.9702497976e+00    0.3346521    0.2435606  24.46  0.001928354    1.302    0.232
        55  -7.6142    184.6814     76.6898   5.8657978343e+01   2.8898738200e+01    0.1523261    0.1181622  17.22 0.0004959417    1.641    0.391
        56  -9.7381     54.0535    221.7149   1.1832139140e+02   2.1562086538e+01    0.4176628     0.163839  54.72  0.001196586    2.377    0.579
        57 -12.0998    186.2132     48.1786   5.0368828635e+01   3.2983075631e+01    0.8644054    0.6887651  12.75  0.002112314    1.607    0.378
        58 -15.9563      5.6790    246.4171   1.2848072033e+02   2.2037322002e+01     14.93908     1.690774 -78.50   0.03022704    8.119    0.877
        59  -9.6609     59.4864    231.3831   1.1806085707e+02   1.8987473695e+01    0.2654379    0.1888595 -86.45 0.0009802002    1.346    0.257
        60 -10.1356     49.0939    216.6134   1.1888238397e+02   2.3191904495e+01    0.5089089    0.3945036 -14.03   0.00307449    2.324    0.570
        61  -8.9386    148.8768     44.9809   5.6140508544e+01   4.2688157060e+01    0.2444243    0.2052428  59.54 0.0004340014    1.158    0.137
        62  -9.9396     27.3779     35.8608   9.3339193973e+01   6.6597136704e+01    0.1920071    0.1609536  15.71 0.0008205326    1.361    0.265
        63  -9.4259     92.2888    217.1531   1.1006555772e+02   1.7378650047e+01    0.3194893    0.2142549 -64.47  0.001833758    1.588    0.370
        64  -8.9045    113.7865    206.9707   1.0414725246e+02   1.6164053747e+01    0.2187168    0.1467596  79.55  0.001078233    1.974    0.494
        65  -7.9793    198.2860     23.3457   4.1920537374e+01   3.3203536524e+01    0.1308526    0.1003509  32.59 0.0003618903    1.649    0.394
        66 -10.0342    147.4960     51.6337   5.8592836775e+01   4.2054529557e+01     0.451792       0.3112 -74.29  0.001969771    2.110    0.526
        67  -9.3227     44.8634    230.2112   1.2074366910e+02   2.0969503756e+01    0.2797725    0.2261366  17.09  0.001425216    1.832    0.454
