#   1 NUMBER                 Running object number                                     
#   2 MAG_AUTO               Kron-like elliptical aperture magnitude                    [mag]
#   3 X_IMAGE                Object position along x                                    [pixel]
#   4 Y_IMAGE                Object position along y                                    [pixel]
#   5 X_WORLD                Barycenter position along world x axis                     [deg]
#   6 Y_WORLD                Barycenter position along world y axis                     [deg]
#   7 A_WORLD                Profile RMS along major axis (world units)                 [deg]
#   8 B_WORLD                Profile RMS along minor axis (world units)                 [deg]
#   9 THETA_WORLD            Position angle (CCW/world-x)                               [deg]
#  10 FWHM_WORLD             FWHM assuming a gaussian core                              [deg]
#  11 ELONGATION             A_IMAGE/B_IMAGE                                           
#  12 ELLIPTICITY            1 - B_IMAGE/A_IMAGE                                       
         1 -11.0398     31.9107     64.4062   1.0000128005e+02   6.0514383565e+01     1.827519    0.6298957 -32.06  0.005853939    4.754    0.790
         2 -10.7183     23.1359     34.4039   9.4149598206e+01   6.7263761161e+01    0.6284164    0.3993402 -16.56  0.003319815    1.503    0.335
         3  -9.6281     26.0078     24.5051   8.8745851191e+01   6.8715335636e+01    0.8142956    0.3439468 -21.48  0.003269752    3.563    0.719
         4 -10.2529      4.7438     42.1871   1.0557902990e+02   6.7054625549e+01     1.102791    0.3768544 -66.84  0.004401756    3.668    0.727
         5 -10.0074     73.5792     17.3374   6.5124564492e+01   6.2789836114e+01    0.8860027    0.2390079 -28.41  0.003173012    3.817    0.738
         6  -9.7557     71.0136     27.4455   7.0513421626e+01   6.1965494321e+01     1.212439    0.3266643 -31.46  0.004147719    3.899    0.744
         7 -10.0074     46.3125     29.7105   8.1454154456e+01   6.5486570198e+01    0.7246795    0.3660578 -34.46  0.003153658    1.785    0.440
         8 -10.3321     52.4169     13.9905   7.1584806569e+01   6.6834097113e+01    0.9796749    0.4575553  21.09  0.004259571    2.858    0.650
         9  -9.3097    102.6509     21.8168   5.8213922888e+01   5.6348948706e+01    0.5393804    0.2752985 -22.57  0.002083132    2.106    0.525
        10  -8.5830    104.4553     15.2442   5.5125431386e+01   5.6655569525e+01    0.3698761    0.1803168  19.09  0.001407682    3.262    0.693
        11  -9.4723     60.8899     31.5254   7.6133534902e+01   6.3071792448e+01    0.8181325    0.3259628 -29.28   0.00278214    2.699    0.629
        12 -10.0568     62.8251      3.1028   6.2165266877e+01   6.6279055246e+01    0.4700028    0.3393559  28.60  0.002576833    1.159    0.137
        13  -9.4102     63.3602     21.4903   7.0733282748e+01   6.4091389837e+01    0.3961031    0.2450781 -45.23 0.0006669669    2.155    0.536
        14 -10.2178     64.3166     12.8345   6.6347368704e+01   6.4990629728e+01    0.4765034    0.3152642 -27.97  0.001640604    1.541    0.351
        15  -9.3622     91.4860     26.3791   6.3239138329e+01   5.8180025421e+01    0.5081599    0.2351047 -42.39  0.001825257    2.674    0.626
        16  -9.6239    119.0907     19.9922   5.3488782103e+01   5.2817032830e+01    0.5886099    0.2815987 -17.09  0.001917999    2.513    0.602
        17  -8.6616    112.4867     15.6549   5.3355200636e+01   5.4796993963e+01    0.2438748    0.2167812 -39.92    0.0014893    1.297    0.229
        18  -8.8217     40.8273     20.2067   7.9659859800e+01   6.7664286140e+01    0.3217587    0.1555251 -36.16  0.001193007    1.901    0.474
        19 -10.6845     37.3824      9.2937   7.5929367024e+01   6.9619818582e+01    0.8561792     0.260103 -38.20  0.002656075    3.338    0.700
        20 -10.4337     27.4034     11.6941   8.2087328694e+01   7.0537635599e+01    0.7919077    0.4922747  31.07  0.004778265    1.726    0.421
        21 -10.2611     18.4330      5.3968   8.3661932742e+01   7.2393386161e+01    0.5764147    0.3597614 -44.79  0.003200131    1.971    0.493
        22  -9.5046      2.2041     14.2766   9.7175088134e+01   7.2360597703e+01    0.4462444    0.2010708 -60.01  0.002185699    3.091    0.677
        23 -10.3960      5.7335      4.9236   9.0787117519e+01   7.3607773014e+01    0.4865994    0.3366679 -14.97  0.002131313    1.111    0.100
        24  -9.8059     10.1515     18.9980   9.4701137810e+01   7.1021731841e+01    0.6742449    0.2681932 -15.98  0.002638148    4.331    0.769
        25 -10.1537    131.3895     18.4995   5.0360039927e+01   5.0049614874e+01    0.5495972    0.3828124   2.57  0.002847707    1.735    0.424
        26  -8.3030    126.7512      9.0596   4.7912859408e+01   5.2074101454e+01    0.2561227    0.1853514  37.88 0.0005463132    1.330    0.248
        27  -8.7415    125.5560      5.0969   4.6716711339e+01   5.2701559756e+01    0.3581617    0.2142424  32.69  0.001001346    1.776    0.437
        28  -8.0252    122.7254      8.3619   4.8436581132e+01   5.3094016312e+01    0.2050869    0.1584326 -45.00 0.0005207562    1.507    0.337
        29  -8.0383    120.9850      5.7468   4.7818230588e+01   5.3731000114e+01    0.2537308     0.152318  47.88 0.0005695595    1.450    0.310
        30  -9.2499     96.1487     14.6797   5.7055567303e+01   5.8532294703e+01    0.5441402    0.2283863 -18.05   0.00226051    2.802    0.643
        31  -8.0920     84.7487      6.6899   5.6807605851e+01   6.1707250908e+01     0.355084    0.1577151  26.20  0.001451029    2.893    0.654
        32  -9.6153     85.3364     13.1801   5.9493677521e+01   6.0951583107e+01    0.4376065    0.2653461 -50.59  0.001731946    2.595    0.615
        33  -7.9254     80.4839     12.4861   6.0672531084e+01   6.1998834651e+01    0.2366594    0.1606231 -49.82  0.000821872    2.176    0.540
        34  -8.9754    235.8465     11.0634   3.5154490873e+01   2.5768821472e+01    0.2347856    0.1729127 -43.54 0.0003862217    1.282    0.220
        35  -8.2310    141.4729     12.2857   4.6386507077e+01   4.8210679666e+01    0.1746184    0.1236034 -40.25 0.0006004763    1.553    0.356
        36  -8.9703    114.1143      9.9035   5.0787686539e+01   5.4973035527e+01    0.2938492    0.2010481  21.64 0.0003355231    1.571    0.363
        37  -9.4375    110.3868      5.3417   4.9837091534e+01   5.6230794767e+01    0.4390429    0.2665491  -7.64  0.002283853    1.894    0.472
        38  -8.7440    115.2389      4.3696   4.8446772200e+01   5.5191485824e+01    0.2894135    0.2272751 -63.07 0.0008754871    1.612    0.380
        39  -8.7163    155.6064      9.2954   4.3210807736e+01   4.5007339015e+01    0.2381571    0.1227473 -29.42 0.0008441636    2.073    0.518
        40  -8.9376    101.9332      7.7985   5.2745961910e+01   5.7926747274e+01    0.3699497    0.2262437 -48.50 0.0009123653    2.234    0.552
        41  -8.2250    104.0513      2.2974   5.0028100713e+01   5.7917979968e+01    0.2323421    0.1537383  26.85 0.0008035292    1.503    0.335
        42  -8.8790    125.3448     13.0488   4.9619799940e+01   5.2041384945e+01    0.4443092    0.2725671 -64.82  0.001583927    2.447    0.591
        43  -8.7694     72.0355      8.4564   6.1561523106e+01   6.4050287161e+01    0.2309158    0.1527876   2.67 0.0006719694    1.525    0.344
        44  -8.8887    131.3546      5.8255   4.5931686040e+01   5.1250627565e+01    0.3061768    0.2139123  31.33  0.000882451    1.503    0.335
        45  -9.7626    134.0000      3.9842   4.4841927650e+01   5.0766037366e+01    0.4433513    0.2826676  12.77  0.002275991    1.969    0.492
        46  -8.2605     77.2719      6.6324   5.9022604196e+01   6.3217510126e+01    0.2032595    0.1727814  48.02 0.0005602187    1.265    0.209
        47  -9.1511     78.6141      3.1503   5.7009524482e+01   6.3269556163e+01    0.3138678    0.2797602   8.52  0.001751714    1.146    0.127
        48  -8.8082    247.8600      5.3775   3.3081556463e+01   2.3829023808e+01    0.1993139    0.1595208 -39.66  0.000562954    1.316    0.240
        49  -8.3443     97.5629      5.9541   5.3059045787e+01   5.9052491356e+01     0.229636    0.1623768  20.93 3.138154e-05    1.399    0.285
        50  -8.1902     96.2280      2.9982   5.2154446976e+01   5.9593973821e+01    0.1945132    0.1743136  60.23 0.0005313682    1.213    0.176
        51  -8.3309    143.0005      4.9562   4.3716370062e+01   4.8495021987e+01    0.2104149    0.1451951 -64.78 0.0005687275    1.721    0.419
        52  -8.4086     88.9932      2.6927   5.3873711357e+01   6.1172857968e+01    0.2174311    0.1493378 -32.23 0.0009690287    1.676    0.403
        53  -7.8457    151.2762      1.6554   4.1446852140e+01   4.6742085605e+01    0.1318481   0.09151348 -63.03  0.000700347    1.626    0.385
        54 -11.0085    133.5522    109.6485   7.9080278600e+01   3.4178552108e+01     1.111554    0.5787858 -39.98  0.004279575    1.934    0.483
        55  -8.3517    221.2491    250.1313   8.8561316028e+01  -7.9664118294e+00    0.2176569    0.1265299  23.78  0.001310333    1.434    0.303
        56  -8.6358    241.4823    128.4997   6.1385082070e+01   7.3036757638e+00    0.1398256    0.1214646 -29.42 7.726441e-05    1.016    0.016
        57  -9.5636    197.3360    127.1677   6.8942219287e+01   1.6465667827e+01     0.249665    0.2449159  -4.41 0.0002395656    1.059    0.056
        58  -9.9649     42.0700    122.7449   1.0908972536e+02   4.5876742222e+01    0.7117628    0.3554385  89.11  0.002680086    3.241    0.691
        59  -9.9277     27.5317    123.0186   1.1346011656e+02   4.7169539448e+01    0.5772048    0.2928724  70.40  0.002033767    2.885    0.653
        60  -8.0436    202.2496    123.8826   6.7184432748e+01   1.6038008645e+01     0.276403    0.1877968  20.21  0.001039831    1.972    0.493
        61  -8.2392    158.3194    122.2920   7.6204059889e+01   2.6020375057e+01     0.320381     0.234817 -89.96  0.001324379    2.097    0.523
        62 -10.0071    139.4275    104.6722   7.6189738725e+01   3.3974593030e+01    0.6577368    0.3745356 -48.86  0.001726168    1.798    0.444
        63  -9.8113    140.6007    118.3968   7.9562967408e+01   3.0735076211e+01    0.4173277    0.3169392 -72.44  0.001125967    1.685    0.407
        64 -10.3569     91.9847    113.1631   9.1826932665e+01   4.1445295335e+01    0.6293579    0.5059596 -84.11  0.002015816    1.501    0.334
        65  -8.7084     91.8753    104.2286   8.9594680418e+01   4.3570044290e+01    0.7289808     0.470544   6.30  0.002919406    2.507    0.601
        66  -8.4572      1.4999    116.9105   1.2026101864e+02   5.0450438282e+01    0.3605357    0.1209358 -79.86  0.001121991    2.743    0.635
        67  -9.6958     81.6942     99.5011   9.1565100319e+01   4.6363531605e+01    0.7523023    0.2963482 -53.33  0.001212419    2.420    0.587
        68 -10.2295     78.3400    113.0583   9.5979633498e+01   4.3665166397e+01    0.5803815    0.3580426 -80.68  0.001676691    2.466    0.594
        69  -7.9209     77.7859    105.7873   9.4414932457e+01   4.5493826224e+01    0.2905368    0.1722259 -34.82  0.001130409    1.909    0.476
        70  -9.4172     20.1024    116.1718   1.1469098970e+02   4.9426595345e+01    0.3220363    0.1954918   3.58  0.001634985    2.305    0.566
        71  -9.0208    152.3615    114.8709   7.5710904288e+01   2.8922602392e+01    0.3405219    0.2379537 -76.53  0.001024741    2.208    0.547
        72  -9.8269     58.7195    109.0769   1.0128867571e+02   4.7344547818e+01    0.5427611    0.4506615  70.23   0.00219651    1.407    0.289
        73 -10.6227     65.6422    108.9032   9.9029057557e+01   4.6488966323e+01     1.099214    0.6854337 -62.95   0.00302128    1.547    0.354
        74 -10.4055     62.8709     95.7652   9.6825634284e+01   4.9993876486e+01    0.6018915    0.3970689 -86.32  0.001528922    2.380    0.580
        75  -9.1381     65.0723     85.9526   9.3494783106e+01   5.1957842999e+01    0.6953122    0.3888722 -13.14  0.002524778    3.454    0.710
        76  -9.7214     14.4912    111.7646   1.1577280285e+02   5.0886892380e+01    0.6079759    0.2666624 -84.47  0.002036968    2.576    0.612
        77  -7.9286     14.0000    105.0105   1.1495528861e+02   5.2535862368e+01    0.2395568    0.1333756 -66.24 0.0006724619    1.410    0.291
        78  -7.4223    166.7772    114.0016   7.2100579499e+01   2.5862120860e+01    0.2085688    0.1266405 -40.72 0.0004514791    1.606    0.377
        79  -9.3998     36.4597    111.6722   1.0891696942e+02   4.9143213626e+01    0.3293864    0.2004344  71.80 0.0009514358    2.265    0.558
        80  -8.8916    158.7999    111.6687   7.3325485481e+01   2.8151202134e+01    0.2999907     0.217618 -49.25 0.0004660704    1.400    0.286
        81  -8.6771    142.2632    111.6075   7.7351698738e+01   3.1858284879e+01    0.3667794    0.2627824   4.86  0.001504578    2.055    0.513
        82 -10.7864     21.7064    102.3167   1.1204949404e+02   5.2644139208e+01    0.9367641    0.4578028  81.78   0.00327609    3.676    0.728
        83 -10.4116     18.2757     89.7767   1.1100670665e+02   5.5856028171e+01     1.165681    0.2555229 -53.96  0.004426303    2.925    0.658
        84 -10.5088     25.6472     77.9024   1.0588313554e+02   5.8058248301e+01    0.6958792    0.4347856  83.22   0.00192962    2.603    0.616
        85  -9.8642    152.7471    249.1168   1.0127422111e+02   2.2917245972e+00     0.268463    0.1896328 -17.05  0.001576053    1.970    0.492
        86 -10.1343     49.9964     53.9873   8.9310520344e+01   6.0701529986e+01    0.5487393    0.4168862 -53.47  0.002163294    1.449    0.310
        87  -9.4356     56.3808     43.3479   8.2785265172e+01   6.1814565714e+01    0.7281699     0.382897  -2.27  0.002598478    4.044    0.753
        88  -9.9436     34.5605     90.6435   1.0545045511e+02   5.4361477400e+01    0.5614145    0.2860746 -79.33  0.001947748    2.797    0.643
        89 -10.2626     36.6631     81.2586   1.0254635442e+02   5.6340697114e+01    0.6797578    0.3515087 -20.57   0.00289841    2.847    0.649
        90  -9.6853    149.2617    102.8714   7.3224586386e+01   3.2145982803e+01     0.523007    0.2891794 -45.65 0.0009873968    1.803    0.445
        91  -8.1549     40.1841    106.9970   1.0686365534e+02   4.9920869831e+01    0.2148443    0.1401639  88.06 0.0004686425    1.931    0.482
        92  -9.5944     34.8755    105.4444   1.0829946206e+02   5.0802259981e+01      0.34353    0.1860263 -27.75  0.001164403    2.510    0.602
        93  -9.5631      5.2417    103.8687   1.1755228884e+02   5.3331647956e+01    0.4135268    0.3502935 -12.47  0.001701464    1.465    0.318
        94  -8.1400    166.1020    103.9454   6.9573892602e+01   2.8055051469e+01    0.2385132    0.2025347 -63.49 0.0004604831    1.295    0.228
        95  -8.6778     74.0117    102.1518   9.4727028435e+01   4.6923725584e+01    0.3702728    0.1947333 -51.19  0.001037701    1.712    0.416
        96  -8.5498    159.0529    101.3766   7.0478611283e+01   3.0203544844e+01    0.2968453    0.2189378 -49.74 0.0005738124    1.388    0.279
        97  -9.5052     94.2706     97.1660   8.6946092922e+01   4.4773664451e+01    0.3604882    0.2714244 -55.30 0.0006008989    1.340    0.254
        98  -8.8320     96.1793     90.8939   8.4567707231e+01   4.5830433218e+01    0.5171105    0.3271192  -4.18  0.001934014    2.841    0.648
        99  -7.7037    239.3059     97.2846   5.4575567811e+01   1.2943523057e+01     0.131786     0.106236   4.18 0.0002224039    1.563    0.360
       100 -10.8322     44.6839    102.3373   1.0445397000e+02   5.0588255181e+01    0.8485973     0.466058  69.70  0.002791248    3.578    0.721
       101 -10.2025      4.9784     86.6041   1.1509635883e+02   5.7381657287e+01     1.473874    0.3457939 -64.33  0.004005251    2.793    0.642
       102  -9.5724     15.9986     70.7060   1.0796822617e+02   6.0365205498e+01    0.5314494    0.1988323 -51.35  0.001178691    1.957    0.489
       103  -9.4413     17.2045     60.3123   1.0497409971e+02   6.2555215032e+01    0.8020696    0.2196483 -59.35  0.003195222    2.876    0.652
       104 -10.8682     22.0213     53.6188   1.0106688713e+02   6.3613174540e+01    0.7755384    0.4961731  87.47  0.003021645    3.367    0.703
       105 -10.0373     12.9638     45.5931   1.0274512092e+02   6.5890427535e+01    0.6924099    0.3166188 -19.83  0.002962439    2.665    0.625
       106 -10.8465    175.6985    245.4111   9.6338084163e+01  -6.7193029135e-01     0.438019    0.2210064  34.31  0.002303008    1.653    0.395
       107  -8.3190    100.5123    247.5308   1.1119618001e+02   1.0383373906e+01    0.2012994    0.1112562 -81.13  0.001041727    2.531    0.605
       108 -10.4625    190.9344    248.7816   9.3930047568e+01  -3.4477174270e+00    0.5342653    0.2045856  29.11  0.002320496    2.658    0.624
       109  -9.4522      6.9019     32.5111   1.0151550499e+02   6.8816429249e+01    0.2516706    0.1672406 -16.83 0.0008457552    1.399    0.285
       110 -10.0941      7.3356     28.3043   9.9829301209e+01   6.9572720465e+01    0.3499944    0.2891182  37.74 0.0009968985    1.742    0.426
       111  -7.5395    249.2937     95.3128   5.2735289188e+01   1.1269830959e+01    0.1297276    0.1026131  -2.12 0.0001862287    1.594    0.373
       112  -9.9158    138.9915     92.1349   7.2738024172e+01   3.6686160712e+01    0.6822294    0.3941725 -45.52  0.001663163    1.737    0.424
       113  -8.8679    164.3763     94.4347   6.7340343680e+01   3.0332640485e+01    0.3406384    0.2456249 -54.78 0.0007919942    1.510    0.338
       114  -8.1465    157.6296     91.6063   6.8065500718e+01   3.2472341472e+01    0.2940875    0.1874248 -41.91  0.000608413    1.543    0.352
       115  -9.6291    110.7778     90.0854   7.9890712075e+01   4.3192360913e+01    0.8034034    0.3845685  28.10  0.002639282    3.232    0.691
       116 -10.2861     47.8008     84.4145   9.9244480911e+01   5.4469486419e+01    0.5893911    0.3787067 -75.49  0.001442123    2.008    0.502
       117  -9.2849     48.2364     77.7464   9.7330401084e+01   5.5927616138e+01    0.5312007    0.3043225  -1.89  0.002327483    2.648    0.622
       118  -8.6729    150.6672     89.2333   6.9010271267e+01   3.4570630026e+01    0.2369149    0.1873513 -56.28 0.0008026565    1.371    0.271
       119  -9.1032     74.4400     78.8320   8.8163727712e+01   5.2153385638e+01    0.7299868    0.2846621 -44.58  0.002178204    2.347    0.574
       120  -9.9377     81.7527     72.4898   8.3652807841e+01   5.2297388035e+01    0.4558233    0.3351101 -72.01  0.001038675    2.030    0.507
       121  -9.1937     83.3711     64.6557   8.0494102895e+01   5.3579329348e+01     0.606848     0.343387 -13.20  0.002216839    3.152    0.683
       122 -10.3225     85.2267     86.6362   8.6840087935e+01   4.8698803994e+01    0.5153992      0.42067  58.72 0.0009006101    1.498    0.333
       123  -9.7033     87.2653     78.9442   8.3843577263e+01   5.0004678295e+01    0.6249907    0.4047022   7.56   0.00188823    2.273    0.560
       124  -8.5966    163.2543     87.2904   6.5568029181e+01   3.1964270744e+01    0.2630327    0.2173412 -43.68 0.0006682426    1.196    0.164
       125  -8.7889    149.8133    109.8137   7.4985992711e+01   3.0566279325e+01    0.3827249    0.2333384 -56.45 0.0007923089    1.935    0.483
       126  -9.4615    115.2240     72.2958   7.3050470663e+01   4.5863791221e+01      0.58439    0.3210849 -37.80   0.00177625    1.804    0.446
       127  -8.8631    119.0086     80.4887   7.4586390751e+01   4.3456368405e+01    0.3384126    0.2419985 -48.56 0.0007993516    1.453    0.312
       128  -8.0742    119.7919     76.1679   7.3003713436e+01   4.4134725823e+01    0.2919535     0.222634  -2.25 0.0005420385    1.615    0.381
       129 -10.2679    103.9129     82.7260   7.9721063206e+01   4.6111860397e+01    0.5056525     0.359812 -57.56 0.0009073304    1.621    0.383
       130  -9.7475    104.9281     71.8797   7.5954074512e+01   4.8091552701e+01    0.9057553    0.4348093 -30.80  0.002991714    2.445    0.591
       131  -9.5341    109.7617     63.6583   7.1756380593e+01   4.8628365792e+01    0.3867871     0.289249 -57.05 0.0007124869    1.642    0.391
       132  -9.1722    110.3864     58.6112   6.9836209100e+01   4.9385005646e+01    0.4425836    0.2997144  11.47  0.001175442    1.973    0.493
       133  -8.1622    157.8058     83.3161   6.5631194438e+01   3.4010418860e+01    0.2606274    0.2028092 -50.42 0.0006992745    1.329    0.247
       134  -9.2317    140.3665     82.1960   6.9434291709e+01   3.8336497472e+01    0.5592972    0.2970849 -39.88  0.001122609    1.863    0.463
       135  -9.0074    139.9578     75.2110   6.7395127102e+01   3.9746639483e+01     0.457095    0.2337391 -42.24  0.001300639    1.963    0.491
       136  -7.9810    170.3403     83.1294   6.2866764952e+01   3.1034470776e+01    0.2238695    0.1901736 -44.73  0.001124411    1.161    0.138
       137  -9.0371    199.9354     80.2228   5.6501276205e+01   2.4468957245e+01     0.367801    0.2336656 -25.63  0.001124228    1.747    0.428
       138  -8.5842    149.9357     80.2288   6.6525209314e+01   3.6461805026e+01    0.4453861    0.2141598 -36.63  0.001242857    2.090    0.522
       139  -8.3502     68.7215     79.5494   9.0384179103e+01   5.2861943577e+01    0.2636004    0.1165543 -50.63 0.0008451399    2.092    0.522
       140  -8.5490    184.3385     78.2081   5.8730791772e+01   2.8528537105e+01    0.2540283    0.2297272   3.44 0.0007726026    1.250    0.200
       141  -8.0620    166.4887     78.4890   6.2339424119e+01   3.2800577588e+01    0.2668314    0.1345437 -46.89 0.0007471043    2.085    0.520
       142  -8.8802    157.2214     77.2578   6.3976765577e+01   3.5262309010e+01    0.4427759    0.2315491 -50.95  0.001326934    2.222    0.550
       143  -6.8268    174.2970     78.7082   6.0805908631e+01   3.0869248609e+01    0.1525817    0.1175849 -72.22 0.0003043704    1.560    0.359
       144  -9.4971    127.3848     75.2025   7.0620708087e+01   4.2638542327e+01    0.4029879     0.282232 -55.63 0.0008100959    1.676    0.403
       145  -9.0360    129.7177     68.7581   6.7943235361e+01   4.3296598951e+01     0.563282    0.3117252  25.22  0.001980996    2.923    0.658
       146  -8.6426    130.4612     65.0253   6.6538419510e+01   4.3785947373e+01    0.3509785    0.2309061 -28.79  0.001080529    1.599    0.374
       147 -10.5677     55.1901     70.8835   9.2743847333e+01   5.6589224483e+01    0.6550764    0.4355012  61.06  0.001314434    2.547    0.607
       148 -10.1028     62.7893     61.1316   8.6729178995e+01   5.7569511301e+01     1.126257    0.2486595  35.63  0.001418745    4.785    0.791
       149  -9.7422     73.1279     59.4030   8.2288005164e+01   5.6320767327e+01    0.4058514    0.2633426 -52.79 0.0008641999    1.772    0.436
       150  -9.4206     74.8660     51.1732   7.8676857684e+01   5.7548019899e+01    0.7838408    0.4442913   5.02  0.002967378    3.235    0.691
       151  -8.1678    162.7936     72.8365   6.1461369327e+01   3.4693942860e+01      0.30108    0.1978414 -46.88 0.0007447978    1.564    0.361
       152  -9.3753     55.2837     62.8539   9.0188017857e+01   5.8255280696e+01    0.4720821     0.276872  15.59  0.002256976    2.077    0.519
       153  -8.2877    175.0043     71.0028   5.8470273734e+01   3.2023436234e+01     0.450293    0.1361631 -43.27  0.001338513    3.333    0.700
       154  -8.1358    169.4383     71.2159   5.9622736459e+01   3.3349324680e+01    0.2180775    0.1356044 -47.72 0.0005816931    1.665    0.399
       155  -9.1398    146.9861     69.2480   6.3862618032e+01   3.9148000922e+01    0.4160884    0.2656853 -56.85  0.001248056    1.942    0.485
       156  -7.8434    146.9866     64.0257   6.2230335787e+01   4.0041116788e+01    0.2524752    0.1814273  19.22  0.001125831    1.792    0.442
       157  -8.2897    156.8139     70.1709   6.1942635854e+01   3.6611436485e+01    0.2291453    0.2059978 -71.84 0.0005138406    1.203    0.168
       158  -9.9574     94.8615     68.3643   7.7935293631e+01   5.0753884998e+01     1.123491    0.2683658 -42.61 0.0007814304    4.059    0.754
       159  -8.2542     95.4725     61.4758   7.5380977664e+01   5.1933958398e+01    0.2593853    0.2136737 -10.66 0.0006173982    1.226    0.184
       160  -8.6713     98.5346     57.1241   7.2876990456e+01   5.2107732697e+01    0.4373576    0.3430357   8.94  0.002268114    1.376    0.273
       161  -9.1013    121.2307     66.1319   6.9343282944e+01   4.5688301953e+01    0.4105757    0.2888436 -66.00 0.0005521761    2.050    0.512
       162  -8.4845    122.4755     60.9955   6.7290036459e+01   4.6309224309e+01    0.3509603    0.2542363  28.45 0.0009332117    1.504    0.335
       163  -9.2942    118.1723     55.5052   6.6573584620e+01   4.8199919381e+01    0.3964109    0.3039917 -67.45 0.0006468749    1.784    0.440
       164  -8.3911    119.9526     50.5248   6.4360649991e+01   4.8597220704e+01    0.3938889    0.2089208  28.53  0.001477068    2.654    0.623
       165  -8.8880    121.0542     47.0128   6.2838117899e+01   4.8884064852e+01     0.262648    0.2297332 -25.66 0.0004895835    1.168    0.144
       166  -8.0502     75.7310     66.7686   8.3873807092e+01   5.4457752170e+01    0.3226354    0.1176527 -47.21  0.001173603    2.668    0.625
       167  -8.0923    142.2705     44.4688   5.6965103874e+01   4.4216682325e+01    0.2706611    0.1724163  48.20  0.001136826    1.496    0.332
       168  -8.9978    138.8889     56.7390   6.1761113662e+01   4.3184683875e+01    0.4571347    0.2316208 -49.50 0.0009424381    2.403    0.584
       169  -7.8676    139.4958     51.9807   6.0058819694e+01   4.3783564969e+01    0.2990933      0.18144  33.54 0.0008189689    1.933    0.483
       170  -8.3787    141.9533     48.6472   5.8410675383e+01   4.3689700858e+01    0.2447714    0.2076699 -30.16  0.000375992    1.220    0.180
       171  -8.8484    138.1439     66.2290   6.5009901086e+01   4.1779842821e+01     0.342049    0.2073558 -46.40 0.0007982823    1.762    0.432
       172  -8.6930    138.5072     62.0070   6.3564352394e+01   4.2413178087e+01    0.2935364      0.20086  28.21  0.001228353    1.734    0.423
       173  -8.2847    170.8419     65.1053   5.7564420215e+01   3.4021403205e+01    0.2363778    0.1973197 -63.03 0.0004660109    1.274    0.215
       174  -8.4774    157.6122     62.9665   5.9583001683e+01   3.7626610391e+01    0.3133374    0.2059464 -51.83  0.000869291    1.683    0.406
       175  -8.3985     10.4991     61.1722   1.0798493729e+02   6.2789605593e+01    0.3257786    0.2050153  77.06   0.00166623    2.732    0.634
       176  -7.8055    164.5722     60.7057   5.7483489284e+01   3.6276709049e+01    0.2119119    0.1348656 -45.73 0.0009350995    1.616    0.381
       177  -8.0688    152.6936     60.2515   5.9788444097e+01   3.9273310290e+01    0.2335299    0.1825517 -52.81 0.0005995687    1.376    0.273
       178  -9.7827    149.7291     46.3368   5.6009637491e+01   4.2120821285e+01    0.7084214     0.172561 -36.08  0.001791788    3.810    0.738
       179  -8.7580    147.6007     53.9505   5.8897112456e+01   4.1512799596e+01     0.636559    0.2690343 -24.54   0.00216301    3.115    0.679
       180  -8.4634     87.5231     58.5160   7.6941766034e+01   5.3984787552e+01    0.2950485      0.22779 -56.00 0.0006725044    1.599    0.375
       181 -10.3463     85.7274     48.8021   7.3984485155e+01   5.6020064934e+01    0.6270133    0.4152454 -60.46  0.001985843    2.451    0.592
       182 -10.3096     90.5353     38.0903   6.8261675930e+01   5.6777022917e+01    0.8316781    0.2973549  36.92  0.002901912    3.250    0.692
       183  -7.6894     96.8580     33.1986   6.4377086696e+01   5.6176431119e+01    0.2237325    0.1515145  16.99 0.0005297371    1.651    0.394
       184  -9.1561    129.9440     56.5022   6.3846269520e+01   4.5340730279e+01    0.5972072    0.2290951 -36.35   0.00120275    2.607    0.616
       185  -7.6913    169.2569     55.9564   5.5170046702e+01   3.5856434204e+01    0.2079189    0.1908612 -46.18  0.000689462    1.096    0.088
       186  -9.1663    163.0085     53.5183   5.5618797974e+01   3.7777104870e+01     0.358486    0.2159695 -26.08  0.001175307    1.834    0.455
       187  -9.0464    105.6000     52.0218   6.8899263809e+01   5.1513915109e+01     0.568001    0.3113919 -29.71  0.002238115    1.899    0.473
       188  -8.7607    157.2690     48.7783   5.5273609348e+01   3.9903161627e+01    0.2589626    0.1782271 -37.32  0.001095757    1.482    0.325
       189  -9.5693    130.5820     46.4261   6.0270859691e+01   4.6748158928e+01    0.7697616    0.3410068 -20.49  0.001222052    3.266    0.694
       190  -8.9274    112.5876     45.1760   6.4429660367e+01   5.1071827902e+01    0.7619879    0.3489423 -16.86  0.001110844    3.846    0.740
       191  -7.7872    146.5133     59.0045   6.0748727570e+01   4.0981379645e+01    0.2220521    0.1463096 -35.96 0.0006207984    1.537    0.350
       192  -9.5695    189.8442    242.1621   9.3151224900e+01  -2.3591030007e+00    0.2731015    0.1541346 -37.37  0.001497156    2.020    0.505
       193  -8.6672    244.9454    244.0226   8.3420355031e+01  -1.0394605087e+01    0.1730081    0.1311611   6.41 0.0003256204    1.044    0.042
       194  -9.8784     69.3939     42.3126   7.7289066738e+01   5.9983031304e+01     0.673534    0.3478512 -53.37  0.002428071    3.118    0.679
       195  -9.7968     75.8964     32.2027   7.0785943730e+01   6.0420023551e+01    0.4435385    0.3352932  22.45 0.0009172963    1.236    0.191
       196  -9.7476     79.4901     23.7945   6.5968842905e+01   6.0886432678e+01    0.5805519    0.2546667  32.47  0.001532022    2.567    0.610
       197  -8.8487     84.7383     21.5810   6.3312046187e+01   6.0133693748e+01    0.2336635    0.1918067 -44.71 0.0006847697    1.538    0.350
       198  -8.8566     42.1157     28.1194   8.2637647166e+01   6.6289244948e+01    0.4725286    0.2099777 -25.11 0.0002918774    2.664    0.625
       199  -9.3920    163.0722    248.1813   9.9156229151e+01   8.5179294234e-01    0.2927054    0.1977111  86.90  0.001394327    3.467    0.712
       200  -8.5337    104.8552    240.0486   1.0957110181e+02   1.1073990614e+01     0.221767    0.1481192  44.31 0.0005797077    1.243    0.195
       201  -9.9118     37.8200     42.0022   9.0182343176e+01   6.4411273513e+01    0.3465758    0.3083076  80.46  0.001621384    1.828    0.453
       202 -10.2268     35.8155     38.0972   8.9603512391e+01   6.5342337983e+01    0.4930205    0.2666376 -21.44 0.0003454431    2.033    0.508
       203  -9.4524    153.6661     40.7320   5.3442187548e+01   4.1924781150e+01    0.3999949    0.2269163 -27.28  0.001173173    1.904    0.475
       204  -9.0799    110.3233     33.0699   6.0547714524e+01   5.3276119025e+01    0.3463158    0.2263504 -44.56 0.0008951696    1.789    0.441
       205  -8.8511    104.9449     41.2080   6.5103757560e+01   5.3331538436e+01    0.3155967    0.2156721 -52.77 0.0008604088    1.915    0.478
       206  -8.6665    106.5263     36.1712   6.2752489731e+01   5.3701556602e+01    0.3118416    0.2342772  38.01  0.001101142    1.243    0.196
       207  -8.9540    139.3312     39.7808   5.6034963026e+01   4.5581454420e+01    0.4119411    0.2303827 -38.13  0.001277674    1.860    0.463
       208  -8.1250    123.8658     39.8476   5.9594171939e+01   4.9266491124e+01    0.4860454    0.2255833  27.08  0.001478606    4.333    0.769
       209  -8.8868     53.5808     39.2056   8.2298291459e+01   6.2926442295e+01    0.2594121    0.1815962 -41.54 0.0008750773    1.438    0.304
       210  -7.5377    160.3435     39.2496   5.1740023280e+01   4.0460126185e+01    0.2005277    0.1251926 -40.86 0.0005441446    1.648    0.393
       211  -9.2586    144.3690     36.6007   5.3930394918e+01   4.4769867630e+01    0.3906704    0.2532631 -69.08 0.0005751146    2.200    0.546
       212  -8.9308    132.7861     35.7805   5.6095929319e+01   4.7695360757e+01    0.2736443    0.2315095 -44.57 0.0005527624    1.288    0.224
       213 -10.9337    134.0107     30.9940   5.4176318109e+01   4.8004252505e+01    0.3503969    0.2736336   2.24            0    1.466    0.318
       214  -8.8418    118.9401     34.8540   5.9005893357e+01   5.1083357461e+01    0.3026887    0.1894137 -37.07 0.0006558127    1.697    0.411
       215  -9.4466    188.2844    233.9221   9.2184285688e+01  -9.1798567908e-01    0.2786966    0.2359007 -86.90  0.001137602    1.981    0.495
       216  -8.5966    216.0066    233.7461   8.6899682261e+01  -5.0988995762e+00     0.189453    0.1529939  -6.73 0.0005554896    1.158    0.136
       217  -9.1383    101.1513     32.1659   6.2719613756e+01   5.5405048126e+01    0.4171806    0.2030527 -38.35  0.001043242    2.213    0.548
       218  -9.0799    214.5196    216.1470   8.4175667944e+01  -2.3685597137e+00    0.2634883    0.2340584 -76.80  0.001061688    1.908    0.476
       219  -7.5110     56.0000    216.0901   1.1700267766e+02   2.2452692399e+01    0.1903123   0.06353036 -69.93 0.0003553304    2.961    0.662
       220 -10.4447    234.2978    209.4157   7.9309481451e+01  -4.4096132002e+00    0.2236495    0.1936803 -13.71 0.0001926529    1.215    0.177
       221  -8.9703    202.7825    210.6222   8.5449707697e+01   3.5270504710e-01    0.2346381     0.202618  30.14 0.0008969066    1.191    0.160
       222 -10.0496     10.0918    207.6027   1.2545398412e+02   2.9183177091e+01    0.4656871    0.2575396  26.29  0.002785927    2.321    0.569
       223  -8.0768     92.0199     21.4594   6.1042732059e+01   5.8664291651e+01    0.2704087    0.1618817  10.66  0.001264131    2.100    0.524
       224  -8.1422    162.5239     26.9393   4.7584364945e+01   4.1444564994e+01    0.1988558    0.1760653  69.67 0.0003642022    1.046    0.044
       225  -9.4422    154.3031     26.8215   4.8913507714e+01   4.3508042637e+01    0.4483669    0.2215625  67.55  0.001918722    1.987    0.497
       226  -8.8195    144.1565     25.8772   5.0425170978e+01   4.6130602539e+01    0.2597063    0.1845697 -31.85  0.001040624    1.499    0.333
       227  -8.5161    128.5110     25.8343   5.3542509416e+01   4.9940002388e+01    0.2523089    0.2039474 -78.90 0.0006046659    1.526    0.345
       228  -8.3458    140.2284     22.6581   5.0086122672e+01   4.7456279826e+01    0.2478839    0.1684451 -53.35 0.0007543349    1.737    0.424
       229  -8.9134    203.9709    206.0155   8.4386342076e+01   8.9217964862e-01    0.1960272    0.1668542   8.60            0    1.012    0.012
       230  -9.0029    111.6019     21.0855   5.5650989778e+01   5.4427742040e+01    0.3790675    0.1372859 -23.86  0.001416174    3.068    0.674
       231  -7.1982    126.3046    208.2739   1.0106258227e+02   1.3735387037e+01    0.1270986    0.1044018   3.43 0.0002429501    1.541    0.351
       232  -8.3394    204.4800    201.2850   8.3415518804e+01   1.5742165732e+00    0.2175974    0.1851007  24.82 0.0002540555    1.122    0.108
       233  -9.0565    192.1212    194.5282   8.4620831476e+01   4.8410311314e+00    0.8165399    0.4242851 -62.91   0.00230644    6.690    0.851
       234  -7.3670    231.1670    197.4152   7.7630729438e+01  -2.1618781719e+00    0.1558558    0.1182054  40.24 0.0003587709    1.499    0.333
       235 -10.2799    172.0484    196.3374   8.9142722118e+01   8.0798087308e+00     0.237213    0.2294293 -21.61 0.0002658463    1.133    0.118
       236  -8.4666    124.0862    195.0244   9.9531390233e+01   1.6815224571e+01    0.1970528    0.1853181  51.81  0.001176076    1.021    0.020
       237  -9.2499     56.7535    188.0047   1.1406914374e+02   2.8463098689e+01    0.1948968    0.1755087  56.32 0.0003267984    1.177    0.150
       238  -8.8281    193.2300    181.1508   8.1787877915e+01   7.0283738035e+00    0.2236131    0.1971535  12.89 0.0004179936    1.049    0.047
       239  -7.7486    151.3047     20.9562   4.7556406181e+01   4.4907793336e+01    0.2283164   0.07061464 -45.80 0.0007041434    4.263    0.765
       240  -7.9570    179.1220    178.1358   8.4146724394e+01   1.0216278734e+01    0.2181139    0.1872848   5.89 0.0005344072    1.169    0.144
       241  -7.4028    121.2238    171.9753   9.6292844279e+01   2.2340650549e+01    0.1781512    0.1198543 -55.64 0.0003479539    1.524    0.344
       242  -8.7158     57.9096    172.1132   1.1193524928e+02   3.2008977606e+01    0.1900995    0.1669075 -86.93 0.0002680992    1.041    0.040
       243  -7.7453    230.3629    168.1936   7.1928577731e+01   2.6256297711e+00    0.1938853    0.1171782 -42.25 0.0009461835    1.680    0.405
       244  -7.5685    212.8656    157.7721   7.2955854239e+01   7.6027853624e+00    0.1812496    0.1675347 -56.81 0.0004689572    1.305    0.234
       245  -8.2815    139.6540     18.2119   4.8693499365e+01   4.8069925557e+01    0.1709042     0.129404  -6.17 0.0002410149    1.530    0.347
       246  -8.0020    231.2757     17.1284   3.6872729174e+01   2.6093351759e+01    0.1820816    0.1575548 -21.75  0.001033772    1.428    0.300
       247  -8.8173    133.6715    145.9584   8.7953056036e+01   2.5938429795e+01    0.6162431    0.1979361 -53.94  0.001785775    3.677    0.728
       248  -8.3904    236.2250    146.3145   6.6206160234e+01   5.2626956407e+00    0.2778902    0.1164153  38.20  0.001099061    2.762    0.638
       249  -8.9136     68.4985    145.4926   1.0531405927e+02   3.7092162306e+01    0.3779185    0.2402591 -70.34  0.001386148    1.514    0.340
       250  -8.8517     65.6644    143.3281   1.0573256610e+02   3.8005941003e+01    0.2552978    0.2216451 -86.06 0.0008694362    1.091    0.083
       251  -7.5857    189.4838     15.5219   4.0629374213e+01   3.6033243249e+01    0.1315895    0.1185365  79.33 1.768783e-05    1.068    0.064
       252  -7.2265     95.6493    136.2801   9.6007606110e+01   3.5240282361e+01    0.1529173    0.1138235  72.29 0.0002370651    1.648    0.393
       253  -8.7888    112.6523    134.1684   9.0841776390e+01   3.2736175677e+01    0.4134315     0.281997  78.22  0.001225999    2.241    0.554
       254  -9.0342     83.2507    131.5932   9.8558831283e+01   3.8386533489e+01    0.6685194    0.3909407  76.72  0.002391578    3.241    0.691
       255  -8.2027    136.0000    130.5184   8.3782273682e+01   2.8989544217e+01    0.5211682   0.08811737 -47.03  0.001145141    5.824    0.828
       256  -9.2777    132.1436    131.4612   8.5007249051e+01   2.9564810966e+01     0.422316    0.3292175  82.90  0.001225921    1.698    0.411
       257 -10.2993     58.1547    124.4060   1.0454645090e+02   4.3652121477e+01    0.9376602    0.5022768  75.56   0.00230493    3.739    0.733
       258 -10.0820     66.4607    128.8974   1.0292372046e+02   4.1473202796e+01    0.4572583    0.3953642 -59.01  0.002028018    1.060    0.056
       259 -10.1319     71.1444    125.7683   1.0092327567e+02   4.1605431686e+01    0.5914472    0.3729782 -73.63  0.001195276    1.745    0.427
       260  -9.5084    141.0306    128.5871   8.2026324892e+01   2.8376649842e+01    0.4171945    0.2582884 -56.56  0.001711581    1.801    0.445
       261  -9.9323     98.5680    128.5197   9.3498744656e+01   3.6625005235e+01    0.6491326    0.4038123  75.25  0.002216852    2.853    0.649
       262  -7.9498    161.0216    128.6884   7.7174383775e+01   2.4065566925e+01    0.3332824    0.2017083 -67.34  0.001179283    2.762    0.638
       263  -9.1273    127.2544    128.9298   8.5682757499e+01   3.1135086325e+01    0.3709651    0.2396743   4.36  0.001311359    2.962    0.662
       264  -9.9597    117.5266    125.6311   8.7510691440e+01   3.3824759756e+01    0.7471335    0.4895314  88.65   0.00172792    2.847    0.649
       265 -10.6373    128.1872    101.6820   7.8322323864e+01   3.7067229704e+01     1.139209    0.6176648 -25.12  0.002768774    2.849    0.649
       266 -10.9032    123.2480     90.8602   7.6555270099e+01   4.0429244436e+01     1.337802    0.6593993 -33.03  0.003201583    2.340    0.573
       267 -10.4152    132.0091    119.8491   8.2167717892e+01   3.2233557387e+01    0.8811864    0.5826291  81.13  0.002368845    2.806    0.644
       268 -10.6571    109.0666    112.1025   8.6509046953e+01   3.8609855440e+01     1.392569    0.5467142 -53.57   0.00334925    2.720    0.632
       269 -11.2953    120.7921    110.4826   8.2760848120e+01   3.6665777447e+01     1.430804    0.7059446 -52.88  0.004165363    2.157    0.536
       270 -10.4822    108.9302     99.5957   8.3179563475e+01   4.1483309347e+01     1.026988    0.5481402  59.53  0.003589089    2.976    0.664
