#   1 NUMBER                 Running object number                                     
#   2 MAG_AUTO               Kron-like elliptical aperture magnitude                    [mag]
#   3 X_IMAGE                Object position along x                                    [pixel]
#   4 Y_IMAGE                Object position along y                                    [pixel]
#   5 X_WORLD                Barycenter position along world x axis                     [deg]
#   6 Y_WORLD                Barycenter position along world y axis                     [deg]
#   7 A_WORLD                Profile RMS along major axis (world units)                 [deg]
#   8 B_WORLD                Profile RMS along minor axis (world units)                 [deg]
#   9 THETA_WORLD            Position angle (CCW/world-x)                               [deg]
#  10 FWHM_WORLD             FWHM assuming a gaussian core                              [deg]
#  11 ELONGATION             A_IMAGE/B_IMAGE                                           
#  12 ELLIPTICITY            1 - B_IMAGE/A_IMAGE                                       
         1 -16.4601    222.9669    142.3763   3.7947419363e+01   1.2023256173e+01     6.618358     3.753543 -37.29   0.03884272    1.425    0.298
         2  -8.9312    164.9502    167.9539   5.2697220769e+01   1.6346312068e+01    0.1877936    0.1648507 -82.36 0.0007656951    1.638    0.389
         3 -10.0320    156.2072    248.2755   6.6633758993e+01   4.5406468568e+00    0.1869996    0.1581793 -46.60  0.001412331    1.643    0.391
         4  -9.9089    149.6395    247.9702   6.7858932014e+01   5.2781613858e+00    0.2180919    0.1039997 -47.32  0.001242841    2.472    0.595
         5  -9.7951    170.1928    248.1909   6.4014820705e+01   3.1049945506e+00    0.1744973    0.1478183 -48.92  0.001007877    1.795    0.443
         6  -9.9587    168.9773    243.9918   6.3708110196e+01   3.7879594417e+00    0.1560309    0.1278466  41.15   0.00113546    1.736    0.424
         7  -8.5616    210.2752    244.6246   5.6673826700e+01  -3.3049643086e-01    0.0842339   0.07668427  -3.69 0.0007003699    1.693    0.410
         8 -10.5260    177.8926    243.0665   6.1966374350e+01   2.9922360006e+00    0.2221089    0.1539396 -50.43  0.001500586    2.144    0.534
         9  -8.9190    201.9500    242.4815   5.7740879406e+01   6.9682880971e-01    0.1296513   0.07866429  40.66 0.0008093572    2.550    0.608
        10  -8.7681    194.6160    239.2393   5.8533194541e+01   1.8045670339e+00    0.1431053   0.08188727 -25.07 0.0009459583    1.582    0.368
        11  -9.2593    195.8181    232.5673   5.7410498765e+01   2.5315284752e+00    0.1842014    0.1411536 -46.40  0.001261324    1.934    0.483
        12  -9.5208    211.5546    218.9774   5.2839112195e+01   2.6761018816e+00    0.2225873    0.1780295 -53.95  0.001550071    2.287    0.563
        13 -10.1785    163.9208    248.6221   6.5224547931e+01   3.6904764494e+00    0.2426748    0.1543656 -54.49  0.001539949    2.436    0.589
        14 -10.9402    196.6292    197.4793   5.1969251906e+01   7.2611900173e+00    0.3673085    0.2446779 -62.54  0.001850676    3.445    0.710
        15  -9.2824    148.3380    143.3637   5.1289960923e+01   2.3772909424e+01    0.2758637    0.1674658 -46.46 0.0009277726    1.592    0.372
        16  -9.2120    138.7219    164.5509   5.7701456045e+01   2.1117600450e+01    0.2825038    0.1743327 -62.20  0.001279081    2.134    0.531
        17  -9.4222    167.2109    139.5463   4.6558757460e+01   2.1202624307e+01    0.2625886    0.1785836 -42.13 0.0009532693    1.356    0.262
        18  -9.7465    155.1943    135.0761   4.8017318464e+01   2.4189636643e+01    0.2577877    0.1797169 -46.30 0.0009328133    1.369    0.269
        19  -8.9479    149.1436    135.8442   4.9482111826e+01   2.5141299464e+01    0.2136147    0.1929688 -66.40 0.0005805788    1.223    0.183
        20  -9.7214    249.7047    213.0814   4.6303588702e+01  -2.5724805742e-01    0.1533885    0.1251019  16.41 0.0008433527    1.592    0.372
        21  -8.9449    110.2988    136.6546   5.9254378944e+01   3.2163177130e+01    0.1557106    0.1196302  81.13 0.0007036043    1.677    0.404
        22 -10.9769     96.5368    134.9499   6.2852065856e+01   3.5071826475e+01    0.3603434    0.2310306 -63.91  0.001502898    1.683    0.406
        23 -10.2672    164.5834    133.7639   4.5818577181e+01   2.2748457163e+01    0.2592961    0.1248084 -39.51  0.001108228    1.932    0.482
        24 -10.9051    103.5724    132.7398   6.0304630212e+01   3.4333258760e+01    0.3717641    0.2591139 -76.34  0.001616476    1.812    0.448
        25 -10.0021     80.9872    132.9768   6.7297573077e+01   3.8282316207e+01    0.2637185    0.1846717  68.92   0.00113997    1.716    0.417
        26  -9.6056    110.3925    132.1490   5.8238518046e+01   3.3205999510e+01    0.2213454    0.1449915 -64.67 0.0009469239    1.742    0.426
        27 -10.1999     92.4109    131.7035   6.3413258432e+01   3.6617774482e+01      0.30228    0.1533379 -61.30  0.001135812    2.128    0.530
        28 -10.7341    202.5982    197.9963   5.1042550797e+01   6.4841295091e+00    0.2329177    0.1945591  51.39  0.001588973    1.988    0.497
        29  -8.8294    153.4706    162.0521   5.3955036544e+01   1.9234207549e+01    0.2014825    0.1281425 -45.05 0.0006681613    1.541    0.351
        30 -10.2241    167.9680    158.1970   5.0229962683e+01   1.7644079040e+01    0.3991029    0.1714908 -53.87  0.001490879    3.294    0.696
        31  -9.1406    163.9843    177.9712   5.4715574527e+01   1.4702353749e+01    0.1879665    0.1631053  74.52  0.001058207    1.737    0.424
        32 -10.0587    121.9332    127.4683   5.4060737944e+01   3.2082108870e+01    0.3023358     0.211688 -64.14   0.00110733    1.623    0.384
        33 -10.2073     86.8247    127.8333   6.4332929041e+01   3.8593807127e+01    0.2257262    0.1854223  77.95 0.0006252252    1.343    0.255
        34  -8.8907    149.9605    206.4586   6.2255761423e+01   1.1681657394e+01    0.2197866    0.1558899  76.26      0.00103    3.367    0.703
        35  -9.8127    170.3620    150.9317   4.8315473999e+01   1.8579567832e+01    0.2935513    0.1905002 -50.74  0.001357302    1.647    0.393
        36 -11.6808     96.1105    125.4268   6.0886424044e+01   3.7506373484e+01    0.4331813    0.2892844 -70.05  0.001849792    1.739    0.425
        37  -8.7449     41.1305    125.8811   8.0242282563e+01   4.6115360994e+01     0.198737    0.1760066 -42.60 0.0002800505    1.244    0.196
        38 -11.0871    117.1967    123.6072   5.4400677427e+01   3.3884449663e+01    0.4124695    0.1929809 -45.85  0.001521182    2.115    0.527
        39 -10.2956    234.1087    216.6185   4.9029957700e+01   7.5884758780e-01    0.1645532    0.1170105 -27.34 0.0007913607    1.345    0.256
        40 -10.9276     90.8559    123.5743   6.2098464287e+01   3.8944071012e+01    0.3249118    0.2137277 -76.18  0.001331178    1.912    0.477
        41 -11.4878    170.6586    120.9932   4.1778364814e+01   2.4016878472e+01     0.411394    0.2504379 -22.42   0.00184938    2.083    0.520
        42  -9.0322    170.4120    214.3057   5.9354420635e+01   7.8810128601e+00    0.1885144    0.1359871  41.31  0.001182653    1.724    0.420
        43 -11.8410    104.6818    119.6933   5.6966303202e+01   3.7263205508e+01    0.3996002    0.2997919  79.06  0.001785262    1.699    0.411
        44  -8.9619    157.4807    119.9296   4.4074296951e+01   2.6717499007e+01    0.2244618    0.1317286 -43.09  0.000708542    1.569    0.363
        45 -10.0895    123.5781    119.7520   5.1787768310e+01   3.3486779170e+01    0.2954355    0.1435641 -44.87   0.00113394    2.017    0.504
        46  -9.9097     74.5960    119.7595   6.6653105873e+01   4.2836216470e+01    0.2257688    0.1510662 -74.01 0.0009496422    1.663    0.399
        47 -11.6893    112.3848    115.9736   5.3845917071e+01   3.6604761568e+01      0.71447    0.2657343 -59.14  0.001965367    4.151    0.759
        48  -9.0741    158.3603    154.2795   5.1398777915e+01   1.9923140204e+01    0.2296266    0.1688584 -50.40  0.001005764    1.423    0.298
        49  -9.5395    186.1924    195.2117   5.3433858085e+01   8.8730419275e+00     0.256954    0.2023537 -51.65  0.001344603    1.721    0.419
        50 -10.9891    210.7970    200.9425   5.0173648339e+01   5.1414723482e+00    0.2544311    0.1876616 -54.44  0.001134849    2.289    0.563
        51  -8.6074    106.6332    152.3145   6.3447763376e+01   2.9132701568e+01    0.1573601    0.1133472  67.31 0.0007038308    1.771    0.435
        52  -9.0318    163.1814    150.9284   4.9734407005e+01   1.9758836968e+01    0.2020715    0.1832595 -65.84 0.0008945187    1.327    0.246
        53 -12.6919     96.1219    109.8911   5.7097078805e+01   4.1331655783e+01    0.7186542    0.3731697 -53.31  0.002772527    1.913    0.477
        54 -11.8249    106.8956    105.1397   5.2578456765e+01   4.0253195619e+01    0.5550511    0.1977888 -45.67  0.001773883    2.805    0.643
        55  -9.5688    225.7051    209.0282   4.9122663254e+01   2.5040265621e+00    0.2912995    0.1216257 -41.62  0.001602219    2.509    0.601
        56  -9.5122    158.6721    170.5288   5.4455143105e+01   1.6831327066e+01    0.2985614     0.157433 -56.31  0.001297591    2.556    0.609
        57  -8.5798    118.2884    171.6283   6.3890800197e+01   2.2898466712e+01    0.1413233    0.1102431  73.49  0.000702133    1.716    0.417
        58 -11.5471    107.0832    111.5332   5.4218724775e+01   3.8719951629e+01    0.4355052    0.2214082 -54.83  0.001489405    2.030    0.507
        59 -11.2444    115.5504    110.2826   5.1514173720e+01   3.7260885176e+01    0.3593951    0.2302983 -50.82  0.001565159    1.527    0.345
        60 -11.0932    121.6919    109.4681   4.9666780584e+01   3.6159123654e+01    0.3441462    0.2448969 -79.72  0.001160649    1.912    0.477
        61 -11.4942    118.3237    105.8527   4.9592500793e+01   3.7672994463e+01    0.5038275    0.2178607 -51.59  0.001775901    2.369    0.578
        62  -9.1883    193.8070    202.7184   5.3300915592e+01   6.8330124839e+00     0.188645    0.1492574 -57.60  0.001211826    2.061    0.515
        63 -10.4545     84.9883    107.5025   6.0111441713e+01   4.4113312298e+01    0.2644113    0.2149197 -57.58  0.001260052    1.214    0.176
        64 -10.9744     77.1757    107.6310   6.2866688795e+01   4.5554021617e+01    0.3482738    0.2505307  85.39  0.001482301    1.759    0.432
        65  -9.7203    141.6991    105.4290   4.3801463344e+01   3.2788098612e+01    0.2769076    0.1290166 -42.46  0.001023541    2.028    0.507
        66 -10.7816    125.6184    104.1546   4.7250365639e+01   3.6485074989e+01    0.3273007    0.1935657 -32.69  0.001314114    2.019    0.505
        67 -11.4918    112.7804    101.7818   4.9986219274e+01   3.9769989369e+01    0.3268716    0.2868153 -13.12  0.001593035    1.376    0.273
        68 -11.1678    130.1364    102.6431   4.5730829348e+01   3.5834117994e+01    0.3190966    0.2159776 -52.35 0.0007737713    1.448    0.309
        69 -10.5659    128.4722     98.0354   4.4869296534e+01   3.7163832709e+01    0.3065858    0.1430086 -48.42  0.001146431    2.090    0.521
        70 -10.9791    206.1690    191.2561   4.9342427609e+01   7.0269554727e+00    0.2013334     0.187542  71.68  0.001087262    1.897    0.473
        71 -10.9674    179.6794    167.2865   4.9729584610e+01   1.4267765780e+01    0.2355095    0.2020583  80.43  0.001030447    1.862    0.463
        72  -9.1963    117.2997    145.8453   5.9300703895e+01   2.8774999703e+01    0.2989838    0.1362481 -59.10  0.001074827    2.631    0.620
        73  -9.2816     78.5087    146.4986   7.0647922549e+01   3.5192646253e+01    0.1541947     0.143335  62.75 0.0002572005    1.039    0.038
        74 -10.8306     85.8436    100.6656   5.7990981573e+01   4.5657702144e+01    0.2880236    0.2152704 -45.80  0.001310617    1.372    0.271
        75  -9.7186    170.9643    144.6529   4.6910473859e+01   1.9623277631e+01    0.2301043    0.2081956 -66.19 0.0009305882    1.332    0.249
        76 -11.6249     93.8269     97.4951   5.4446460467e+01   4.4798445740e+01    0.3498988    0.3081742  56.66  0.001747464    1.136    0.120
        77 -10.8167    135.0821     96.6764   4.2935931607e+01   3.5989471827e+01    0.2822029     0.197129 -53.16  0.001004403    1.399    0.285
        78 -11.5678    112.6135     95.7601   4.8328592658e+01   4.1150223358e+01    0.3556972    0.3053734 -42.55  0.001468718    1.182    0.154
        79 -10.8343    101.3134     96.0075   5.1673751451e+01   4.3558556554e+01    0.2353798    0.2040031 -55.26  0.000916624    1.128    0.114
        80 -11.0273     80.8718     95.0985   5.8159918495e+01   4.8030282554e+01    0.3395158    0.2120875 -58.06  0.001240689    1.621    0.383
        81 -11.4000    125.0286     93.6581   4.4475654155e+01   3.8842922386e+01    0.3563924    0.2094398 -36.69  0.001173417    1.813    0.448
        82 -11.5295     87.9704     89.5383   5.4032299970e+01   4.7925217709e+01    0.4250079    0.2284407 -50.76  0.001656269    1.841    0.457
        83  -9.8167     71.4722     90.9906   6.0466256753e+01   5.0892549984e+01    0.2533405     0.154685 -56.27  0.001041837    1.623    0.384
        84 -11.7804     95.7561     87.4836   5.0840323714e+01   4.6727400645e+01    0.4521571    0.2627935 -52.63  0.001832738    1.726    0.420
        85 -11.4636    189.9494    177.6544   4.9759841519e+01   1.1126441682e+01    0.5125181     0.221842 -52.93  0.001979254    4.033    0.752
        86 -10.1691    115.8337     90.1491   4.5809043071e+01   4.1652438820e+01    0.2134697    0.1915049 -15.65 0.0009560986    1.323    0.244
        87  -8.9910    138.3037    143.4146   5.3577052399e+01   2.5551003792e+01    0.2403555    0.1736417 -66.34 0.0008388634    1.725    0.420
        88 -11.0300    102.1362     84.2691   4.7866402965e+01   4.6026834632e+01    0.2899725    0.2197636 -37.20  0.001337169    1.420    0.296
        89 -11.7094    102.2881     74.7240   4.4701076407e+01   4.8037033194e+01    0.5612255    0.2818439 -26.68  0.001699817    3.797    0.737
        90 -10.6195    143.9544     90.4972   3.9283219840e+01   3.5244659970e+01     0.246613    0.1887019 -44.18 0.0008004702    1.221    0.181
        91  -9.9097     92.3079    143.2982   6.5814473399e+01   3.3740653316e+01    0.3084142    0.1903865 -85.32  0.001175099    2.483    0.597
        92 -10.8793    107.1081     86.7455   4.7185998547e+01   4.4360524151e+01    0.2994906     0.212949 -18.67  0.001235972    2.088    0.521
        93 -10.4618    115.5676     82.2885   4.3480439978e+01   4.3366437633e+01    0.3094191    0.1433931 -47.69  0.001137309    2.116    0.527
        94 -11.0027    120.3178     92.5559   4.5344881742e+01   4.0130426666e+01    0.3105031    0.1924046 -42.04 0.0009273742    1.596    0.373
        95 -11.6527     92.3483     80.6873   4.9767757549e+01   4.9019478609e+01    0.4477061    0.2145945 -46.73  0.001659522    2.070    0.517
        96 -10.8161     93.5912     68.7235   4.5257483440e+01   5.1319970717e+01     0.302289    0.1513013 -39.96  0.001136851    2.095    0.523
        97  -8.5098    164.2435    143.6345   4.8011983694e+01   2.0948582521e+01    0.1326585     0.104162 -65.21 0.0004281699    1.609    0.379
