#   1 NUMBER                 Running object number                                     
#   2 MAG_AUTO               Kron-like elliptical aperture magnitude                    [mag]
#   3 X_IMAGE                Object position along x                                    [pixel]
#   4 Y_IMAGE                Object position along y                                    [pixel]
#   5 X_WORLD                Barycenter position along world x axis                     [deg]
#   6 Y_WORLD                Barycenter position along world y axis                     [deg]
#   7 A_WORLD                Profile RMS along major axis (world units)                 [deg]
#   8 B_WORLD                Profile RMS along minor axis (world units)                 [deg]
#   9 THETA_WORLD            Position angle (CCW/world-x)                               [deg]
#  10 FWHM_WORLD             FWHM assuming a gaussian core                              [deg]
#  11 ELONGATION             A_IMAGE/B_IMAGE                                           
#  12 ELLIPTICITY            1 - B_IMAGE/A_IMAGE                                       
         1 -14.3421    167.0929     38.4429   7.7066717800e+01   3.8705849217e+01     1.364704     1.006461   1.82  0.004256627    1.441    0.306
         2 -13.7097    181.9455      8.6141   6.4169337265e+01   3.8092011363e+01     1.004465    0.7233682  76.02  0.004890671    1.469    0.319
         3 -12.9995    183.5054      2.6631   6.1932063588e+01   3.8194431653e+01     1.019046    0.3161069  72.34  0.003198949    3.481    0.713
         4 -12.8515    176.3660    188.0846   1.1258915887e+02   1.3002442909e+01    0.4043673    0.2964095 -63.49  0.002322841    2.220    0.550
         5 -18.9489     73.5358    239.7568   1.3644829062e+02   2.0285368558e+01     6.013072      4.45044  55.01   0.04388523    1.051    0.048
         6 -10.2296    136.9415    197.7851   1.2144598032e+02   1.7970133824e+01     0.204629    0.1406762  76.16  0.001105258    2.118    0.528
         7  -9.8772    114.1269    250.3123   1.3076360460e+02   1.3995714755e+01   0.06784389   0.06449477 -47.61            0    1.530    0.347
         8  -8.7028      8.9463    194.5933   1.4471624505e+02   3.3655025412e+01    0.2028798    0.1238159  74.99  0.001624709    1.245    0.197
         9  -9.4053    153.2967    194.3003   1.1787956134e+02   1.5921190081e+01    0.1156408   0.08506063  15.54 0.0002080074    1.575    0.365
        10 -10.3428    110.0956    223.0801   1.2909225839e+02   1.8115918634e+01    0.1550357    0.1183487  50.28 0.0004076457    1.014    0.014
        11 -11.1378     20.7920    219.3564   1.4375183382e+02   2.8662905889e+01    0.1314651   0.08285467  54.41 0.0003174008    1.175    0.149
        12 -11.9206     16.5855    217.6390   1.4434748173e+02   2.9297939019e+01    0.1484464    0.1148154  71.63 0.0007047266    1.162    0.139
        13 -10.4825    115.9548    211.6524   1.2693507423e+02   1.8970559248e+01    0.2485304      0.11717  59.57  0.001258792    2.658    0.624
        14 -11.0582    154.4965    185.6337   1.1639134617e+02   1.7001606529e+01    0.2204956   0.09941278  41.08  0.001073226    1.844    0.458
        15 -12.0419     27.8707    184.0356   1.4087839206e+02   3.3858520401e+01    0.1826218    0.1380047  44.99 0.0004333995    1.333    0.250
        16 -10.2630    120.6447    183.3252   1.2274594303e+02   2.2731200980e+01    0.2046051    0.1526539  67.72 0.0008119018    1.457    0.314
        17 -11.6300    116.0659    179.5241   1.2317119900e+02   2.4057813821e+01    0.5835744     0.268944  63.13  0.002195381    4.269    0.766
        18 -12.8049    205.5043    180.4786   1.0591857940e+02   9.0136298051e+00    0.5082542    0.2804597  39.85  0.002062866    1.522    0.343
        19 -12.6585    208.5199    178.4998   1.0501966218e+02   8.7377428088e+00    0.4281766    0.2932038  28.95  0.002079517    1.190    0.159
        20 -11.4544    196.6839    175.3736   1.0663033751e+02   1.1209588414e+01    0.3517131    0.2589367  66.85 0.0009322423    2.258    0.557
        21 -12.6970    196.4627    171.4182   1.0595490137e+02   1.1776697805e+01    0.4633742     0.388438 -36.81  0.001699515    1.482    0.325
        22 -13.0223    138.0954    171.0971   1.1745936260e+02   2.2011369757e+01    0.5626888    0.4318539  71.50  0.003352519    1.606    0.377
        23 -13.0241    144.9888    168.9124   1.1569274948e+02   2.1220893558e+01    0.5387836      0.38155  89.79  0.002783103    2.376    0.579
        24 -11.2083    126.0074    172.1637   1.2011854136e+02   2.3785479608e+01     0.242987    0.1856827 -57.51  0.001209031    1.494    0.331
        25 -11.9454    113.0834    169.7873   1.2247922447e+02   2.6200361203e+01     0.331772    0.2857754 -18.85  0.001278326    1.517    0.341
        26 -10.8230     15.5314    238.5388   1.4522591619e+02   2.6291296009e+01    0.0915382   0.05619289  61.38 0.0001037152    1.092    0.084
        27 -11.8867    109.8415    208.3443   1.2770387919e+02   2.0310540191e+01    0.2599155    0.2057823  28.25  0.001891097    1.404    0.288
        28 -18.7753     60.9924     97.3984   1.2380184993e+02   4.8204402900e+01     16.55991    0.7211812 -61.23   0.02316664   21.861    0.954
        29 -10.7118    223.7809    163.9274   9.9540405020e+01   7.8415371437e+00    0.2003022     0.172758 -31.62 0.0004818822    1.506    0.336
        30 -12.4268    163.4598    203.7599   1.1730556854e+02   1.2985989432e+01    0.2554974    0.2344504 -42.06 0.0009466396    1.394    0.283
        31 -10.6918    130.0934    161.2992   1.1759773351e+02   2.5016804839e+01    0.1821172    0.1452008  48.16 0.0004939899    1.142    0.124
        32 -12.0613    161.3527    198.7555   1.1699608672e+02   1.4001328889e+01    0.2879041    0.1781171  58.22  0.001295844    2.005    0.501
        33 -11.7482    164.1266    156.5720   1.0958133899e+02   1.9859624249e+01    0.2522966    0.2238942  -4.04 0.0007623467    1.181    0.153
        34  -9.9404     14.8151    157.1833   1.4184813304e+02   3.9913291898e+01    0.1261255    0.1079718 -75.55 0.0004460026    1.313    0.238
        35 -13.7416    133.9390    145.6864   1.1407670849e+02   2.7180413508e+01     1.070223    0.3649334 -55.26  0.003653954    4.116    0.757
        36 -11.8461    128.4399    143.0717   1.1484326035e+02   2.8621700424e+01    0.3125311    0.1968255  35.23 0.0009694599    1.560    0.359
        37 -11.0546    151.4580    150.0144   1.1102645223e+02   2.3274139390e+01    0.2352635    0.1733119  53.47 0.0001792421    1.413    0.292
        38 -11.2059    174.2947    148.9754   1.0601001132e+02   1.9174616986e+01    0.3036122    0.2139407  45.80  0.001145936    1.359    0.264
        39 -13.2110    144.8956    146.0917   1.1171495059e+02   2.5154702193e+01    0.5245219     0.402451  71.76   0.00281602    1.709    0.415
        40 -12.4313     28.7953    143.9486   1.3797641136e+02   4.1375126036e+01    0.2740754    0.2290158  -9.86    0.0020156    1.800    0.444
        41 -11.3171     13.1248    143.6486   1.4137360994e+02   4.2684625711e+01    0.1402591    0.1188319  74.99  0.001133916    1.139    0.122
        42 -12.2192      8.8973    139.1610   1.4200423131e+02   4.3883139395e+01    0.2324904    0.1828614  38.58 0.0005105539    1.460    0.315
        43 -12.4087     24.1494    140.5525   1.3873891061e+02   4.2451766335e+01    0.3353349    0.1679392  25.32  0.001969428    2.438    0.590
        44 -11.0332    169.0912    202.7998   1.1614298363e+02   1.2218568716e+01      0.17577    0.1360804  46.39 0.0004313201    1.229    0.187
        45 -13.3512    135.7009    124.5334   1.0946476468e+02   3.0843455375e+01    0.9692025    0.2382234 -48.99  0.002818398    4.684    0.787
        46 -12.8054      2.9567    127.4964   1.4260118510e+02   4.6635032639e+01    0.5587773    0.1756692 -87.45  0.002617876    2.923    0.658
        47 -11.7105    160.8851    128.0246   1.0444203576e+02   2.5307263363e+01    0.3459708    0.2944623 -45.18  0.001650739    1.308    0.235
        48 -12.3535     19.0677    128.1873   1.3891469661e+02   4.5393807885e+01    0.2899503    0.1903158 -49.61   0.00192359    1.779    0.438
        49 -13.2338    113.9534    119.2894   1.1369051118e+02   3.5789632321e+01    0.5166358    0.3550633 -68.35  0.002572183    1.765    0.433
        50 -11.0499    168.4327    113.9671   9.9474128637e+01   2.6205678236e+01    0.4283345    0.2843929 -61.56  0.001188968    2.379    0.580
        51  -9.4177    228.0029    232.0015   1.1024694647e+02  -9.9781070785e-04    0.1289956   0.09247834  20.84 0.0003942536    1.077    0.072
        52 -12.1392      4.0643    112.4175   1.4131098335e+02   4.9705881332e+01    0.3211334    0.2445433  -7.35  0.002352334    1.928    0.481
        53 -10.4069    205.6422    110.1202   9.0873335825e+01   1.8765378857e+01    0.2858257    0.1986243  35.88 0.0007612526    1.353    0.261
        54  -9.5659     30.8626    204.9099   1.4146333954e+02   3.0032359237e+01    0.1218895    0.1040987  55.47 0.0007321607    1.297    0.229
        55 -11.4852     14.9617    109.7292   1.3831920484e+02   4.9600861512e+01     0.266073    0.1534015  -3.12  0.001498458    2.951    0.661
        56 -12.8402    167.2716    190.8308   1.1472824004e+02   1.4139616665e+01    0.3965197    0.3073641  35.92  0.001872555    1.048    0.045
        57 -13.5648    174.3135    194.2556   1.1392962192e+02   1.2507876425e+01    0.5073091    0.3788837  46.71  0.003276552    1.287    0.223
        58 -11.1139     41.6027     91.6977   1.2856819839e+02   5.1498804577e+01    0.1970868    0.1858577 -51.94 0.0005083068    1.173    0.148
        59 -10.0200     98.6962     80.6108   1.0864546000e+02   4.6509970259e+01    0.1917986    0.1343868  48.83 0.0009450267    1.588    0.370
        60  -9.7072    145.6725     79.6971   9.5504265278e+01   3.7331374491e+01    0.1594242    0.1164222  10.99 0.0004341903    1.645    0.392
        61 -10.1041     13.6354     59.9184   1.3244932471e+02   6.0716307632e+01     0.171079    0.1173555 -69.54 0.0004456448    1.150    0.130
        62 -14.0417    155.2920     53.8085   8.4888820730e+01   3.9478172921e+01     1.287969    0.9510933  22.57  0.001200119    1.437    0.304
        63  -8.7382     13.3727    244.9876   1.4573282611e+02   2.5575026224e+01     0.210984   0.08120667 -68.28  0.001501537    3.031    0.670
        64 -12.4174    170.7200     31.0561   7.3791297290e+01   3.8698182120e+01    0.4521465    0.3656944  21.24 0.0009412933    1.228    0.185
        65 -10.4783    138.1934     31.3862   8.0705482657e+01   4.7024495007e+01    0.3005015    0.2316834  89.24  0.001308647    1.857    0.461
        66 -12.4312    180.4058    192.7256   1.1256611725e+02   1.1703288543e+01    0.2942442    0.2620435  78.25  0.001193855    1.626    0.385
