#   1 NUMBER                 Running object number                                     
#   2 MAG_AUTO               Kron-like elliptical aperture magnitude                    [mag]
#   3 X_IMAGE                Object position along x                                    [pixel]
#   4 Y_IMAGE                Object position along y                                    [pixel]
#   5 X_WORLD                Barycenter position along world x axis                     [deg]
#   6 Y_WORLD                Barycenter position along world y axis                     [deg]
#   7 A_WORLD                Profile RMS along major axis (world units)                 [deg]
#   8 B_WORLD                Profile RMS along minor axis (world units)                 [deg]
#   9 THETA_WORLD            Position angle (CCW/world-x)                               [deg]
#  10 FWHM_WORLD             FWHM assuming a gaussian core                              [deg]
#  11 ELONGATION             A_IMAGE/B_IMAGE                                           
#  12 ELLIPTICITY            1 - B_IMAGE/A_IMAGE                                       
         1 -10.7710    212.6196     19.1020   4.0462235466e+01   2.9799005646e+01    0.3733819    0.2146848 -31.68  0.001594208    1.752    0.429
         2 -11.7193    166.1546     18.4323   4.5912923116e+01   4.1310211759e+01    0.5512942     0.368068 -73.35   0.00200875    1.743    0.426
         3 -12.1294      5.2520     15.9113   9.6501434744e+01   7.1700525745e+01     0.521665    0.4109803 -72.57  0.001948165    2.154    0.536
         4 -10.1044      5.5281      8.7935   9.3141626571e+01   7.2840204601e+01    0.2960043    0.2474783  32.09  0.002225505    1.787    0.440
         5 -10.8573    238.2493     18.2913   3.7911404867e+01   2.4018389140e+01    0.3195913    0.2892135 -22.97  0.001322311    1.357    0.263
         6 -10.7780     16.1819     17.4571   9.1342707979e+01   7.0585187678e+01    0.4623799    0.2516284 -23.36  0.002590705    1.667    0.400
         7 -10.9731    175.3448     11.0876   4.2488506037e+01   3.9768602516e+01    0.5916693    0.3074011  71.98  0.002766705    1.787    0.440
         8 -10.4278    179.5176     13.4477   4.2649447069e+01   3.8490870287e+01    0.3260439    0.1814574 -89.36 0.0009117131    2.053    0.513
         9 -11.1788     66.6015     15.6548   6.8081825265e+01   6.4079234252e+01    0.5522013    0.1955735  39.44  0.001691034    2.710    0.631
        10 -10.5602    115.7280     14.8850   5.3756215495e+01   5.4000749443e+01    0.4696904     0.175111  51.29   0.00154979    2.266    0.559
        11 -10.2418    247.2246     11.8240   3.5777650524e+01   2.2811610697e+01    0.3525175    0.2290407  40.74  0.001599423    2.344    0.573
        12 -11.2795    246.3101      6.4976   3.4697575900e+01   2.3596704534e+01    0.2962574    0.2638117 -13.67 0.0009464498    1.499    0.333
        13 -10.2517    243.0276      2.0393   3.3966949343e+01   2.4776854479e+01    0.3009386    0.1507146 -55.40  0.001157867    1.727    0.421
        14  -9.8666     89.0247     13.4598   5.9894420300e+01   6.0018740266e+01    0.1806519    0.1565298  14.18  0.001128983    1.043    0.041
        15 -10.5263    148.6295     12.2702   4.6624221976e+01   4.6315973358e+01    0.4244059    0.1738081  51.31  0.001763757    2.191    0.544
        16 -10.9639    133.0336     12.7183   4.9451892697e+01   5.0103085790e+01    0.2180521    0.2075978 -26.30 0.0003266842    1.149    0.130
        17 -11.6624    204.2016      7.9527   3.8478004125e+01   3.3014902028e+01    0.5364485    0.3616499  47.98  0.001899693    1.706    0.414
        18  -9.9063    208.6151      3.5802   3.6977154840e+01   3.2405574536e+01    0.2803554       0.1721 -74.98  0.001493647    1.598    0.374
        19  -9.8211     32.2236     12.1120   8.0717038033e+01   6.9701466926e+01     0.177799    0.1284516  -9.61 0.0004874619    1.124    0.110
        20 -10.2832     17.5051      1.9986   8.2945416634e+01   7.2753571094e+01    0.1842867    0.1385162   0.45 0.0007255346    1.135    0.119
        21 -10.6591     24.8770      6.7196   8.1587790487e+01   7.1311208029e+01    0.2249258    0.1636004 -37.58 0.0006669824    1.564    0.361
        22 -10.6932     13.8446     10.6888   8.9426226371e+01   7.1860646398e+01     0.313836    0.1701603 -32.01  0.001024826    1.455    0.313
        23 -11.6738     20.3731      6.2046   8.3657983760e+01   7.1877569409e+01    0.4830664     0.265918 -20.23  0.002021339    1.618    0.382
        24 -10.0643    165.2312      8.2125   4.2935038995e+01   4.2567639746e+01    0.3431436     0.198383 -36.69  0.001714785    1.792    0.442
        25 -11.5110    109.2885      7.3785   5.2246841611e+01   5.6190441145e+01    0.6298398    0.3850782  64.75  0.002870279    1.638    0.389
        26 -11.9974    192.1067      7.5388   3.9581720508e+01   3.5982338091e+01     0.661363    0.3454104  59.80  0.002468394    1.793    0.442
        27 -11.1182    193.2109      3.6125   3.8426098367e+01   3.6095426485e+01    0.7301325    0.1249516  60.82  0.002370609    4.080    0.755
        28 -10.1670    120.3229      7.0035   4.9792630371e+01   5.3667021416e+01    0.4568226    0.2453584 -35.88  0.001721247    2.054    0.513
        29  -9.7020     53.1790      9.5620   7.0205806283e+01   6.7058326284e+01    0.2099062    0.1131215  45.63 0.0005178953    1.995    0.499
        30 -12.2378    216.4540      2.4224   3.6030281951e+01   3.0685537939e+01    0.3717152    0.3114813 -38.99 0.0008310916    1.267    0.211
        31 -10.4974    182.2862     18.4278   4.3721747277e+01   3.7273175076e+01    0.4148017    0.2243658 -21.64  0.001656748    2.137    0.532
        32  -9.3967    128.2517      8.0591   4.8667042044e+01   5.1688496728e+01    0.1744268    0.1632797  45.57 0.0002248101    1.049    0.046
        33  -8.9855     74.2737      8.3115   6.2027970211e+01   6.3481536012e+01    0.1301147   0.08287992  18.37 0.0004128783    1.554    0.357
        34  -9.7050     47.3494      8.3720   7.1990537911e+01   6.8107464849e+01    0.2992027    0.0914712  37.24  0.001184684    3.221    0.690
        35  -9.5315    138.7775      7.0939   4.6485729299e+01   4.9222348200e+01    0.1731659    0.1367744  24.33 0.0009844311    1.364    0.267
        36 -10.2182    236.5374      4.0735   3.4863510010e+01   2.5974601253e+01    0.3646125    0.1999696 -33.17  0.001993496    1.782    0.439
        37  -9.5533    170.8235      6.3760   4.1674657027e+01   4.1347074880e+01    0.2876086    0.1101106  66.22  0.001186157    2.245    0.555
        38  -9.2028    173.6809      4.3352   4.0736530864e+01   4.0825855051e+01    0.1387265    0.1224247  67.40 0.0004710538    1.082    0.076
        39 -10.3530     87.1809      6.2335   5.7235416548e+01   6.1110085409e+01    0.3305231    0.1572556  56.70  0.001129813    2.037    0.509
        40  -9.2046     61.6105      5.8003   6.5121780559e+01   6.6058398308e+01     0.160521    0.1052295 -28.82 0.0006866597    1.590    0.371
        41 -10.0544    154.4842      5.0102   4.3405354063e+01   4.5532190128e+01    0.3459313     0.140903  40.41  0.001330349    2.983    0.665
        42 -10.9652    159.9116      2.9877   4.2040572551e+01   4.4361956295e+01    0.3978093    0.2754171  66.79  0.001081925    1.277    0.217
        43 -10.7338    146.8341      2.5920   4.3721912689e+01   4.7630117799e+01    0.4496192     0.325767  74.81  0.002183611    1.290    0.225
        44 -10.5452     37.8227      2.4750   7.3046527034e+01   7.0191115921e+01    0.2665973    0.2280185  22.61  0.001062267    1.362    0.266
        45 -10.2830     30.9275      3.4105   7.6799006274e+01   7.1007269002e+01    0.1870921    0.1383834 -29.60 0.0003454468    1.430    0.301
        46  -9.4498    225.6524      3.2665   3.5495767088e+01   2.8490069289e+01    0.2379555    0.1347862 -83.92  0.001253003    1.721    0.419
        47  -9.6129      3.3926      2.8011   9.1429969266e+01   7.3921280180e+01    0.1636356   0.07301401 -34.57 0.0009503735    1.719    0.418
        48  -9.7897    230.0473      1.8037   3.4830641714e+01   2.7650244872e+01    0.1957962    0.1376398 -71.01 0.0005768748    1.237    0.191
        49 -10.8137    181.2481      1.7193   3.9147288953e+01   3.9195333447e+01    0.4740978    0.1514515  67.09  0.001872445    2.608    0.617
        50  -9.7172    123.9641      2.1050   4.7279815411e+01   5.3215213533e+01    0.2424639    0.1762437 -87.56  0.001322097    1.650    0.394
        51 -10.3846    115.6444      2.0611   4.8836740048e+01   5.5174849123e+01    0.2304408    0.1653384  54.15 0.0003298245    1.213    0.176
        52 -11.1222     73.8199      1.6787   5.9030212062e+01   6.4198702399e+01    0.5563411    0.1513518  54.64  0.002107303    3.454    0.710
        53 -10.6115     49.4544      2.1825   6.7903172680e+01   6.8472533171e+01    0.2541363    0.1476036  37.46 0.0004114511    1.586    0.370
        54  -9.3332    202.5038      1.5215   3.7007503554e+01   3.4057594862e+01    0.1288418    0.1105659 -82.11 3.196028e-05    1.001    0.001
        55  -9.3137    130.0067      1.5080   4.6003414467e+01   5.1818376548e+01    0.1901692    0.1070629 -82.97 0.0008106114    2.646    0.622
        56  -8.9413     90.6956      1.2413   5.4097885344e+01   6.0805964743e+01    0.1102263   0.09819516 -83.97 0.0002065124    1.490    0.329
        57 -10.7711    207.9395    118.2596   6.6696521033e+01   1.5452817636e+01    0.4087326    0.3202439  50.80  0.001583674    1.379    0.275
        58  -8.8595    161.6833    119.7448   7.6645385944e+01   2.5490109302e+01    0.1538857    0.1233477   9.83 0.0002097427    1.533    0.348
        59  -8.9919     93.3218    119.2891   9.4382395269e+01   3.9453470604e+01    0.1484141    0.1158517 -19.54 0.0003419365    1.604    0.377
        60 -10.9720     54.7466    118.0921   1.0549300251e+02   4.5355814160e+01    0.2160719    0.2078246 -87.29 0.0002576393    1.124    0.110
        61 -12.0335     28.7037    131.9511   1.1520177387e+02   4.4698383542e+01    0.2336894    0.1995502 -86.18 0.0003099897    1.079    0.073
        62 -11.1129      9.6596    118.3077   1.1871392347e+02   4.9476392841e+01    0.2155367    0.1953744  42.45 0.0009907697    1.364    0.267
        63 -10.5866    232.5783    117.0043   6.2134578397e+01   1.0490165226e+01    0.2759054    0.2182409  41.22  0.001204404    1.402    0.287
        64  -9.5565     83.5003    117.4925   9.6819984571e+01   4.1498249050e+01    0.1478138    0.1355016 -65.00 0.0007203204    1.033    0.032
        65 -10.6040      2.6098    116.0297   1.2042188993e+02   5.0459404343e+01    0.2534042    0.1859386  22.45  0.001025531    1.765    0.433
        66  -9.9760    250.1869    115.1124   5.8983317903e+01   7.3428060547e+00    0.2085694    0.1769682 -12.76 0.0007176598    1.196    0.164
        67 -10.8928     62.0463    113.1073   1.0228430451e+02   4.5658737713e+01    0.5343342       0.2295 -49.92   0.00219142    2.072    0.517
        68  -9.8504     12.3335    127.3159   1.1905593731e+02   4.7145739903e+01    0.1269316   0.07654068 -48.55 0.0007047112    1.689    0.408
        69 -10.7395    244.2317    109.0128   5.8457624417e+01   9.5000725827e+00    0.2192227    0.2056368  81.39 0.0004517888    1.253    0.202
        70  -9.4786     33.9865    114.4644   1.1106535379e+02   4.8459703914e+01    0.1644765    0.1316753  31.13 0.0003753717    1.491    0.329
        71 -10.9687     14.2646    113.5553   1.1677633058e+02   5.0292398074e+01    0.2773151    0.1377551  35.17  0.001232959    2.328    0.571
        72 -10.1345      4.3276    111.5561   1.1940222295e+02   5.1411471648e+01     0.215121   0.08879191 -71.84 0.0005373089    1.849    0.459
        73 -11.2306    233.6811    110.5183   6.0421940148e+01   1.1374259511e+01     0.423504    0.1762292  49.77  0.001675217    2.647    0.622
        74 -10.2875     31.0631    111.0105   1.1136922253e+02   4.9563917486e+01    0.2147619    0.1783532  27.92  0.001346284    1.459    0.314
        75 -10.8913     19.6371    109.2784   1.1456145894e+02   5.0922922268e+01     0.281315    0.2268592 -17.16  0.001679774    1.559    0.359
        76 -10.0783    250.0366    107.7873   5.7331615589e+01   8.5639341873e+00    0.2413179    0.1771026 -34.28 0.0005549323    1.173    0.147
        77 -10.2408     37.0496    107.4873   1.0890005059e+02   4.9857767729e+01    0.3211652     0.142509 -56.09  0.001468588    1.807    0.447
        78  -9.9153    153.9685    107.0328   7.5073885460e+01   2.9901885399e+01    0.2263059    0.2199128 -20.85  0.001180406    1.026    0.026
        79  -8.9532    137.4720    107.5262   7.9265283275e+01   3.3490211404e+01    0.1573735    0.1519095 -58.04  0.000808996    1.046    0.044
        80  -9.3178    235.0416    105.2039   5.8945402394e+01   1.1994404839e+01    0.1876813     0.162746 -66.66 0.0004495146    1.283    0.221
        81  -9.5417    232.1225    102.4021   5.8722978952e+01   1.3075449202e+01    0.2683251    0.1719795 -43.40 0.0007688832    1.419    0.295
        82 -10.1687    211.0903    104.3532   6.2658096321e+01   1.7292354735e+01    0.2695155    0.2017425 -45.04 0.0003858534    1.268    0.211
        83  -9.7907     48.1190    103.4229   1.0459501670e+02   4.9685801340e+01    0.2406792    0.1515189 -52.53  0.001239202    1.354    0.262
        84 -10.6914    174.9308    102.9416   6.9257037797e+01   2.5872278631e+01    0.2259578    0.2165131 -34.05  0.001185464    1.011    0.010
        85 -11.0497    102.2740    101.5474   8.7282829436e+01   4.2018821421e+01    0.4442233    0.3029991  -4.41 0.0006065215    2.370    0.578
        86 -12.3516    244.4623     98.1982   5.5901789708e+01   1.1227908822e+01    0.6258665    0.5411712 -40.65  0.003115472    1.022    0.022
        87 -10.1748      8.7068     98.9563   1.1637390284e+02   5.4115162554e+01    0.2267698    0.1801157 -87.45 0.0004973473    1.229    0.186
        88 -10.2207      3.7764     98.0629   1.1778877635e+02   5.4609632167e+01    0.2184062    0.2015606  50.55  0.001602315    1.351    0.260
        89 -11.9946    225.2793     99.3961   5.9061322919e+01   1.5045125211e+01    0.3216632    0.2576308 -50.43 0.0002349014    1.213    0.175
        90 -10.4382    110.1771     99.1934   8.4339063430e+01   4.1032595440e+01    0.2259372    0.2057184 -13.92 0.0005048454    1.153    0.133
        91 -10.2162     50.8782     98.8705   1.0271437508e+02   5.0461408565e+01    0.2085255    0.1622691 -42.90 0.0003689922    1.201    0.167
        92  -8.8337     15.6831     99.7136   1.1428818695e+02   5.3484441091e+01    0.1277631   0.07672807 -44.35 0.0003857543    1.588    0.370
        93  -8.5835    188.6731     98.3069   6.5217132771e+01   2.3536598995e+01    0.1577767    0.1199845 -72.46 0.0007037008    1.653    0.395
        94 -10.0070    235.8847     92.4521   5.5765421439e+01   1.3942047200e+01    0.3970613    0.2332993  75.92  0.001701544    2.541    0.607
        95  -9.8112    101.9436     97.6826   8.6312766121e+01   4.2955822454e+01    0.2475082     0.125957  20.02 0.0003708493    4.505    0.778
        96  -8.7967    129.7263     96.6966   7.8238114014e+01   3.7512088821e+01    0.1539658    0.1230339  -5.16 0.0006951906    1.539    0.350
        97  -9.0290     17.8710     96.1940   1.1300002193e+02   5.4161962646e+01    0.1714552    0.1159956 -50.63 0.0002748747    1.273    0.215
        98 -10.5158     51.8849     93.9109   1.0123959832e+02   5.1517405840e+01    0.2050807    0.1612536 -39.76            0    1.200    0.166
        99 -10.1657     46.8215     94.0206   1.0295971802e+02   5.2068147283e+01    0.2344439    0.1914045  24.42 0.0006540447    1.429    0.300
       100  -9.2974     31.6780     93.3600   1.0790130344e+02   5.3729106489e+01    0.1315988   0.09413517  79.17 0.0007043311    1.773    0.436
       101  -9.4811      1.7728     92.8227   1.1767101164e+02   5.5934366068e+01    0.1575285    0.1212873  89.92 0.0006295387    1.296    0.228
       102  -9.3184     80.4839     92.4365   9.1462826107e+01   4.7886306168e+01    0.1455664    0.1336802 -42.79 0.0008069717    1.015    0.014
       103  -9.7515    250.4212     90.0400   5.3190959634e+01   1.1335893002e+01    0.2756208    0.1381297 -44.56  0.001251361    1.763    0.433
       104 -10.0714    104.2839     91.0014   8.3705255816e+01   4.3991134318e+01    0.2524571    0.2166079  52.68            0    1.281    0.219
       105  -8.6696     33.6553     91.2937   1.0680455846e+02   5.4036792115e+01     0.126608   0.09594253  74.85 0.0007030222    1.664    0.399
       106 -11.1113     29.2021     85.8690   1.0717966539e+02   5.5695466135e+01    0.7083138    0.2641235 -43.75  0.002982417    2.495    0.599
       107  -9.4146    157.7287     90.0611   6.9424648758e+01   3.2456323575e+01    0.2189117    0.1956752 -33.84  0.000370659    1.100    0.091
       108  -9.8490      7.2243     89.4959   1.1537765618e+02   5.6408660080e+01    0.2319277    0.1652024  77.73 0.0004514362    1.628    0.386
       109  -9.9318     87.7202     88.1784   8.7954145775e+01   4.7641469445e+01    0.3615999    0.1194685 -46.45   0.00120733    2.772    0.639
       110 -10.3631    222.8521     87.3168   5.6443860252e+01   1.7621666738e+01    0.2512049    0.2132704 -37.18 0.0003882381    1.084    0.078
       111  -9.9209    124.5064     88.5080   7.7224981694e+01   4.0367401949e+01    0.1544974    0.1493723 -35.45 -4.927511e-05    1.022    0.022
       112 -10.0854     67.1294     88.2037   9.4677862786e+01   5.0867492406e+01    0.2096521    0.1908069 -79.17 0.0006927911    1.243    0.196
       113 -10.1330     43.7160     88.1489   1.0264991151e+02   5.3777882374e+01     0.207671    0.1809758  47.86 0.0006387375    1.372    0.271
       114  -9.7184     21.1240     87.6592   1.1034813106e+02   5.5924194645e+01    0.1627819    0.1392619 -49.87 0.0003174186    1.104    0.094
       115  -9.9120    177.3158     86.1919   6.4134183842e+01   2.8487771942e+01    0.3102455    0.1878683 -41.98  0.001315028    1.593    0.372
       116  -9.2830     94.1421     86.8234   8.5544312438e+01   4.6803880478e+01    0.1961571    0.1662697 -10.76 0.0002453565    1.281    0.219
       117 -10.7538     17.1379     85.4341   1.1129227973e+02   5.6725287493e+01    0.3033203    0.1356122 -61.70  0.001176345    1.708    0.414
       118  -9.6769     54.5496     86.2085   9.8426310566e+01   5.2986368833e+01    0.2025085    0.1090645 -45.36 0.0006040151    1.632    0.387
       119  -9.8942    155.0523     85.0101   6.8557563082e+01   3.4067359742e+01    0.2295368     0.224569   8.78  0.000320317    1.041    0.039
       120  -9.1998    129.9873     85.7371   7.4925542810e+01   3.9730370707e+01    0.1980108    0.1358274  46.53 0.0004596002    1.495    0.331
       121 -10.0164     56.5997     82.4866   9.6727299694e+01   5.3577300324e+01    0.2343617    0.2125068  66.85 0.0007059642    1.350    0.259
       122 -10.6064     49.3426     83.6034   9.9565499246e+01   5.4201898159e+01    0.3638352    0.2367519 -14.91   0.00128967    2.025    0.506
       123  -9.7430     53.5136     81.4530   9.7530476433e+01   5.4194518376e+01    0.3098078    0.1252364 -39.44  0.001185753    2.627    0.619
       124  -9.2023    193.9539     84.2386   6.0433292290e+01   2.4838149017e+01      0.18555    0.1292935  58.66 0.0003004507    1.513    0.339
       125  -9.2447    148.1340     82.8639   6.9524786047e+01   3.6120970009e+01    0.2097995    0.1820934   2.24            0    1.295    0.228
       126 -10.5959     73.2740     81.2431   9.0642873778e+01   5.1522118506e+01    0.4774121    0.2558396 -40.89  0.002111854    1.746    0.427
       127  -9.3430     35.5576     82.7160   1.0422550575e+02   5.5850976421e+01    0.1833397    0.1143557 -69.20 0.0009441145    1.617    0.382
       128 -10.3884    239.2445     80.3723   5.2399809700e+01   1.5176995295e+01    0.3382613    0.1689957 -58.13  0.001340168    2.601    0.616
       129  -9.6296      1.9111     79.9452   1.1559649830e+02   5.8879869753e+01    0.2176228    0.1421098 -76.48  0.001335257    1.366    0.268
       130 -10.5842    249.8288     78.5723   5.0613288640e+01   1.3246256101e+01    0.3122107    0.2353359  -7.66  0.001666591    1.720    0.419
       131  -8.8412    194.7229     79.2987   5.8953329426e+01   2.5511407952e+01    0.1514658    0.1124163 -65.33 0.0002184125    1.536    0.349
       132  -8.6276     90.6684     79.2897   8.4342912445e+01   4.9048024346e+01    0.1417584    0.1184651  88.53 0.0003764483    1.626    0.385
       133  -8.6824     38.2905     79.6423   1.0250045347e+02   5.6287432897e+01    0.1275769   0.09874678  87.70 0.0007027459    1.687    0.407
       134  -9.3396    135.4977     78.4945   7.1275914595e+01   3.9909553813e+01    0.1542007    0.1493445 -10.22 0.0008106043    1.018    0.017
       135 -10.9153    176.8641     75.3083   6.1123967612e+01   3.0542347936e+01    0.5384154    0.2487755  59.76  0.001988605    2.345    0.573
       136 -10.3321    170.3721     73.1122   6.1761620549e+01   3.2518365132e+01     0.552384    0.2291551  61.10  0.001870744    2.792    0.642
       137  -9.5030     82.3609     75.6110   8.5884864723e+01   5.1270662749e+01    0.2904371     0.190664  -9.80  0.001253232    2.198    0.545
       138 -10.3934     63.4547     75.3741   9.2287725606e+01   5.4239642201e+01    0.3642619    0.3224937  53.73  0.001677997    1.385    0.278
       139 -10.2784     52.9931     70.2108   9.4519177144e+01   5.6734476471e+01     0.264098    0.1715252 -54.79 0.0005232481    1.458    0.314
       140 -11.4930     16.8708     73.9539   1.0903315740e+02   5.9360000017e+01    0.2399217    0.1899886 -52.28 0.0003498892    1.014    0.014
       141 -10.0702    216.6466     73.4135   5.3855071881e+01   2.1311141546e+01    0.3500802     0.213804 -49.99  0.001612662    1.599    0.375
       142  -9.8807     94.6750     71.2864   8.0506802053e+01   4.9954806515e+01    0.2342801    0.1436068 -44.52 0.0005404953    1.574    0.364
       143  -9.4984     68.8897     73.8300   8.9909612514e+01   5.3788122530e+01    0.2149741    0.1676384 -29.33  0.001165178    1.216    0.178
       144  -9.3150     44.9915     73.0750   9.8312334757e+01   5.7052687574e+01    0.1933343    0.1619923 -60.11 0.0009060209    1.214    0.176
       145 -10.3620     45.1566     69.0948   9.7116075860e+01   5.7901352074e+01    0.3096945    0.1535372 -39.39 0.0003573487    1.858    0.462
       146 -12.0476    199.7894     71.5909   5.6000411820e+01   2.5585871950e+01    0.2725521      0.25705  78.36 0.0002509944    1.089    0.082
       147  -9.0246    137.9643     72.2207   6.8688576402e+01   4.0514038298e+01    0.1986297    0.1259877  51.78 0.0004738587    1.602    0.376
       148 -11.4391     79.7132     69.8834   8.4929431190e+01   5.2901683474e+01    0.2358177    0.2199593  -9.71 0.0002696592    1.061    0.058
       149 -11.8488     52.9802     75.1238   9.5963144081e+01   5.5669036205e+01    0.2435072    0.2184953 -20.42  0.001498325    1.115    0.103
       150  -9.1486     10.4440     69.4582   1.1047207967e+02   6.0772825082e+01    0.1264998   0.09198973 -49.70 0.0008050425    1.086    0.080
       151 -11.9383      1.7938     61.9362   1.1220927861e+02   6.2884970442e+01    0.8856468    0.1895393 -65.19  0.003300628    3.518    0.716
       152 -11.5584      6.0134     59.0716   1.0988166204e+02   6.3288791153e+01    0.4392801    0.3090482  61.98  0.001016818    2.099    0.524
       153  -9.5035    158.4522     76.5246   6.5269420227e+01   3.4828764911e+01    0.1527868    0.1501441 -23.40 4.505643e-05    1.016    0.016
       154 -11.5236    245.3088     65.0776   4.8018388599e+01   1.6232291871e+01    0.3721249    0.2185967 -42.78 0.0008590631    1.457    0.314
       155 -10.2711     89.3578     72.7832   8.2691657416e+01   5.0633820482e+01    0.3935635    0.1703158 -46.94  0.001509401    2.247    0.555
       156  -9.6825     25.9486     67.6460   1.0408081542e+02   6.0078835631e+01    0.2798419    0.1281831  16.76  0.001326523    2.744    0.636
       157 -11.4244     32.2374     64.6633   1.0082375120e+02   6.0177221956e+01    0.2877448    0.2336909   3.40  0.001832491    1.373    0.271
       158 -10.6201     31.3887     58.5982   9.9407027789e+01   6.1541306417e+01    0.3239627    0.2014367 -63.61  0.001279938    1.733    0.423
       159 -11.2228    222.3068     70.8937   5.2395993736e+01   2.0412399874e+01    0.4072071    0.2806758 -55.61 0.0006912069    1.448    0.309
       160  -9.3774    143.6918     66.0854   6.5363724904e+01   4.0250458704e+01    0.2196606    0.1918795 -29.86 0.0007800546    1.145    0.127
       161  -9.5907    105.7464     66.5904   7.5548543969e+01   4.8685187060e+01    0.2896695     0.138505  40.19  0.001132577    2.195    0.544
       162  -9.7908     75.1866     66.1072   8.5229325436e+01   5.4411017716e+01    0.2084519    0.1712443 -20.74  0.000308593    1.163    0.140
       163  -9.3620    187.5094     65.5598   5.6395590336e+01   2.9557453012e+01    0.1494663    0.1403481 -67.29  0.000122302    1.038    0.037
       164 -10.0849     14.3729     64.8026   1.0789707053e+02   6.1552140021e+01    0.2143709    0.1749822 -33.85 0.0007470823    1.171    0.146
       165 -10.0503    134.5936     64.0525   6.6881676747e+01   4.2764224494e+01    0.4243146    0.2272452  67.13  0.001531852    2.733    0.634
       166  -9.3716    100.1591     64.1023   7.6380433006e+01   5.0281531164e+01    0.1855953    0.1743048  86.89 0.0004033475    1.299    0.230
       167 -10.3599    230.5689     70.8555   5.1252595529e+01   1.8557830506e+01      0.29455    0.2766456 -62.38  0.001145254    1.066    0.062
       168 -10.0665     22.7085     63.4372   1.0425686607e+02   6.1252714279e+01    0.3754118    0.1536548 -28.49  0.001494467    3.425    0.708
       169 -10.3222    214.3893     61.6067   5.1136819882e+01   2.3687077198e+01    0.4035539    0.2906196  39.05  0.002012438    1.698    0.411
       170  -9.5434    203.1494     62.8970   5.3123498783e+01   2.6165455780e+01     0.218695    0.1840746 -67.23 0.0003667853    1.192    0.161
       171 -10.1722    193.6044     62.2146   5.4439655105e+01   2.8592408151e+01    0.3384322    0.2585021 -16.31  0.001335188    1.527    0.345
       172  -9.8307    174.9631     61.4424   5.7440659429e+01   3.3327425412e+01    0.2789755    0.1953824 -52.04 0.0005901973    1.493    0.330
       173  -9.0302     82.6173     62.1900   8.1351236502e+01   5.3929857802e+01    0.1949078    0.1240068 -31.69 0.0003769558    1.530    0.346
       174 -10.4505     70.5157     60.3481   8.4913239876e+01   5.6296250325e+01    0.3381591    0.2814024   3.79  0.001459939    1.223    0.182
       175  -9.9355    239.8078     59.8398   4.7430559282e+01   1.8187166114e+01    0.2344912    0.1832349 -76.53 0.0005988111    1.325    0.245
       176 -10.2863    188.3897     59.2970   5.4477147843e+01   3.0330796977e+01     0.463069    0.2491981 -64.76    0.0010088    2.837    0.647
       177 -10.0923    184.8492     54.8475   5.3796061139e+01   3.1889071758e+01    0.2918387    0.1984983 -44.26 0.0006435412    1.437    0.304
       178  -9.6879    150.0477     59.8225   6.1932429365e+01   3.9764741892e+01    0.2357138    0.2018996 -76.50 0.0008418712    1.335    0.251
       179  -9.2740     53.5140     60.5617   9.1285442821e+01   5.8684821041e+01    0.1351295    0.1147325 -29.08 5.072495e-05    1.010    0.010
       180  -9.5800     16.3654     60.0018   1.0590880369e+02   6.2455979777e+01    0.1730895    0.1267525 -54.88 0.0004741644    1.132    0.116
       181  -9.2596    250.5443     58.9887   4.6016480330e+01   1.6019932165e+01    0.1958149    0.1156822 -36.12 0.0003529546    1.494    0.330
       182  -9.5231    232.3243     58.9747   4.8120829323e+01   1.9964763092e+01     0.190053    0.1603009 -48.50 0.0003117844    1.055    0.052
       183  -9.8996     39.7621     58.2342   9.5917400261e+01   6.0781123741e+01    0.2371265    0.1572714 -45.51  0.001327707    1.260    0.206
       184 -10.4634     22.1092     57.3405   1.0283928573e+02   6.2598587143e+01    0.3314454    0.1578022 -60.60 0.0008921032    1.925    0.480
       185  -9.4729     24.9639     54.0307   1.0068884416e+02   6.3056523360e+01    0.1748968    0.1374362 -40.91  0.000336285    1.015    0.014
       186 -10.1633    200.3894     57.6376   5.2121401802e+01   2.7640896888e+01    0.3183045     0.212545  20.14  0.001064077    2.372    0.578
       187  -9.3235    105.0515     57.6985   7.2672138267e+01   5.0447175481e+01    0.1980808    0.1802144  27.57 0.0002870501    1.091    0.084
       188  -9.2853     60.2496     58.1764   8.7926373389e+01   5.8252516172e+01    0.1742932    0.1646548 -76.84  0.001071842    1.379    0.275
       189 -11.7040    225.2049     54.7974   4.7973719159e+01   2.2187871350e+01    0.6453307    0.3182233 -58.69  0.002629954    2.428    0.588
       190 -10.3106    220.6821     52.6734   4.8010552578e+01   2.3539796148e+01    0.2560768    0.2028053  -1.86 0.0006839004    1.681    0.405
       191  -9.8983    174.2886     55.5523   5.5819304217e+01   3.4417628268e+01    0.3278573    0.2194074  28.07 0.0009067903    1.990    0.498
       192  -9.4179    125.7583     56.5360   6.6575035064e+01   4.6096601328e+01    0.1907955      0.14578  65.15 0.0003736475    1.493    0.330
       193 -10.1414    118.4858     54.8989   6.7908207961e+01   4.8020051615e+01    0.3555194     0.216737 -31.51  0.001584662    1.650    0.394
       194 -10.2036    122.5522     52.1567   6.5880271672e+01   4.7546892563e+01     0.369664    0.1937714  34.14 0.0009226559    2.315    0.568
       195 -10.1013    244.0661     54.8775   4.5777607488e+01   1.7983318766e+01    0.2185069    0.1712084 -40.61 0.0003916502    1.154    0.133
       196 -10.7352    168.3917     57.2045   5.7398455383e+01   3.5636164739e+01    0.3655941    0.2182298  73.17  0.001514482    2.025    0.506
       197  -8.9124    109.6496     55.3145   7.0493483839e+01   4.9887778724e+01    0.1454251    0.1181656 -78.05 0.0007046665    1.728    0.421
       198  -9.8488     93.2800     54.4731   7.5108591940e+01   5.3380815136e+01    0.2565359    0.1796162 -32.73 0.0005508937    1.368    0.269
       199  -9.6191    191.4819     53.9439   5.2471988569e+01   3.0379758640e+01    0.2230839    0.2018247  20.70  0.001223961    1.283    0.220
       200 -10.1356    145.4369     53.3129   6.0835285137e+01   4.1932601711e+01    0.3962086    0.1492289 -30.97  0.001196893    2.795    0.642
       201 -10.3482     30.0769     52.9481   9.8212056596e+01   6.2827155112e+01     0.321131    0.2032118  -4.84  0.001780666    1.864    0.463
       202  -8.9994    106.5235     53.4675   7.0729514517e+01   5.0865656134e+01    0.1488767    0.1319232   6.12 -2.932135e-06    1.103    0.093
       203  -8.8748     52.3496     53.7046   8.9403110229e+01   6.0198548579e+01    0.1203548     0.106561  84.10 0.0007032937    1.679    0.404
       204 -10.7383     42.0814     51.7809   9.2850922691e+01   6.1824555341e+01    0.3214159    0.1512887 -44.76 0.0005301982    1.776    0.437
       205  -9.3162    199.5197     51.9616   5.0707077624e+01   2.8696802271e+01    0.2070025    0.1376164 -33.82  0.000351214    1.480    0.324
       206  -9.2458     83.5279     52.4551   7.7547367850e+01   5.5565803577e+01    0.1427075    0.1247629  -6.95 0.0001270509    1.055    0.052
       207  -9.4605     60.9622     51.9758   8.5456729658e+01   5.9342944885e+01    0.1835656    0.1675909  87.58 0.0005728508    1.579    0.367
       208 -11.5891      6.7845     50.4390   1.0741406301e+02   6.5068181637e+01    0.4980309    0.3232575   6.66  0.003178818    1.814    0.449
       209 -11.3272     12.3418     44.0342   1.0314179485e+02   6.6032495608e+01    0.3652409    0.1467747 -48.15 0.0006855645    1.810    0.448
       210 -11.8133     14.4304     39.5888   1.0077552716e+02   6.6763114396e+01    0.4964384    0.2493104 -54.20  0.001562138    1.683    0.406
       211  -9.8488    175.9244     50.1901   5.3941030534e+01   3.4811922085e+01    0.3346681    0.1594891  39.72  0.001210917    2.777    0.640
       212 -10.6268     94.7976     49.3466   7.2737920035e+01   5.3959982063e+01    0.4389215    0.2309145  38.20  0.001685092    1.954    0.488
       213 -10.3205     65.6016     49.4679   8.2782127613e+01   5.9110434740e+01    0.3088722    0.1917626 -27.63 0.0008177533    1.569    0.363
       214 -10.3664     67.6823     44.3678   8.0054739454e+01   5.9684165429e+01    0.2350683    0.1978455 -10.91 0.0005165146    1.050    0.047
       215  -9.8524    156.0040     49.4597   5.7390233348e+01   3.9909226663e+01    0.2469269    0.2274783 -31.08 0.0007603018    1.109    0.098
       216  -9.1566    152.5086     48.4956   5.7781518673e+01   4.0921080144e+01    0.2606465    0.1420896  58.02   0.00109749    1.788    0.441
       217 -10.9988    124.4892     45.7342   6.3126971330e+01   4.8095883191e+01    0.4152897    0.3331483  -1.73  0.002155268    1.364    0.267
       218  -9.5563     31.7662     47.7779   9.5803584255e+01   6.3699155110e+01    0.1461385    0.1389761 -40.07 0.0006472791    1.285    0.222
       219 -10.1343    241.1446     46.4134   4.4117191366e+01   1.9802448445e+01    0.2742102    0.2135241 -77.19 0.0008109716    1.264    0.209
       220 -10.5467    244.3089     44.6730   4.3384795371e+01   1.9352892511e+01    0.2543609    0.1770004 -88.20  0.001411248    1.529    0.346
       221 -10.0676    114.8295     46.3938   6.5850322155e+01   5.0197631071e+01    0.2560457    0.2003696 -14.96 0.0009151833    1.327    0.246
       222  -9.0843     46.5641     47.4653   8.9487607809e+01   6.2125664291e+01    0.1322767    0.1068451 -24.73 6.036936e-05    1.038    0.037
       223  -9.9931     42.3280     44.4225   9.0124023557e+01   6.3205938402e+01    0.2052388    0.1715466  25.71  0.001312692    1.375    0.273
       224  -9.5528    230.9755     45.4747   4.5000622415e+01   2.2192371702e+01    0.2144427    0.1634358 -41.39 0.0005443796    1.205    0.170
       225  -9.2983    204.0139     46.4673   4.8589553445e+01   2.8388729328e+01    0.2091243    0.1022962  43.24 0.0008094263    2.654    0.623
       226 -12.2424     61.8368     44.2093   8.2193815017e+01   6.0622413560e+01    0.3314984    0.2264945 -36.76 0.0004580398    1.337    0.252
       227 -10.2478    210.2005     50.1208   4.8720378515e+01   2.6379979068e+01    0.2510714    0.1933386 -70.22 0.0002597698    1.323    0.244
       228  -9.1396    192.8439     45.5781   4.9927097601e+01   3.1251926354e+01    0.1942829    0.1335571  84.07 0.0006063566    1.601    0.375
       229  -9.6580    130.8441     46.4299   6.1833019290e+01   4.6499735311e+01    0.2316977    0.1901042   6.35 0.0006212444    1.342    0.255
       230 -10.3449     10.0942     31.7328   1.0014885905e+02   6.8559979142e+01    0.2496624    0.1857283   4.31  0.001736164    1.445    0.308
       231  -9.9753      5.0359     31.7722   1.0264124252e+02   6.8874287819e+01    0.2934334    0.1355789 -31.64  0.001132242    1.913    0.477
       232 -10.1807      5.3451     39.3050   1.0490395926e+02   6.7401873978e+01     0.268146     0.144788 -25.70  0.001313826    1.791    0.442
       233 -10.5508      3.0403     36.5016   1.0513051422e+02   6.8079104567e+01    0.2589629     0.198585   9.59  0.001043411    1.527    0.345
       234  -8.8737    149.2929     43.6359   5.6852467809e+01   4.2421150157e+01    0.1528673    0.1098501 -63.82 0.0007028715    1.708    0.415
       235  -9.7350     82.2949     42.4400   7.4131944571e+01   5.7483353924e+01    0.2957532    0.1120164 -38.22 0.0005622213    2.547    0.607
       236  -9.8251     53.0237     42.8671   8.5131034561e+01   6.2128407769e+01    0.1922101    0.1606225 -22.21  0.000449313    1.033    0.032
       237 -10.7064    238.2872     40.3677   4.2999492058e+01   2.1249066470e+01    0.4570318    0.1858065 -36.03  0.001991131    2.147    0.534
       238 -11.0014    222.4457     38.8220   4.4329891178e+01   2.5048000931e+01    0.3048526    0.2221831  75.75 0.0004365022    1.380    0.275
       239 -11.2218    127.2197     39.5676   6.0274518489e+01   4.8346745290e+01    0.2899131    0.2581368  74.22 0.0007786347    1.241    0.194
       240 -10.2691    135.8136     36.1583   5.7139487217e+01   4.6751603137e+01    0.3291731    0.2176896  42.68  0.000675562    1.487    0.327
       241  -9.8470    130.5883     36.0000   5.8232444541e+01   4.8031148107e+01    0.3612457    0.1957648  56.78  0.001300671    1.769    0.435
       242  -9.4027     91.1675     41.1593   7.0740845154e+01   5.5991950522e+01    0.1775735    0.1599225 -44.42 0.0003500843    1.294    0.227
       243 -11.1746     40.9782     37.8165   8.8171987377e+01   6.4566735476e+01     0.537131    0.3000964 -19.52  0.001115669    2.039    0.510
       244 -11.2160    184.7029     38.3069   4.9072097754e+01   3.4268301754e+01    0.5530163     0.359835  15.31  0.001164945    2.447    0.591
       245 -10.1875    186.7168     31.4761   4.6837904136e+01   3.4642679716e+01    0.3434916    0.2067548 -52.70  0.001290187    1.730    0.422
       246 -10.3161    190.9323     28.5073   4.5440804957e+01   3.3959949273e+01    0.5211135    0.1676117  62.92  0.001758974    2.789    0.641
       247  -9.3053    165.6693     39.7453   5.2548367053e+01   3.8860184037e+01    0.1961888    0.1268899 -39.33 0.0005073127    1.557    0.358
       248 -10.4332    227.8817     38.3281   4.3608309135e+01   2.3860271866e+01    0.3939389    0.2068545 -24.75  0.001026005    2.192    0.544
       249  -9.6520    158.5280     38.3741   5.3384803141e+01   4.0838619018e+01    0.2783407    0.1293124 -36.42   0.00100552    2.136    0.532
       250 -11.5606    103.6560     38.7414   6.6066426084e+01   5.3783091518e+01    0.2434916    0.2214406  15.88 0.0003099532    1.012    0.012
       251  -9.5003    193.8205     38.4165   4.7799260491e+01   3.1986059402e+01    0.2598621    0.1356925  72.46  0.001110787    2.017    0.504
       252 -11.2509    175.6356     34.9110   4.9452618861e+01   3.6985605848e+01    0.5413352    0.3679613 -50.66  0.001664331    1.522    0.343
       253  -9.2510     85.9703     36.9529   7.0728687495e+01   5.7642645996e+01     0.161191    0.1407237  -5.37 0.0009467873    1.043    0.041
       254  -9.3353    208.3210     34.4926   4.4874361510e+01   2.8957199002e+01    0.2565656     0.121271 -31.46  0.001108833    2.092    0.522
       255 -10.3729      8.3378     43.5393   1.0479925698e+02   6.6385234818e+01    0.5535844    0.1365083 -62.37  0.001902816    4.494    0.777
       256 -10.1640    114.2729     35.1195   6.1824526706e+01   5.1951471533e+01    0.2788573    0.1967773  76.06  0.001330145    1.921    0.479
       257  -9.4900     58.0347     34.9717   7.9945097387e+01   6.2751033656e+01    0.1914735    0.1618539  -7.89 0.0003139449    1.022    0.022
       258  -9.6257     54.7898     33.1430   8.0471375609e+01   6.3526314698e+01    0.1824407    0.1583574 -15.31 0.0003814128    1.111    0.100
       259  -9.6534    201.6422     34.2676   4.5637593069e+01   3.0604903997e+01    0.2147254    0.1858869 -84.90 0.0005824084    1.089    0.082
       260  -9.6573    203.5317     31.4752   4.4661000241e+01   3.0499082971e+01    0.2481352    0.1856669  64.58 0.0006833437    1.322    0.243
       261  -9.5733     83.4657     33.9170   7.0308604711e+01   5.8568510156e+01    0.1907675    0.1257154 -28.28 8.022363e-05    1.466    0.318
       262  -8.6150     78.6333     34.7017   7.2249227056e+01   5.9354717752e+01    0.1435927   0.09539484  11.07 0.0007032098    1.728    0.421
       263  -8.8077     47.6176     34.6938   8.4077617110e+01   6.4270640904e+01    0.1364931   0.08616538  -7.65 0.0001085083    1.791    0.442
       264  -9.5617    245.7298     33.3663   4.0665227880e+01   2.0538919028e+01    0.1399726   0.07849374 -57.40 0.0006997419    1.662    0.398
       265 -10.4536    153.3545     32.2078   5.2342683346e+01   4.2930062793e+01    0.3110189    0.2843642  82.64 0.0009987297    1.102    0.093
       266  -9.9962    154.4957     27.4964   5.0614186849e+01   4.3216978233e+01    0.2652416    0.2172246 -54.62  0.000718817    1.307    0.235
       267 -11.2278    153.6930     23.0361   4.9308407617e+01   4.3931182281e+01    0.3283352    0.2231988  47.28 0.0002704952    1.432    0.302
       268 -12.2989    107.7421     28.8902   6.1130930010e+01   5.4228028818e+01     0.434286    0.3304545 -35.01  0.002372975    1.400    0.286
       269 -10.5940     75.4963     29.4551   7.1121548172e+01   6.0687099712e+01    0.4615756    0.1933159 -32.28  0.001100243    2.309    0.567
       270  -9.6866     71.5744     29.5115   7.2523579443e+01   6.1378060405e+01      0.38368    0.1846972 -27.23  0.001750498    2.080    0.519
       271 -11.1240    145.1101     29.1037   5.2845744949e+01   4.5362927911e+01    0.4687534    0.3904846  26.94  0.002583029    1.274    0.215
       272  -9.7882    234.1971     31.0361   4.1217777095e+01   2.3372089355e+01    0.1831899    0.1750382  27.43 0.0006737034    1.339    0.253
       273 -11.0515     18.4300     23.2291   9.2706450066e+01   6.9428693950e+01    0.3654202    0.1633313 -45.19  0.001901838    1.858    0.462
       274  -9.9140     32.4933     27.0901   8.7554982014e+01   6.7381086632e+01     0.342387    0.2396521 -35.87  0.001236799    1.250    0.200
       275 -11.2444     23.3581     30.8392   9.3403955755e+01   6.7663430280e+01    0.6072875    0.2190108  24.99  0.002822033    3.086    0.676
       276 -11.0889     19.1402     29.0581   9.4731072155e+01   6.8354193427e+01    0.2902495    0.2021167  -4.64 0.0004359133    1.411    0.291
       277  -9.3291    159.0095     29.9498   5.0625270389e+01   4.1790739566e+01    0.1710134    0.1507149 -29.90 0.0003930088    1.197    0.165
       278  -9.0576     55.5367     28.9558   7.8368108729e+01   6.4071791240e+01    0.1748936   0.09652489 -14.13  0.000802558    2.235    0.553
       279  -8.8662     51.9902     29.0055   7.9833829720e+01   6.4585433260e+01     0.151286    0.1412738   5.40 0.0003877317    1.294    0.227
       280 -10.2287     48.4836     26.2105   8.0062836844e+01   6.5513267549e+01    0.2459263    0.2133131  36.47 0.0008090344    1.474    0.322
       281 -11.1072    221.0418     29.1449   4.2090118451e+01   2.6618320828e+01    0.3476969    0.2663688 -47.67 0.0004045346    1.197    0.164
       282 -10.1790    204.5166     23.5189   4.2455270233e+01   3.1227547146e+01    0.2476385    0.1939958 -38.61  0.001350159    1.277    0.217
       283 -10.5210    211.9857     28.0291   4.2785649967e+01   2.8891432849e+01    0.2365956    0.1834238  70.58 0.0003752094    1.269    0.212
       284 -10.6049    207.9996     27.2630   4.3035141495e+01   2.9939463882e+01    0.3564687    0.2136164  77.16 0.0006839013    1.665    0.399
       285  -9.8151    181.8551     26.7850   4.6169224945e+01   3.6428066508e+01    0.2799712    0.2041989 -26.95 0.0008823314    1.473    0.321
       286 -10.2245    165.2493     25.6774   4.8272406262e+01   4.0729547009e+01     0.502557     0.262986 -74.03  0.001836212    3.218    0.689
       287  -9.2814    134.1873     27.2399   5.4362174479e+01   4.8264290167e+01    0.1852021    0.1601455 -61.54 0.0005791563    1.317    0.241
       288  -9.4960     99.9072     26.8768   6.2447205556e+01   5.6187918026e+01    0.2080562    0.1656947  20.33 0.0002733823    1.204    0.169
       289 -10.1144    248.0192     25.5013   3.8705440962e+01   2.1032788362e+01    0.3379468    0.1755462 -69.23  0.001647499    2.082    0.520
       290  -8.9984    177.2442     25.6575   4.6485135695e+01   3.7716306670e+01    0.2006951     0.120887 -10.02 0.0008864258    2.256    0.557
       291 -10.8823    142.2756     23.5880   5.1512688570e+01   4.6706601457e+01    0.4600587     0.268867  19.99  0.001139839    2.445    0.591
       292  -8.9331     66.4463     26.4130   7.3035441735e+01   6.2702012966e+01    0.1283254    0.1110986   0.21 0.0001641149    1.057    0.054
       293 -11.0466      2.0175     25.5193   1.0198487248e+02   7.0213264276e+01    0.1940207    0.1257221 -42.83 0.0003411203    1.149    0.129
       294 -10.8554      1.6716     22.2876   1.0097967412e+02   7.0818845240e+01    0.2108003    0.1396581 -45.54 0.0004283117    1.208    0.172
       295 -10.1586    159.0199     24.6112   4.8931683480e+01   4.2418186084e+01    0.1968479    0.1617042  67.29 0.0004439137    1.143    0.125
       296 -10.0757    232.2567     23.6730   3.9675276807e+01   2.4716737742e+01    0.3162535    0.1784853 -72.05  0.001564577    1.892    0.471
       297  -9.7631     61.4927     23.8428   7.3751132254e+01   6.3885184220e+01    0.2580836    0.1778638  -7.34  0.001466924    1.413    0.292
       298  -9.2807    226.9568     23.0339   4.0019185825e+01   2.5996726015e+01    0.1588635    0.1356573 -67.36 0.0004678969    1.006    0.006
       299  -9.4925    201.4975    249.5279   9.3996569840e+01  -5.1444391516e+00    0.1189663   0.09338927  22.64 0.0001256858    1.011    0.011
       300  -9.9837    195.0950     22.6917   4.3326571903e+01   3.3621949663e+01    0.2093994    0.1688402 -57.08 0.0002919908    1.190    0.160
       301 -10.5833    115.8051    248.5655   1.0976309641e+02   8.0573511331e+00    0.2002608    0.1791257  11.06 0.0007600465    1.450    0.310
       302  -9.9768    132.3118     21.7050   5.2783563450e+01   4.9351377804e+01     0.274159    0.2170367 -23.50 0.0009594507    1.342    0.255
       303  -9.3811    123.1944     22.7789   5.5087425427e+01   5.1412538614e+01    0.3237519     0.262726  67.04  0.001811058    1.278    0.218
       304 -12.4465    116.9166     22.2977   5.6323052423e+01   5.2934800638e+01    0.2684692    0.2382461  -4.74 0.0005778078    1.150    0.130
       305 -10.5159     26.3121     22.0438   8.8290033076e+01   6.8870364490e+01    0.2831416    0.1784536 -19.53 0.0009638258    1.410    0.291
       306 -10.2722    174.1302     21.0548   4.5567648885e+01   3.9022878133e+01    0.3121668    0.2508462   3.54  0.001475783    1.536    0.349
       307  -8.8043     10.2895     22.2723   9.6465404081e+01   7.0252248775e+01    0.1165441   0.06631683 -25.99 0.0002708076    1.511    0.338
       308 -10.7455    104.9825     20.8051   5.8648706747e+01   5.5805741356e+01    0.2170431    0.1873847 -25.52 0.0002610384    1.235    0.190
       309  -9.2550     41.0320     21.5246   8.1170579951e+01   6.7228485534e+01    0.1645121    0.1120906  28.55 0.0003617283    1.511    0.338
       310  -9.5674     36.2627     21.1009   8.3139278395e+01   6.7895191368e+01     0.166524    0.1295624 -20.95 0.0004001513    1.087    0.080
       311  -9.0086      1.2421    243.9850   1.2941397862e+02   2.3125137050e+01    0.1245634   0.06634508 -88.86 0.0003840089    1.536    0.349
       312  -9.2444    202.5529    242.4735   9.2743850370e+01  -4.3829264875e+00    0.1214249    0.0957393  18.91 6.484182e-05    1.033    0.032
       313 -10.0397    101.8880    240.1246   1.1148169778e+02   1.1559149719e+01    0.1877514     0.136696  62.36 0.0004293649    1.233    0.189
       314 -10.1032     93.7430     20.0697   6.1376857634e+01   5.8311072901e+01     0.194855    0.1718726  51.09 0.0003124286    1.229    0.186
       315  -9.6117     88.7742    221.2192   1.1202060679e+02   1.6993165808e+01    0.1527867    0.1481718  32.75   0.00105819    1.326    0.246
       316  -8.8875    203.2804    217.6990   8.8586511042e+01  -1.0055396723e+00     0.111323    0.1012748  64.25 0.0002828195    1.546    0.353
       317  -9.0434     93.3094    217.6788   1.1071013166e+02   1.7021199423e+01    0.1327241   0.08407103  67.76 0.0007035444    1.645    0.392
       318  -9.7103    199.5288     17.9767   4.1556143425e+01   3.3072659442e+01    0.1912927    0.1307735 -28.53 0.0006486287    1.563    0.360
       319  -9.4033    152.3880     18.1505   4.7940123387e+01   4.4787546485e+01     0.196904     0.119095 -39.55 0.0008425602    1.742    0.426
       320  -9.6900    188.6511     16.9063   4.2513396472e+01   3.5859299245e+01     0.226338    0.1685755  60.34 0.0008478981    1.305    0.234
       321  -9.4524    144.7531     17.1684   4.8895724260e+01   4.6787048380e+01    0.1971619    0.1459972  39.97 0.0006524631    1.354    0.261
       322  -9.0626     73.0929     16.6806   6.6294153579e+01   6.2784810931e+01    0.1668859    0.1407119  17.35   0.00105155    1.045    0.043
       323  -9.0105    230.5512    209.5053   8.2095844130e+01  -4.1398528769e+00    0.1299604    0.1016098   4.14 9.889804e-05    1.091    0.084
       324  -9.2888     45.5746     16.7705   7.6925283261e+01   6.7291412054e+01    0.1667983    0.1044652 -39.51 0.0009461352    1.740    0.425
       325  -9.2422    128.1486     14.8364   5.1142790390e+01   5.1074403374e+01    0.1817407    0.1416474  33.26            0    1.263    0.208
       326  -9.4064    241.3445    205.3315   7.9417861546e+01  -5.2034288758e+00    0.1343989   0.08318943   3.44 0.0007050413    1.757    0.431
       327  -9.4014     34.5062    200.5000   1.2096699808e+02   2.8265005210e+01    0.2662709   0.08809093  88.98 0.0008105091    5.787    0.827
       328  -8.9443    120.5001    199.4396   1.0256447323e+02   1.6383828882e+01    0.1369998    0.1205115  60.22 0.0001912353    1.052    0.049
       329 -10.6912    239.7039    185.0139   7.5792954407e+01  -2.0099448374e+00    0.1899751    0.1523329 -12.07 0.0006717569    1.073    0.068
       330  -9.5524    139.3399     13.9810   4.8755865030e+01   4.8441922783e+01    0.1825923    0.1720792  31.48 0.0006868748    1.083    0.076
       331  -9.5997     55.1428    181.4917   1.1475396844e+02   3.0052489681e+01    0.1929301    0.1508006 -82.70 0.0007516136    1.125    0.111
       332 -10.1357    169.0773     12.9953   4.3861665252e+01   4.1142068525e+01    0.1970378    0.1834837  70.94 0.0004000902    1.049    0.046
       333  -8.7702    155.2876     13.6813   4.6044749966e+01   4.4520892749e+01    0.1377254   0.09819604 -64.37 0.0007003083    1.594    0.373
       334  -9.7434    222.9573    178.2712   7.7442315945e+01   1.8657176154e+00     0.188364    0.1646148   3.34 0.0004561783    1.033    0.032
       335 -10.7446    243.1230    170.3590   7.2224410827e+01  -3.2594242698e-01    0.2302712    0.1604865 -19.86    0.0003863    1.307    0.235
       336  -9.7550      4.9925    168.7176   1.2465326094e+02   3.8068459052e+01      0.15497    0.1259345  82.90 0.0003378926    1.106    0.096
       337 -10.3291     24.6092    162.8028   1.1976615577e+02   3.7721841285e+01    0.1862304    0.1609214  63.40 0.0002993228    1.219    0.180
       338 -10.7476    248.6764    161.1204   6.9357888982e+01   1.8550846135e-01    0.2042374    0.1868204  44.31 0.0007218421    1.386    0.278
       339 -11.4011     37.6370    159.4613   1.1632709205e+02   3.7206482026e+01    0.4990292    0.2585612  56.62  0.002292941    2.033    0.508
       340 -11.8855     30.4078    154.4121   1.1751077541e+02   3.9139537163e+01    0.5363591    0.2674647  55.58  0.002090396    2.134    0.531
       341 -10.7628      1.8574    158.6515   1.2459203445e+02   4.0584079369e+01     0.284199    0.1244176 -79.63  0.001350929    1.788    0.441
       342  -9.6955     45.9592    151.3361   1.1325936012e+02   3.8243274281e+01     0.195628    0.1520089 -75.64 0.0003516414    1.098    0.089
       343  -9.1988    220.4945     11.4853   3.7851836278e+01   2.8803171527e+01    0.1283768    0.1108419 -74.82 3.060719e-05    1.022    0.021
       344  -9.2779     44.5185    154.4830   1.1403268855e+02   3.7647219384e+01    0.1995136    0.1047988 -61.55 0.0009831859    1.665    0.399
       345 -11.0488    249.0092    150.4419   6.7023810345e+01   1.8183339402e+00    0.2834595    0.1846513 -31.84 0.0007746575    1.335    0.251
       346 -12.0076    244.4993    149.9455   6.7654688448e+01   2.6891050309e+00    0.3481914    0.2461535 -39.65   0.00171069    1.357    0.263
       347 -11.9122      4.9718    146.2522   1.2285428880e+02   4.3210943320e+01    0.4876436    0.2036343 -82.97  0.002380164    2.034    0.508
       348 -10.8367    231.9945    135.1008   6.6440284542e+01   7.4912480181e+00    0.2806043    0.2242971 -27.46 0.0008593034    1.121    0.108
       349 -11.8394    241.1526    144.6543   6.7049167952e+01   4.1573971739e+00    0.3624988    0.2496107 -24.78  0.001902553    1.333    0.250
       350 -12.9148    236.5581    138.8540   6.6521732982e+01   5.9790855182e+00     1.004489    0.3235126 -44.96   0.00333009    3.427    0.708
       351  -9.5014     54.0662    146.0070   1.1041374416e+02   3.8590366287e+01    0.1647431     0.136119 -75.94 0.0003275027    1.046    0.044
       352 -10.6400     12.1975    143.7710   1.2086230324e+02   4.3252974981e+01    0.3290807     0.176615  79.90  0.001331081    1.873    0.466
       353  -9.7712     15.3288    143.2976   1.2003619035e+02   4.3118060991e+01    0.1895167    0.1331785 -78.83  0.000310719    1.124    0.110
       354 -11.9902    247.2643    137.9871   6.4578356060e+01   4.1423239586e+00    0.4687617    0.2743777 -43.87 0.0004664348    1.669    0.401
       355 -12.1350    248.2876    130.0097   6.2638184895e+01   5.2610064064e+00    0.4805065    0.3468553  36.75  0.002626512    1.562    0.360
       356 -10.8805     20.3161    140.9653   1.1852398678e+02   4.3262467382e+01    0.3619587    0.1478653  37.30  0.001746634    2.584    0.613
       357  -9.8953     49.8524    137.7402   1.1028316434e+02   4.1108844513e+01    0.3580363   0.09085724 -67.13  0.001110297    3.857    0.741
       358  -9.2076    213.4567    138.4862   7.0522349739e+01   1.0574980589e+01    0.1466901    0.1349019 -26.44 0.0001132423    1.043    0.041
       359  -9.9425     34.7696    136.6505   1.1419970281e+02   4.2984997309e+01    0.2056049    0.1571897  54.95 0.0006531846    1.399    0.285
       360 -10.6923     42.7145    131.7186   1.1131455318e+02   4.3375367668e+01    0.4098198    0.1798264 -49.69  0.001334378    2.223    0.550
       361 -10.8382      7.8098    133.1534   1.2089192688e+02   4.6081951875e+01    0.2113286    0.1321571 -38.67 0.0007209438    1.994    0.498
       362  -9.4812     62.0957    131.1980   1.0579711064e+02   4.1218218520e+01     0.188384    0.1520422  79.35 0.0004092377    1.306    0.234
       363  -9.6531     20.4633    131.4729   1.1736726170e+02   4.5524314288e+01    0.1278994    0.1017639 -76.45  0.000129137    1.008    0.008
       364 -10.3218     34.0115    128.9962   1.1332755686e+02   4.4920896275e+01    0.2037016    0.1654615 -64.14 0.0006225827    1.099    0.090
       365 -12.7860    237.9721    122.3298   6.2512482213e+01   8.5057116015e+00     0.568214    0.4761232  -8.54  0.003208297    1.232    0.188
       366  -9.6539    218.4918    126.4928   6.6780654051e+01   1.1712564980e+01    0.1476927    0.1343493 -25.76 0.0008105976    1.001    0.001
       367 -11.6325    229.0000    123.0502   6.4149433151e+01   1.0169958165e+01    0.5156756    0.3311094 -72.09  0.002055462    2.960    0.662
       368 -12.4281    222.9292    118.0289   6.3981742341e+01   1.2298239002e+01    0.3782821    0.2981767 -28.21 0.0003630342    1.185    0.156
       369  -9.2335     59.7170    125.7018   1.0547084361e+02   4.2874735550e+01    0.1373856   0.09880155 -38.51 0.0001738647    1.545    0.353
       370  -9.1538     30.2580    125.3568   1.1385048629e+02   4.6157129010e+01    0.1341684   0.08075021 -49.19 0.0002856824    1.617    0.382
       371 -10.7365      6.8735    123.2705   1.2006986093e+02   4.8483518445e+01    0.1857767    0.1345365  62.80  0.001181356    1.480    0.324
       372 -10.6908      2.5631    122.9825   1.2120423433e+02   4.8825366771e+01    0.1798304    0.1653738  89.33    0.0013252    1.221    0.181
       373  -9.1975    123.5160    120.9951   8.6438249607e+01   3.3413643787e+01    0.2271162    0.1497844 -48.99 0.0003659155    1.467    0.318
       374  -9.8954     33.0079    121.4605   1.1248063522e+02   4.6850772627e+01    0.1689083    0.1320152  28.49 0.0003559845    1.546    0.353
       375 -11.5426     21.5722    119.6261   1.1550283569e+02   4.8286577937e+01    0.4258842    0.2614619  86.28  0.002284823    1.717    0.418
