#   1 NUMBER                 Running object number                                     
#   2 MAG_AUTO               Kron-like elliptical aperture magnitude                    [mag]
#   3 X_IMAGE                Object position along x                                    [pixel]
#   4 Y_IMAGE                Object position along y                                    [pixel]
#   5 X_WORLD                Barycenter position along world x axis                     [deg]
#   6 Y_WORLD                Barycenter position along world y axis                     [deg]
#   7 A_WORLD                Profile RMS along major axis (world units)                 [deg]
#   8 B_WORLD                Profile RMS along minor axis (world units)                 [deg]
#   9 THETA_WORLD            Position angle (CCW/world-x)                               [deg]
#  10 FWHM_WORLD             FWHM assuming a gaussian core                              [deg]
#  11 ELONGATION             A_IMAGE/B_IMAGE                                           
#  12 ELLIPTICITY            1 - B_IMAGE/A_IMAGE                                       
         1 -12.0570      3.9572     20.3359   1.1445401265e+02   6.9925743494e+01    0.8911481    0.4636891 -53.13    0.0053239    2.384    0.580
         2 -11.8487      9.5481     25.3161   1.1374434659e+02   6.8769600124e+01    0.8540667    0.2514452 -45.16  0.004164684    2.751    0.637
         3 -11.2959     26.2846     20.2753   1.0425517570e+02   6.7953180178e+01    0.4552101    0.2528922   2.66  0.002295782    1.983    0.496
         4 -11.2687     19.4612     17.3351   1.0605217819e+02   6.9041239582e+01    0.3206614    0.2747371   6.31  0.001703119    1.372    0.271
         5 -11.6337    129.2635     23.4804   7.3589790288e+01   4.9573846955e+01    0.3582615    0.2313076 -38.69 0.0002055658    1.740    0.425
         6  -9.3988     34.7658     15.6355   9.8690417070e+01   6.7572398579e+01    0.3199531    0.1619687  -2.35  0.001101742    2.786    0.641
         7 -10.9231     76.2122     16.4454   8.4219069806e+01   6.1185392453e+01     0.412678    0.2547573  12.83  0.002323507    1.770    0.435
         8 -12.4740     75.4483      6.8093   8.0623457543e+01   6.2232610126e+01    0.5054737    0.4188734 -57.48  0.002070066    1.859    0.462
         9 -11.8476     81.2416      6.1320   7.8728623267e+01   6.1222074401e+01    0.2173838     0.181009  15.38 0.0002745718    1.111    0.100
        10 -11.6956    132.5763     15.0744   7.0317183631e+01   4.9664243475e+01    0.4854839      0.26837 -37.71    0.0025156    2.040    0.510
        11 -10.0697     70.5942     14.4919   8.5170914946e+01   6.2372252392e+01     0.209561    0.1346122 -23.97 0.0007255858    1.604    0.377
        12 -10.2666     55.8388     14.4940   9.0097193287e+01   6.4785078425e+01    0.2252384    0.1432095 -40.42   0.00134858    2.059    0.514
        13 -12.0497     25.8368     13.8138   1.0170942282e+02   6.8832829961e+01    0.2113091    0.1452863   4.28 0.0003570549    1.213    0.176
        14  -9.9642     30.4549     13.2009   9.9446087270e+01   6.8382452634e+01    0.1960205    0.1158552 -22.98  0.001272509    1.477    0.323
        15 -10.5888     99.7745     13.0390   7.6560715025e+01   5.6978571313e+01    0.2656588    0.2331372  21.44  0.001559978    1.098    0.089
        16 -10.2273    115.4762     12.6359   7.2890357357e+01   5.3699800526e+01    0.3341308    0.1835076  73.31  0.001608638    2.212    0.548
        17 -12.2321     61.9904     11.6611   8.6795804910e+01   6.4102292809e+01     0.275388    0.2321215  60.61 0.0006103885    1.711    0.415
        18  -9.7115    175.5937     12.2152   6.2912359861e+01   3.9862667008e+01    0.1520856     0.126904  -4.37 0.0005716065    1.606    0.377
        19 -10.8278     23.1739      8.9107   1.0072079633e+02   6.9716275405e+01    0.3951492     0.199391 -27.47  0.001718644    1.735    0.424
        20 -11.6308     26.5157      3.5592   9.6793133749e+01   6.9937461859e+01    0.1985726    0.1565841   6.89   0.00141014    1.172    0.147
        21 -12.5691     31.1531      2.2034   9.4175744487e+01   6.9512921307e+01    0.3359331    0.1732164  34.26  0.001363893    1.778    0.437
        22  -9.4674    226.1344      8.7830   5.6848430353e+01   2.8576959749e+01    0.1476655    0.1263681  78.78 0.0004826442    1.251    0.200
        23 -11.8410      9.1007      8.0095   1.0687803656e+02   7.1209370674e+01    0.2329873    0.1459092 -13.97  0.001686804    1.257    0.204
        24 -11.0450     17.4465      5.2625   1.0166944850e+02   7.0749019976e+01     0.344543     0.205532   4.00  0.002352701    1.504    0.335
        25 -11.0837     13.7402      1.5675   1.0168923929e+02   7.1546783996e+01    0.4162052    0.1331311  29.46  0.002160646    3.029    0.670
        26  -9.3233    122.2843      8.6707   7.0223367406e+01   5.2554526840e+01    0.1183009   0.09251817 -71.26 0.0004893572    1.610    0.379
        27  -9.0071     37.4921      8.5060   9.4444955842e+01   6.8041011005e+01     0.113953   0.08390233   4.99 6.548377e-05    1.055    0.052
        28  -9.4445    183.0189      7.5040   6.0840647390e+01   3.8579993120e+01    0.1706396   0.08150852  50.34 0.0003750069    2.215    0.549
        29 -10.4871    115.6830      4.6809   7.0197963525e+01   5.4331537381e+01    0.3548754    0.2104839 -23.37  0.002012451    1.936    0.483
        30  -9.4020     43.3067      7.6918   9.1788747827e+01   6.7338380520e+01   0.09228587   0.08843413 -14.91 0.0004420842    1.611    0.379
        31  -9.1800    154.7627      2.3577   6.3060067182e+01   4.5671900186e+01    0.1202548   0.08483946 -64.68 0.0005994948    1.584    0.369
        32 -10.2132    139.0999      1.7013   6.5162977951e+01   4.9339382153e+01    0.1803963    0.1303296  62.71 0.0005147267    1.145    0.126
        33  -9.7955     25.6331    225.7014   1.4387216226e+02   2.4274713452e+01    0.1043863   0.08674967 -52.84  0.000485899    1.729    0.422
        34 -10.9302    247.2332    249.9935   1.0391492483e+02  -1.4355457909e+01    0.3028241    0.1897625   7.66  0.001826349    1.584    0.369
        35 -11.0954    250.4639    244.7514   1.0245603553e+02  -1.4106309053e+01    0.5666221    0.1541196 -36.60  0.002321538    3.631    0.725
        36 -10.0753     72.6182    250.1301   1.3727728956e+02   1.3184273877e+01    0.1771818    0.1696765  21.50  0.001249917    1.571    0.364
        37  -9.3766     46.3099    250.3464   1.4204375520e+02   1.6738267736e+01    0.1012142   0.08876916 -55.58 0.0007044999    1.706    0.414
        38 -11.7833     34.7497    241.4510   1.4340901940e+02   1.9953534777e+01     0.504784    0.2593575  47.42  0.002972549    1.705    0.414
        39 -11.9140     27.8608    246.6872   1.4497691254e+02   1.9732848706e+01    0.6414136    0.2402582 -74.04  0.003321987    2.389    0.581
        40 -12.1927     16.0064    238.2695   1.4644988979e+02   2.2753551547e+01    0.8466358    0.3676374  39.55  0.004771092    2.300    0.565
        41 -12.5757     20.8998    249.0094   1.4630165199e+02   2.0082176840e+01    0.8583261    0.2658192  42.91  0.004334067    2.667    0.625
        42 -11.4908     14.2212    244.5178   1.4713768386e+02   2.1704516130e+01    0.4277287    0.1625296 -78.02  0.002289881    2.255    0.557
        43 -12.2633      6.8614    243.3542   1.4828468254e+02   2.2717164921e+01    0.6340281    0.3582304 -86.81  0.004238879    1.399    0.285
        44 -10.5982     31.5051    237.4367   1.4368782297e+02   2.1157242289e+01     0.284063    0.1652446  87.91  0.001183173    1.455    0.313
        45 -10.5250     29.0669    233.0166   1.4379672281e+02   2.2352116496e+01    0.5131034    0.1215736  46.02  0.002201477    3.198    0.687
        46 -10.8028    141.2348    221.4615   1.1990368502e+02   7.6983588780e+00    0.3143558    0.2416686  17.06  0.001226979    1.651    0.394
        47 -10.8753    123.2206    221.5023   1.2373660191e+02   1.0887156111e+01    0.3278434    0.2441276  57.03   0.00137502    1.244    0.196
        48  -9.2972     51.4978    222.5385   1.3868565866e+02   2.1790758247e+01    0.1261813     0.100977  79.12 0.0001573133    1.029    0.028
        49 -10.5714     13.2353    221.9091   1.4585307692e+02   2.6419964297e+01    0.1815239    0.1516478  65.31 0.0004987923    1.290    0.225
        50 -10.0140    174.1523    219.8656   1.1272984353e+02   2.0427993064e+00     0.191813      0.15703  14.09 0.0006983425    1.323    0.244
        51  -9.9713     22.0153    220.4553   1.4414265700e+02   2.5791427911e+01    0.1564794     0.102572  48.03 0.0004821554    1.506    0.336
        52  -9.6660    250.4809    219.1139   9.7887790115e+01  -1.0513899696e+01    0.1791811    0.1090541 -31.75 0.0005628059    1.513    0.339
        53 -11.0013     10.0075    217.0518   1.4610348107e+02   2.7778113772e+01    0.2780063    0.1602038  65.94 0.0007710062    1.453    0.312
        54  -9.8796    191.5006    217.0348   1.0868055773e+02  -5.5417066596e-01    0.1974642    0.1339788 -41.88 0.0007064841    1.556    0.357
        55 -11.4743    235.2905    215.0227   9.9852067913e+01  -7.5897569794e+00     0.400255    0.2169782 -23.73  0.001406636    2.058    0.514
        56  -9.6284    194.5280    215.4636   1.0778554843e+02  -8.1092479496e-01      0.13618    0.1243955  16.65 6.303953e-06    1.003    0.003
        57  -9.5125    137.1691    215.6493   1.1985401158e+02   9.6147250476e+00    0.2037163    0.1250273  32.61 0.0009399414    1.755    0.430
        58  -9.6374    170.4570    213.4701   1.1238435766e+02   3.9289496261e+00    0.1391196    0.1298646  39.20 0.0008082454    1.022    0.022
        59  -9.4574    142.8500    213.3755   1.1826007775e+02   9.0477437094e+00    0.1958637     0.127576  32.34 0.0005751944    1.630    0.386
        60 -10.9680     20.7987    211.7446   1.4369711914e+02   2.7804265236e+01    0.3155074    0.1682702  72.32   0.00101015    1.700    0.412
        61  -9.3448    213.0021    212.0422   1.0349827089e+02  -3.4374927107e+00    0.1591791     0.143141   3.24 0.0004429515    1.006    0.006
        62 -10.2406    208.9526    212.0756   1.0429410055e+02  -2.7459264725e+00    0.2045636    0.1833553   6.53 0.0004632995    1.018    0.017
        63  -9.2478      2.3056    212.3001   1.4718436373e+02   2.9537808198e+01    0.1029274   0.07599101 -62.39 0.0002807339    1.592    0.372
        64 -11.9523      4.3791    207.2653   1.4646365591e+02   3.0424344444e+01    0.4540019    0.2574468  85.13   0.00280178    1.402    0.287
        65  -9.5292    184.4013    208.7927   1.0863123496e+02   2.2480610571e+00     0.189014    0.1301612 -31.36 0.0006155933    1.605    0.377
        66 -10.2468     31.1012    215.8460   1.4205454304e+02   2.5764042263e+01    0.1983599    0.1322832  74.55  0.001061597    1.239    0.193
        67  -9.7566    201.5468    215.5325   1.0639452189e+02  -2.0596000715e+00    0.1366031    0.1208632   8.50 0.0002585372    1.060    0.057
        68  -9.9677    223.1040    201.2628   9.9501709510e+01  -3.3104895110e+00    0.3196149    0.2175528 -75.88  0.001304699    3.481    0.713
        69  -9.9908    175.0452    202.4944   1.0942291334e+02   5.2172476636e+00    0.2182154    0.1353002  42.74 0.0006020408    1.543    0.352
        70  -9.9857    218.4187    201.4938   1.0044049164e+02  -2.5421583317e+00    0.1363712    0.1214499  -5.69 0.0001535017    1.032    0.031
        71  -9.4410     34.6953    200.9798   1.3999164020e+02   2.8660553564e+01    0.1714525    0.1328888  89.00 0.0003635148    1.028    0.027
        72 -10.0893     19.5120    200.9800   1.4306777795e+02   3.0318789907e+01    0.1709305   0.07335677 -55.46 0.0008104744    2.583    0.613
        73 -10.0065    227.1048    196.8879   9.7892729774e+01  -3.2371450916e+00    0.1919821    0.1836779 -13.64 0.0006059298    1.145    0.126
        74  -9.5303    203.0013    195.9957   1.0239209532e+02   1.2200788794e+00    0.1703111    0.1590909   6.80 0.0005793364    1.013    0.013
        75 -10.5599    215.3131    194.5856   9.9684917487e+01  -7.6171853994e-01    0.2337472    0.1562161 -20.35 0.0005484922    1.701    0.412
        76 -11.1070    192.6692    195.1556   1.0432729411e+02   3.3119915816e+00    0.3712292    0.2207939 -49.96  0.001689778    1.819    0.450
        77  -9.4835    246.3186    190.3301   9.3114554652e+01  -5.3210858300e+00    0.1371903   0.09441184  -5.16 0.0007047614    1.687    0.407
        78  -9.2980    205.5110    190.4586   1.0078999481e+02   1.7956730425e+00     0.140959    0.1322811  -2.54 8.322443e-05    1.003    0.003
        79 -10.4133    187.2931    190.3534   1.0449517763e+02   5.2833745618e+00    0.1492604    0.1127014  -5.83 0.0004876739    1.683    0.406
        80 -10.3309    167.8443    184.0746   1.0742048034e+02   1.0412427324e+01    0.4471267    0.2441167  64.18  0.001548012    3.134    0.681
        81  -9.4790     61.6390    184.8392   1.3225586017e+02   2.9045757631e+01    0.2010989    0.1143604 -79.11 0.0009478428    1.743    0.426
        82 -11.5840     16.1361    182.6898   1.4214136105e+02   3.4809081464e+01    0.4122142    0.2067255  85.50  0.002061434    1.946    0.486
        83 -10.1576    246.3364    184.2954   9.1909848372e+01  -4.3051907468e+00    0.1357787   0.09623776  -2.32 0.0003209119    1.649    0.393
        84  -9.5440    236.4543    182.5221   9.3301429819e+01  -2.3304217978e+00    0.1362058    0.1213868 -20.07  0.000291847    1.014    0.013
        85 -10.4631      2.2700    180.4846   1.4485672492e+02   3.6547774044e+01    0.3000574    0.1377513  66.24  0.001531629    2.265    0.559
        86  -9.8645     23.0479    180.8028   1.4046950828e+02   3.4570653856e+01    0.1877198    0.1363605 -36.05  0.001101224    2.013    0.503
        87 -10.9155    244.5889    178.1505   9.0974125713e+01  -2.9557197806e+00    0.2782317    0.1534391 -26.70   0.00127635    1.938    0.484
        88 -11.1727    224.4164    178.3384   9.4654987660e+01   5.6404673319e-01    0.2831361    0.2761342  13.48 0.0005077293    1.122    0.109
        89  -9.4684     36.0575    178.5101   1.3732804259e+02   3.3731897307e+01     0.162841    0.1244369  43.06 0.0004668121    1.463    0.316
        90 -10.2968    200.1725    176.7972   9.9064373061e+01   5.4677324958e+00    0.2028587    0.1697751  -4.70 0.0005133264    1.325    0.245
        91  -9.6104     70.1822    177.6214   1.2923638301e+02   2.9583910659e+01    0.1673362    0.1359941  26.66 0.0005258814    1.543    0.352
        92  -9.4136      8.3131    173.3196   1.4295259456e+02   3.7674809220e+01    0.1180747   0.07721279 -53.66 0.0007037785    1.650    0.394
        93  -9.7649     74.7354    171.2517   1.2715771225e+02   3.0467947295e+01    0.1821629    0.1603247 -43.60 0.0006809032    1.332    0.249
        94  -9.3880     59.6912    171.3737   1.3085219398e+02   3.2560474130e+01    0.1486114   0.09418547  77.39 0.0007031746    1.774    0.436
        95 -11.1872     12.8175    170.5446   1.4169841926e+02   3.7926124573e+01     0.315231    0.1368139  87.01  0.001384995    2.610    0.617
        96 -10.2730      4.5184    169.0232   1.4338369494e+02   3.8979421525e+01     0.293413   0.07547484 -67.43  0.001223933    2.726    0.633
        97  -9.5961    209.8665    166.1897   9.4877743823e+01   5.6541686514e+00    0.2007205    0.1696676  -1.97 0.0004730033    1.315    0.239
        98  -9.6311     67.1721    165.1362   1.2806607235e+02   3.3061488243e+01    0.2000256    0.1517497  78.53 0.0007811873    1.343    0.255
        99 -10.6622     51.5367    164.4201   1.3184632055e+02   3.5305807008e+01       0.3525    0.1821596 -40.20  0.001475196    2.780    0.640
       100 -10.0182    246.4736    162.4949   8.7430456521e+01  -5.1931996750e-01    0.1373006    0.1207747 -34.28 3.193454e-05    1.041    0.039
       101  -9.3891    200.2398    162.6502   9.6024155083e+01   8.2995953855e+00    0.1972509    0.1391657  36.56 0.0005749675    1.512    0.338
       102 -11.2834     37.1204    158.9819   1.3465075640e+02   3.8299095733e+01     0.434694    0.2046929 -66.49   0.00206294    1.756    0.430
       103 -10.4824     44.8794    163.3244   1.3333109587e+02   3.6374432497e+01    0.3309764    0.1590433 -76.66  0.001456709    2.070    0.517
       104  -9.9655    238.6460    158.6575   8.7960406346e+01   1.5821531185e+00    0.2191528    0.1610469  -5.82   0.00097024    1.715    0.417
       105 -10.5741    247.4952    158.5049   8.6427397638e+01   1.3727620416e-02    0.1377834    0.1207982 -34.37 2.592987e-05    1.024    0.023
       106  -9.0947      8.3042    158.2916   1.4148281866e+02   4.1161407800e+01    0.1178491    0.0773201 -52.29 0.0004210022    1.573    0.364
       107 -11.1449     22.6621    155.6040   1.3776471747e+02   4.0557901524e+01    0.3957788    0.3077911 -74.82  0.002529958    1.040    0.038
       108  -9.4445    217.0100    155.0000   9.1074065190e+01   6.4306560673e+00    0.2347037   0.08447332  46.79 0.0008071953    2.976    0.664
       109  -9.3211    151.6732    153.3327   1.0460224216e+02   2.0593256034e+01    0.1639753    0.1242267  88.25 0.0006346506    1.714    0.417
       110 -10.2906     10.9624    153.1041   1.4029874021e+02   4.2160895610e+01    0.2996197    0.1457533  33.97  0.001603574    2.366    0.577
       111  -9.8004    205.3358    152.3178   9.2724583961e+01   9.3453219447e+00    0.1530052    0.1182565  -0.00 0.0007048663    1.699    0.411
       112 -10.4681    178.1836    151.5000   9.8162413620e+01   1.5294791269e+01    0.3289359    0.2714797  81.98  0.001585358    1.446    0.309
       113 -10.0804     26.5448    149.2403   1.3599195740e+02   4.1714891992e+01    0.2435588    0.1080614 -72.41 0.0005920269    1.940    0.485
       114 -10.1481     16.8771    147.0774   1.3814447804e+02   4.3093402822e+01    0.2075344    0.1671867 -19.42  0.001329476    1.702    0.412
       115  -9.1766    233.6981    146.6584   8.6240867218e+01   4.7456872394e+00    0.1439458    0.1090502  -7.82 0.0003311732    1.675    0.403
       116 -10.3479    206.9916    146.0734   9.0997648467e+01   1.0260961083e+01    0.2291825    0.2180846 -30.06 0.0006742117    1.044    0.043
       117 -11.2552      9.2028    145.5541   1.3986818202e+02   4.4067948056e+01    0.3952146    0.1918636  46.11  0.002083238    2.330    0.571
       118 -10.3626      2.9452    143.8747   1.4121618737e+02   4.4917387865e+01    0.2343633    0.1111135 -60.07  0.001262827    1.675    0.403
       119  -9.4076    213.3388    141.3182   8.8713317536e+01   9.8813638670e+00    0.1508253    0.1177029   0.61  0.000704918    1.707    0.414
       120 -10.5695     13.9367    140.2468   1.3803122384e+02   4.4945230272e+01    0.3350592    0.1214972  16.24  0.001330745    4.606    0.783
       121 -12.1992      9.1503    136.7396   1.3881839571e+02   4.6132132448e+01    0.2862235    0.2164588 -49.93 0.0002430914    1.337    0.252
       122 -11.4360      3.2781    136.9970   1.4034982630e+02   4.6487300304e+01    0.4996435    0.1676142 -55.06  0.001813232    2.377    0.579
       123 -10.4168    236.6303    138.8950   8.4052105103e+01   5.6320592783e+00    0.2133641    0.1939356  30.44 0.0004840034    1.245    0.196
       124 -10.8888     54.6680    136.1196   1.2644811574e+02   4.1839919454e+01    0.5881351    0.3042573  69.09  0.002108947    3.718    0.731
       125 -10.6779     21.7903    135.9339   1.3539851024e+02   4.5316011850e+01    0.2753005    0.2015354  57.62  0.001677493    1.545    0.353
       126  -9.7657    137.8781    135.3969   1.0379632880e+02   2.7671579555e+01    0.2288325    0.1507342  32.38 0.0009488352    1.783    0.439
       127  -9.3529    111.9996    132.5267   1.0981862705e+02   3.3606413638e+01    0.2053928    0.1304165  67.19 0.0004287821    2.222    0.550
       128 -11.6619     36.7363    130.4611   1.3046461730e+02   4.5223002726e+01    0.3793199    0.3174162 -81.16  0.002358822    1.136    0.120
       129 -10.2656     74.0143    129.3746   1.1966219451e+02   4.0852754808e+01      0.24859    0.1838079 -48.26 0.0007500775    1.270    0.212
       130  -9.6814    249.3026    129.6725   8.0028703124e+01   4.8895748075e+00    0.1407248    0.1000317 -65.62 0.0007032783    1.645    0.392
       131  -9.4569    243.0418    128.4753   8.0742061023e+01   6.3114430882e+00     0.185968    0.1413832  54.43 0.0004785904    1.493    0.330
       132 -11.0234      1.9029    125.9766   1.3935858323e+02   4.9116079169e+01    0.3456482    0.1556176 -69.51   0.00131267    1.682    0.405
       133  -9.9965    226.4864    124.4628   8.2551135708e+01   1.0407330961e+01    0.1469577    0.1319969 -54.02 0.0002436329    1.030    0.029
       134  -9.8340    219.8659    124.3702   8.3666453976e+01   1.1823134840e+01    0.1964301     0.193526  55.90  0.001127078    1.118    0.105
       135 -11.1236     10.4276    122.4667   1.3656360236e+02   4.9355588212e+01      0.24775    0.2103427  79.24 0.0008135654    1.278    0.218
       136 -11.9786     17.3895    117.5501   1.3384683656e+02   4.9979748398e+01    0.5307374    0.2915416 -39.54  0.002823626    1.922    0.480
       137  -9.9509     19.6191    121.8551   1.3389165134e+02   4.8806681907e+01    0.1912393    0.1587824 -31.30  0.000609723    1.372    0.271
       138  -9.2279    221.3654    120.2941   8.2472288869e+01   1.2285782938e+01    0.1451139    0.1168092   8.51 0.0004358851    1.714    0.417
       139  -9.7981    249.6915    118.3365   7.7539817685e+01   6.8555956530e+00    0.1435281   0.09801652 -65.92 0.0004645593    1.678    0.404
       140 -10.4312     86.0496    116.5298   1.1327057215e+02   4.2026523712e+01    0.2259183    0.1823494 -52.43 0.0004713231    1.149    0.129
       141  -9.3370    179.4758    116.5184   8.9508984215e+01   2.2460519084e+01    0.1557887    0.1494743 -65.46 7.310232e-05    1.010    0.010
       142  -9.1534    166.3150    115.6860   9.2136797323e+01   2.5686455974e+01    0.1619073    0.1233186 -81.92 0.0002476369    1.642    0.391
       143 -11.6626     35.9069    110.8156   1.2713085752e+02   4.9928438085e+01    0.5453911    0.3544371 -64.67  0.002783772    1.355    0.262
       144 -10.0569    248.5513    112.4706   7.6444104951e+01   8.1267960719e+00    0.1393993    0.1201479 -50.00 9.053249e-05    1.017    0.017
       145  -8.9265    212.7052    112.6330   8.2189476164e+01   1.5644977508e+01    0.1481855    0.1191086  -3.03 0.0007029246    1.720    0.418
       146  -9.5086    107.8017    112.1661   1.0594253395e+02   3.9141513452e+01    0.1993173    0.1701957 -24.99 0.0002655193    1.268    0.212
       147  -9.1126     66.3420    112.6947   1.1823234155e+02   4.5906837532e+01    0.1396401    0.1077115  78.79 0.0007041423    1.684    0.406
       148 -10.8243     43.9838    109.7584   1.2443390800e+02   4.9341400968e+01    0.3393526    0.1969239 -32.55 0.0006439372    2.017    0.504
       149 -12.1943     16.6486    108.9460   1.3263793231e+02   5.2006372012e+01       0.4388    0.3236822  13.75  0.001277417    1.706    0.414
       150 -11.7410     22.8530    107.1710   1.3043606879e+02   5.1928556430e+01    0.3362951    0.2208535  41.71  0.001429767    1.859    0.462
       151 -10.1374     55.3692    109.8104   1.2093163175e+02   4.8011387328e+01     0.283231    0.1615419  -2.98  0.001098646    3.442    0.709
       152 -11.2036      5.6016    107.6489   1.3572540116e+02   5.3047724893e+01    0.3334317    0.1882063 -40.15   0.00192409    1.747    0.428
       153 -10.3059      2.9669    105.0748   1.3610604653e+02   5.3780747558e+01    0.2249569     0.143467 -70.23 0.0004368386    1.283    0.221
       154 -11.0533      3.5116    100.4254   1.3519610896e+02   5.4779081277e+01    0.2899949    0.2237097 -88.84  0.001031824    1.399    0.285
       155  -9.2040    132.7132    107.6808   9.8067041497e+01   3.5004577653e+01    0.1538837    0.1243917  -4.74 0.0004004011    1.594    0.373
       156 -10.0295     63.2260    107.2400   1.1791155819e+02   4.7588277348e+01    0.1901424    0.1624659  78.90  0.001073079    1.415    0.294
       157 -10.9885    243.7442    104.2403   7.5350872338e+01   1.0555732653e+01    0.1835678    0.1615609 -19.16  0.001055942    1.367    0.268
       158 -10.0827    223.3566    103.9291   7.8373252369e+01   1.4929655695e+01    0.2303039    0.1940307 -85.86 0.0005074986    1.239    0.193
       159 -10.7928     10.3744    102.8480   1.3349769049e+02   5.3817422985e+01    0.2835854    0.1585871  53.41  0.001495964    2.521    0.603
       160 -10.8703     69.6397    102.7440   1.1482237099e+02   4.7712770334e+01    0.2429544      0.19687  28.96 0.0005815756    1.357    0.263
       161 -11.9263     20.3855     97.4237   1.2935182931e+02   5.4308819892e+01    0.4032685    0.2302309 -71.45 0.0009926161    1.745    0.427
       162 -10.7606    247.8505    102.1613   7.4319853262e+01   1.0089303176e+01    0.2204906    0.1714949 -63.88 0.0007479101    1.225    0.184
       163 -10.7731     35.6766    101.3382   1.2525888417e+02   5.2108936713e+01    0.2273169    0.2024124  25.00  0.001299833    1.324    0.245
       164 -10.7407     27.6864    101.0497   1.2774431762e+02   5.2905449035e+01    0.2181674     0.163565 -33.01  0.000203347    1.340    0.254
       165  -9.8523    119.9942    101.4795   9.9723339576e+01   3.9042045392e+01    0.2160786    0.1337468  20.82 0.0008094354    2.532    0.605
       166 -10.7160     63.1031     98.4266   1.1579318790e+02   4.9585313891e+01     0.338727    0.2230714  27.71  0.001741495    1.708    0.414
       167  -9.7449     50.4392     99.2861   1.2006053202e+02   5.0991259701e+01    0.1772811    0.1191808 -63.37 0.0003788002    1.477    0.323
       168  -9.1863    141.0376     97.0386   9.3077249395e+01   3.5376026619e+01    0.1798189    0.1760531 -58.83  0.000961201    1.014    0.014
       169 -10.4800      1.7303     93.1195   1.3451904296e+02   5.6475002048e+01    0.4078552   0.09283939 -59.97  0.001707527    2.716    0.632
       170  -9.4198    227.4468     93.4802   7.5338420594e+01   1.5921822568e+01    0.1441607    0.1269645 -61.68 0.0001217112    1.005    0.005
       171 -10.7309     95.1684     91.3358   1.0391680796e+02   4.6022841483e+01    0.5365774     0.326397   1.38   0.00188985    3.520    0.716
       172  -9.5326     31.4702     92.9314   1.2479006056e+02   5.4366283845e+01    0.1953909    0.1069472 -58.14 0.0004171421    1.545    0.353
       173 -11.7994     11.4118     91.2713   1.3105646003e+02   5.6293756401e+01    0.3475237    0.2250869  -4.80   0.00210862    1.934    0.483
       174 -11.0807     26.2422     90.8766   1.2607161681e+02   5.5271445469e+01    0.2743946    0.1816782 -42.30  0.001627994    1.297    0.229
       175  -9.5980    171.2584     91.0053   8.4633005526e+01   2.9469286141e+01    0.2046238    0.1305304 -41.04 0.0008914773    1.563    0.360
       176 -12.0849     48.3583     85.7233   1.1736854827e+02   5.4173926720e+01    0.3925685    0.3647553  42.95  0.002560334    1.299    0.230
       177  -9.4269     66.7627     93.4214   1.1332478990e+02   5.0172011225e+01    0.1686046    0.1317485  11.80 0.0003576911    1.453    0.312
       178 -10.4718      4.3721     86.4387   1.3244754619e+02   5.7760784959e+01    0.3485046    0.2080704  54.80  0.001952221    2.531    0.605
       179 -10.5214    112.6309     85.6775   9.7236912904e+01   4.3793679506e+01      0.28328    0.2639212 -84.98  0.001561924    1.213    0.176
       180 -10.6476     67.1042     85.6738   1.1109808937e+02   5.1760809132e+01     0.281789    0.1843544 -41.76  0.001456094    1.384    0.277
       181 -10.8468    117.7801     83.2995   9.5123787833e+01   4.3188411745e+01     0.372085    0.2241511 -35.56  0.001640779    1.717    0.418
       182  -9.5904     13.8084     82.9984   1.2856648606e+02   5.7900706453e+01    0.1877733    0.1278061 -88.14   0.00107668    2.007    0.502
       183 -11.3420     39.4194     81.0629   1.1922067616e+02   5.6124051423e+01    0.2271458    0.1981218 -37.32 0.0003179795    1.052    0.049
       184 -11.7652     19.2367     80.9468   1.2623517010e+02   5.7942686019e+01    0.3091153    0.2361067  88.16 0.0007881647    1.791    0.442
       185 -11.4092     23.4441     80.0217   1.2454853581e+02   5.7807550215e+01    0.3447711    0.1348448 -54.76  0.001067541    2.004    0.501
       186  -9.9963     85.2902     81.3456   1.0401154124e+02   4.9783770752e+01    0.1451785    0.1048462 -13.07 0.0007025928    1.658    0.397
       187 -10.1540     75.4193     79.7117   1.0666253813e+02   5.1722002066e+01     0.239504    0.1227634 -44.91  0.001074308    1.819    0.450
       188 -11.0784     71.3501     79.2013   1.0783769679e+02   5.2449071987e+01    0.2584657    0.2321108   4.15 0.0003937434    1.116    0.104
       189 -10.3780      2.0827     72.7063   1.3046276919e+02   6.0739827608e+01    0.2208322    0.1216288 -50.99 0.0006890072    1.338    0.252
       190 -11.4531      3.0330     77.6609   1.3116731198e+02   5.9674793178e+01    0.3323894    0.2955352  58.60 0.0006068085    1.501    0.334
       191 -11.3068      7.4699     74.1051   1.2884414971e+02   6.0149372519e+01    0.3962464    0.2315846 -33.20  0.002418839    1.575    0.365
       192  -9.1816     81.3460     79.2327   1.0461927373e+02   5.0861562017e+01    0.1360147    0.1024633   1.76 0.0002544914    1.555    0.357
       193 -10.8088    150.0487     77.6046   8.5490364441e+01   3.6993328940e+01    0.2673951     0.216729 -40.95 0.0003175218    1.258    0.205
       194 -12.0798     58.9058     75.5584   1.1093725044e+02   5.4937479049e+01    0.5387886    0.3783422  64.40  0.002675075    2.444    0.591
       195 -10.4873     65.2862     73.6776   1.0820250608e+02   5.4421846617e+01    0.2152645    0.1852252 -30.52 0.0003851463    1.048    0.046
       196 -11.4822     62.1983     71.8135   1.0868641139e+02   5.5216327032e+01    0.3946169    0.2298789 -31.43  0.001840311    1.725    0.420
       197 -10.1574     35.0651     77.0825   1.1970850362e+02   5.7378406266e+01    0.1813556    0.1567883 -41.10            0    1.079    0.073
       198 -10.3244     12.2159     77.1507   1.2783836238e+02   5.9225829985e+01    0.1809172     0.126454 -85.39  0.001075234    1.927    0.481
       199  -9.5494     29.6586     82.6535   1.2301281186e+02   5.6730144526e+01    0.3126412    0.1020689 -46.69  0.001326982    2.421    0.587
       200 -10.4514     88.0175     76.5197   1.0170174300e+02   5.0248143118e+01    0.2020652    0.1361516  38.97  0.000434931    1.526    0.345
       201  -9.0183    133.0000     74.9568   8.8713910779e+01   4.1407699488e+01    0.2234379   0.08407273 -38.68 0.0003278233    2.713    0.631
       202 -10.7956     37.1810     67.6591   1.1634607708e+02   5.9037890477e+01    0.3903989    0.2176079 -34.00  0.000975152    1.649    0.393
       203 -10.7445     41.0196     63.8807   1.1381369176e+02   5.9350709315e+01    0.2038126    0.1898165  87.53  0.001372115    1.523    0.344
       204 -10.6518     44.8527     75.0587   1.1568980190e+02   5.6761214901e+01    0.1918335    0.1711309  -4.05 0.0003076068    1.155    0.134
       205 -10.8180     40.2277     72.6786   1.1666866038e+02   5.7738875213e+01     0.330475    0.2447495 -66.29  0.001058776    1.651    0.394
       206 -11.3062    152.4138     72.2360   8.3438519473e+01   3.7372085025e+01    0.2824093    0.2662746 -30.99  0.000510531    1.125    0.111
       207 -10.9207    110.1473     73.1820   9.4154258252e+01   4.6653945354e+01    0.3010552    0.1600135  28.30   0.00114685    2.641    0.621
       208 -10.6756    102.7030     73.0641   9.6229173843e+01   4.8163906138e+01    0.2541876    0.1990728  33.42 0.0004006115    1.281    0.219
       209 -10.8894     16.9278     72.5641   1.2507804784e+02   5.9834653266e+01    0.2401397    0.1659786 -68.25 0.0007253956    1.577    0.366
       210 -10.6130     16.5080     67.5935   1.2399303132e+02   6.0856649024e+01    0.2336739    0.2109412 -80.06  0.001125954    1.434    0.303
       211 -10.5978     21.1589     65.9329   1.2182045669e+02   6.0828489721e+01    0.2642566    0.1769741  17.99  0.001670076    1.691    0.409
       212 -10.1373    245.4418     72.5089   6.8257704428e+01   1.5590184918e+01    0.1354366    0.1138435 -63.62  0.000126451    1.018    0.018
       213 -10.1193    175.3918     71.4189   7.8588500819e+01   3.1972962702e+01    0.3169476    0.2101058  52.74  0.001382186    1.491    0.329
       214 -10.9419     77.9117     71.9673   1.0349274916e+02   5.2815598194e+01    0.2624361    0.1940911  43.86 0.0003180201    1.494    0.331
       215 -11.2253     27.3385     70.3671   1.2071460096e+02   5.9441905754e+01    0.3047608    0.2044326 -56.18 0.0008497756    1.402    0.287
       216 -10.8983     31.0825     66.4747   1.1826123470e+02   5.9864765968e+01    0.3364611    0.1902182 -53.81  0.001242259    1.629    0.386
       217 -11.0166    140.5728     70.3445   8.5541102749e+01   4.0477909979e+01     0.377369    0.2132486 -51.04  0.001586998    2.025    0.506
       218 -11.5122     95.1386     68.0716   9.6880030781e+01   5.0507251032e+01    0.5119864    0.2942057 -39.04   0.00141639    1.717    0.418
       219 -11.3598     49.6503     70.7137   1.1273510684e+02   5.7057571223e+01    0.3334519    0.1791578  40.08  0.001499782    2.211    0.548
       220 -10.4310     50.7049     67.6705   1.1144532485e+02   5.7511849859e+01    0.2549061    0.1672195 -24.91 0.0008190236    1.519    0.342
       221 -10.2761    160.9471     69.6830   8.0926630465e+01   3.5761133896e+01    0.2056196     0.186199  67.97 0.0003770286    1.060    0.056
       222 -10.9647     68.7969     67.6814   1.0515628005e+02   5.5036523719e+01    0.3322674    0.2412802 -34.90  0.001014559    1.266    0.210
       223  -9.0835    230.3288     68.7226   6.9328163725e+01   1.9473866199e+01    0.1426218   0.09397461 -72.57  0.000320611    1.595    0.373
       224 -12.1872      4.3385     65.4129   1.2799695349e+02   6.2072268986e+01    0.4727929    0.3362173  74.06  0.002896634    2.357    0.576
       225 -10.4211    147.0411     66.0953   8.2835758851e+01   3.9675629053e+01    0.2762001    0.2178551  89.07 0.0005138552    1.503    0.335
       226 -10.3094    103.1868     67.2181   9.4248062846e+01   4.9107118022e+01    0.2494239    0.1533863   6.43 0.0009658044    2.898    0.655
       227 -10.5692    129.9949     64.1419   8.6185404772e+01   4.3932865307e+01     0.239091    0.2004866 -33.60 0.0002515545    1.237    0.192
       228 -12.0358     83.0535     61.5678   9.8493539041e+01   5.3814586366e+01    0.7824158    0.3965102  29.31  0.002356652    2.317    0.568
       229  -9.2573    189.0357     64.2304   7.4306692241e+01   2.9840711301e+01    0.1805689    0.1142394  61.83 0.0002076916    1.525    0.344
       230  -9.8950    173.9226     63.8763   7.6833535304e+01   3.3565825988e+01    0.2143389     0.190645  45.48 0.0005140799    1.211    0.175
       231  -9.3101     45.3211     64.6253   1.1246030102e+02   5.8727443064e+01    0.1176805    0.1003769 -88.50 6.835288e-05    1.812    0.448
       232 -10.0736    202.3725     62.3524   7.1738876740e+01   2.6937450978e+01    0.2117962    0.1989122  56.61 0.0004421096    1.222    0.182
       233 -10.4716    121.9407     62.1662   8.7574092720e+01   4.6042238025e+01    0.2712215    0.1873475   0.34  0.001148799    2.059    0.514
       234 -11.6954     56.1578     62.1873   1.0778222121e+02   5.7828612517e+01    0.2734849    0.2105501 -14.62 0.0002227813    1.234    0.190
       235 -10.5117     51.6754     62.5565   1.0950738207e+02   5.8342161927e+01    0.2753865    0.1773745 -18.49   0.00100557    1.674    0.403
       236 -11.1792     10.8060     62.5362   1.2484562046e+02   6.2237802957e+01    0.2544458    0.2100658  39.07 0.0004908263    1.637    0.389
       237 -12.3254     38.3874     51.3543   1.1083131277e+02   6.1893307458e+01    0.5495811    0.3834383 -23.65  0.002099753    1.257    0.204
       238 -10.4705     44.9808     51.4505   1.0834187025e+02   6.1120929511e+01    0.2652205    0.1504968 -32.48 0.0005430187    1.587    0.370
       239 -11.4663     26.5157     61.5280   1.1856748669e+02   6.1224809294e+01    0.3787918    0.1953354  15.33  0.002031251    2.269    0.559
       240 -10.8489     33.2514     59.9640   1.1553867442e+02   6.0888103893e+01     0.314743    0.1981196 -11.20  0.001284159    1.766    0.434
       241  -9.5470    160.6082     61.1775   7.8607197082e+01   3.7222177015e+01    0.1909241    0.1420018 -21.39 0.0009354367    1.620    0.383
       242 -10.9685     69.3919     58.1551   1.0184418676e+02   5.6633286094e+01    0.3886865    0.3353365 -49.84  0.002324879    1.381    0.276
       243 -11.0771     64.1504     59.6817   1.0415285285e+02   5.7157807625e+01    0.3277745    0.1909433  36.86  0.001329435    1.797    0.443
       244 -11.0138     44.7141     57.6706   1.1049837291e+02   6.0069429798e+01    0.2835477     0.216627  30.29 0.0006967643    1.465    0.317
       245  -9.5738    136.7415     57.6731   8.2625675968e+01   4.3420429825e+01    0.1395967    0.1092265  15.54 0.0001992614    1.558    0.358
       246 -10.8754    123.1367     56.5154   8.5496116285e+01   4.6671869306e+01    0.2614223    0.2158783 -60.99 0.0009623829    1.436    0.303
       247 -10.2701    114.5292     57.4128   8.7979921715e+01   4.8396437083e+01    0.3292596    0.1684412  41.23   0.00131635    1.944    0.486
       248 -10.4930    117.6860     54.9440   8.6367380190e+01   4.8101631650e+01    0.2082303     0.180578  17.10 0.0003664184    1.182    0.154
       249  -9.9322    104.5589     56.4933   9.0382875351e+01   5.0605879226e+01    0.2053316    0.1906256  24.36 5.917592e-05    1.030    0.029
       250 -10.5065    101.0248     55.4935   9.1049122964e+01   5.1468930728e+01    0.4372578    0.1443671  44.52  0.001589087    2.904    0.656
       251 -10.2203     75.4685     56.0553   9.9099848415e+01   5.6017547693e+01    0.2085203    0.1823254  50.77 0.0006732895    1.407    0.289
       252 -12.1905    128.0426     51.3018   8.2667955873e+01   4.6358131633e+01    0.4204726    0.3444175 -16.43 0.0006506781    1.346    0.257
       253 -11.5986      4.9438     52.7394   1.2454727729e+02   6.4455205888e+01    0.3617399    0.1828836 -28.74  0.002120964    1.829    0.453
       254 -10.0644     87.1331     52.6093   9.4195317150e+01   5.4554952854e+01    0.1959395    0.1576102  48.58 0.0008687778    1.369    0.269
       255 -11.4159     13.6375     51.1803   1.2060274958e+02   6.4168264416e+01     0.344332    0.2959099 -18.59  0.001758835    1.173    0.148
       256 -10.4021     76.7408     50.4246   9.6739938462e+01   5.6709802212e+01    0.2319414    0.1710718  25.38 0.0006774939    1.313    0.238
       257  -9.3618     50.0435     51.9883   1.0662769745e+02   6.0404406209e+01    0.1733276    0.1251931 -12.71 0.0003377724    1.325    0.245
       258 -10.9489     51.1886     48.4709   1.0498688249e+02   6.0839792917e+01    0.2508181    0.2276064  69.84  0.001067136    1.732    0.423
       259 -10.7992    114.3410     49.4780   8.5450871056e+01   4.9630922004e+01    0.3693806    0.2615226 -39.54  0.001952927    1.510    0.338
       260 -10.3638    107.9655     48.9041   8.6933274243e+01   5.1055109177e+01    0.2006872    0.1822777  25.68 0.0003009769    1.015    0.015
       261 -10.8280    100.8350     48.2873   8.8680079877e+01   5.2594436892e+01    0.2486112    0.1943645 -52.27  0.000942687    1.577    0.366
       262  -9.5220    104.3579     46.2921   8.7029635198e+01   5.2170429632e+01    0.2285387    0.1346162  18.47 0.0006510946    2.460    0.594
       263 -10.3843    196.9325     48.0936   6.9029919456e+01   3.0375797508e+01    0.2018558    0.1774927 -83.73  0.000292084    1.011    0.011
       264 -10.8530    152.6940     46.5617   7.5969491996e+01   4.1283414351e+01    0.6254126    0.3212296 -69.67  0.001945154    4.713    0.788
       265 -10.4643    142.7616     45.9760   7.7779574417e+01   4.3719271196e+01    0.2513208    0.2317251 -49.49 0.0007185619    1.163    0.140
       266 -10.0605     96.1994     46.8657   8.9511689589e+01   5.3713070445e+01     0.182924     0.178177 -16.75 0.0004503663    1.170    0.145
       267 -10.6774     62.2645     47.1919   1.0051929196e+02   5.9501035157e+01    0.3377456    0.1689933  30.22  0.001203183    2.078    0.519
       268 -11.0858     11.2442     43.8151   1.1934993167e+02   6.5643260046e+01    0.2955724     0.187274 -22.14  0.001164455    1.389    0.280
       269 -11.6649      6.9902     41.4505   1.2040883979e+02   6.6342317785e+01    0.5689748    0.1150878 -45.47 0.0007592121    3.141    0.682
       270 -11.1550    122.7855     45.0650   8.1928126125e+01   4.8413675277e+01    0.4307058    0.3305602 -50.33  0.002165752    1.507    0.336
       271 -11.5646     80.6586     42.9245   9.2819258144e+01   5.7156848331e+01     0.481298    0.2708238 -47.40  0.001913539    2.287    0.563
       272 -10.6851     71.6631     51.1654   9.8682304544e+01   5.7426144769e+01    0.3481408    0.2392295  40.25   0.00114686    1.517    0.341
       273  -9.0962    233.3219     45.2881   6.3824343800e+01   2.2356839215e+01    0.1177727    0.1012247  42.52 0.0004348267    1.602    0.376
       274 -10.0609     91.8293     45.0904   9.0170807229e+01   5.4806625815e+01    0.1807992    0.1725412 -17.34 0.0002776801    1.170    0.145
       275 -10.0139     85.8155     44.9533   9.1934546403e+01   5.5943299735e+01    0.1950852    0.1587777   7.79 0.0003224105    1.179    0.152
       276 -10.4494    163.2730     42.4843   7.2867376044e+01   3.9292510839e+01    0.2218573    0.2118222  60.61 0.0006094941    1.098    0.089
       277 -10.0211     64.2264     41.7237   9.7851467030e+01   6.0035823232e+01    0.2459508    0.1397623 -38.26  0.001312549    1.756    0.431
       278 -10.6329    110.9021     42.0419   8.3867860272e+01   5.1396841000e+01    0.2113629    0.1871382  57.51  0.000349967    1.186    0.157
       279 -10.6399     51.9443     41.3319   1.0214427224e+02   6.1863914055e+01    0.1990955    0.1494247 -37.73 0.0005350912    1.380    0.275
       280 -10.3700     25.3612     41.2643   1.1261593015e+02   6.4912868720e+01    0.4734895    0.1914025  21.54  0.002351923    2.778    0.640
       281 -10.5417     20.5381     37.5490   1.1334209473e+02   6.5955394745e+01    0.2211523    0.1639269 -13.87 0.0008788138    1.133    0.117
       282 -11.6899     24.7435     35.5090   1.1083507637e+02   6.5894830869e+01    0.2923837    0.2274304  28.45  0.001010704    1.564    0.361
       283 -10.0804     96.9992     37.2200   8.5921847544e+01   5.4874962229e+01    0.1888524    0.1770612  48.80 0.0004792258    1.196    0.164
       284 -10.0395     89.9821     40.3139   8.9031813953e+01   5.5820860861e+01    0.2159845    0.1809738 -57.32 0.0007259799    1.605    0.377
       285  -9.7359    235.3210     39.2801   6.2331065659e+01   2.2755731053e+01     0.297857    0.1238334 -47.01  0.001363372    2.110    0.526
       286 -10.1005    226.5879     40.1626   6.3456056391e+01   2.4577278189e+01    0.2139532    0.1554382 -86.81 0.0005177002    1.247    0.198
       287  -9.9777    129.6152     33.2096   7.6598279071e+01   4.8398135156e+01    0.1791374    0.1714042 -83.42 0.0006138525    1.151    0.131
       288 -11.1819    135.5064     39.0541   7.7180807294e+01   4.6326413265e+01    0.3689156     0.190175 -35.11  0.001192343    2.069    0.517
       289  -9.5106     44.1445     39.3462   1.0438026785e+02   6.3175215898e+01     0.225299   0.07199638 -39.83  0.000843595    2.845    0.649
       290  -9.9983     85.0700     38.7351   8.9938957229e+01   5.6946695807e+01    0.1971622    0.1691071  16.98 0.0004696462    1.030    0.029
       291 -11.6774     81.9594     36.2015   8.9970557168e+01   5.7848040560e+01    0.4910846    0.2154415  35.48  0.002181951    2.335    0.572
       292 -11.0100     70.6081     35.5219   9.3365376075e+01   5.9894942440e+01    0.2099238    0.1561643   3.12 0.0004733253    1.300    0.231
       293  -9.7194      1.3454     37.8351   1.2171238780e+02   6.7311767896e+01    0.1955495   0.06334042 -44.23 0.0003985002    2.156    0.536
       294 -10.8568      1.8037     33.0788   1.1998635004e+02   6.8079400321e+01    0.3229858    0.3125758  64.10  0.001516515    1.681    0.405
       295 -10.9487    101.6348     36.9589   8.4562595622e+01   5.3980463619e+01    0.2312863    0.1752027  44.87 0.0003566288    1.220    0.180
       296 -10.2944    106.0720     34.9056   8.2684222936e+01   5.3327862296e+01    0.3250116    0.1763011 -43.41  0.001547126    2.205    0.547
       297 -10.5880     56.9814     35.5470   9.8124212250e+01   6.2004924674e+01    0.1858213    0.1426826 -19.93 0.0005530871    1.178    0.151
       298 -12.4761    226.6386    246.3527   1.0700647322e+02  -1.0955685836e+01    0.6374722    0.4934944   8.96   0.00418867    1.129    0.114
       299 -10.0891    137.0182    247.7166   1.2458032699e+02   3.4406222519e+00    0.1832542    0.1500216  46.40 0.0004605693    1.052    0.050
       300 -10.0545      8.2774     21.5960   1.1291237139e+02   6.9420549986e+01    0.1877592   0.09467415 -48.93 0.0006320265    2.117    0.528
       301 -10.5985    110.9982     34.9176   8.1442546485e+01   5.2291626666e+01    0.1987603    0.1837839  -5.85 0.0003408646    1.131    0.116
       302  -9.0005     41.0089     36.0000   1.0436105907e+02   6.4063239693e+01     0.175563   0.06240608  33.29 0.0005654276    2.873    0.652
       303 -10.5757    150.9623     34.1180   7.2674958989e+01   4.3314069425e+01    0.2069258     0.182149  60.24 0.0005968847    1.036    0.035
       304 -10.7358     96.4666     40.7014   8.7294130020e+01   5.4520804004e+01    0.3360254    0.2371161  66.97  0.001586403    1.920    0.479
       305  -8.8294    158.2680     33.2921   7.1151678141e+01   4.1670049981e+01    0.1299213   0.09838974  35.21            0    1.509    0.337
       306  -9.3171    118.8323     32.8414   7.8871703066e+01   5.0851149987e+01    0.1726697    0.1536389 -74.64 0.0005868883    1.358    0.264
       307 -10.3208     96.2093     32.9249   8.4618532542e+01   5.5571342066e+01    0.2548469    0.1411632  29.18 0.0006979698    2.010    0.502
       308 -10.6110     19.0497     32.0941   1.1202602957e+02   6.6949367694e+01    0.2028467     0.173798  -1.45  0.001430032    1.264    0.209
       309 -10.4109    178.9199     31.8601   6.7512748526e+01   3.6872037351e+01      0.22278    0.1796017 -66.36            0    1.238    0.192
       310  -9.3929     89.8121     31.8038   8.6016730856e+01   5.6951008004e+01    0.1546718    0.1468146  55.24 0.0004126503    1.278    0.217
       311 -10.0353     73.8302     31.1158   9.0642292687e+01   5.9929022553e+01    0.2104413    0.1545297  21.72 0.0003620066    1.243    0.196
       312  -9.8015     56.1525     31.1808   9.6745414482e+01   6.2725268981e+01    0.1480604     0.137446  -5.88 0.0003424445    1.300    0.231
       313 -10.3719     50.3262     27.5590   9.7477598300e+01   6.4036312344e+01    0.3555025    0.1306407 -24.92  0.001408792    3.650    0.726
       314  -9.4151    162.8039     29.2502   6.9271304622e+01   4.1064679084e+01    0.1817572    0.1096836 -13.65 0.0008425929    2.382    0.580
       315 -10.1920    101.0482     28.6305   8.1798021824e+01   5.5109726552e+01    0.1885355    0.1714912 -30.08 0.0004557836    1.250    0.200
       316 -10.7120    214.8660     27.8180   6.2016041051e+01   2.8870464262e+01    0.3370683    0.1494838  65.97  0.001574631    2.037    0.509
       317 -10.4440    124.9716     27.9306   7.5902790144e+01   5.0056838616e+01    0.1928234    0.1659384  43.43            0    1.054    0.051
       318 -11.5376     70.8386     26.2698   8.9752607586e+01   6.1033032131e+01    0.4127716    0.2406904  33.54  0.001608169    1.570    0.363
       319  -9.8081    203.8001     27.1434   6.3110131713e+01   3.1523547622e+01    0.1707202    0.1447526  57.83 0.0005285813    1.320    0.243
       320 -10.0491    154.8167     27.1716   6.9999851313e+01   4.3213742378e+01     0.180183    0.1421295  42.89            0    1.311    0.237
       321  -9.7644     24.6997     27.0051   1.0764985387e+02   6.7180556923e+01    0.1806943     0.125055 -38.16 0.0004603592    1.432    0.302
       322  -9.7286     15.4724     13.4992   1.0625203384e+02   6.9928174210e+01     0.152667   0.09104162  20.41 5.748079e-05    1.605    0.377
       323  -9.3175    128.2598    249.3679   1.2652472089e+02   4.6077847785e+00     0.116634    0.1000376  -7.53 0.0004741514    1.644    0.392
       324  -9.6147    115.4287    244.3081   1.2841786944e+02   7.6729967633e+00    0.1640367    0.1196853 -81.79 0.0009400976    1.533    0.348
       325 -10.1902    109.8721    243.0492   1.2936367027e+02   8.8244663883e+00      0.27871    0.1584403  69.30  0.001007474    2.166    0.538
       326  -9.2596     90.5210     26.5661   8.3900035475e+01   5.7433448129e+01    0.1257618    0.1091545  26.68 8.710448e-05    1.027    0.026
       327  -9.8670     16.6073     25.7863   1.1073242692e+02   6.8117918658e+01    0.2062682    0.0818724 -39.29  0.001115368    2.065    0.516
       328 -11.4977     63.5635     22.4743   9.0682655547e+01   6.2679217355e+01     0.587027    0.2767195  27.27  0.002835902    2.348    0.574
       329  -9.4223    220.7823     24.4183   6.0645638326e+01   2.7943063452e+01    0.1715396    0.1046966  63.83 0.0003791307    1.586    0.370
       330 -10.5401     54.0001     23.2502   9.4378128330e+01   6.4057048445e+01    0.2020772    0.1667705  18.48 0.0003664702    1.149    0.129
       331 -10.2119    179.6722    243.3636   1.1548581222e+02  -3.0368544597e+00    0.1281057   0.09904502  70.88 0.0007039188    1.800    0.444
       332 -10.1796     35.4811     22.6489   1.0134316579e+02   6.6600414378e+01    0.1997792    0.1451614   8.12  0.000895066    1.184    0.155
       333  -9.6915     35.7157     19.6575   1.0000537792e+02   6.6958586099e+01    0.1758133    0.1478448  -8.17 0.0005324296    1.211    0.174
       334  -9.6698    124.2571     22.0000   7.4138432297e+01   5.0856000815e+01    0.1717527    0.1592355  38.07 0.0004177302    1.073    0.068
       335  -9.9770     94.5969     22.1958   8.1187735591e+01   5.7117079820e+01    0.1680978    0.1131674  -4.37 0.0007930226    1.669    0.401
       336 -11.1125     85.4783     20.5757   8.3094858823e+01   5.9052836765e+01    0.3916705    0.2071341   1.61  0.001756442    2.886    0.653
       337  -9.2297    120.6639     21.6956   7.4794993954e+01   5.1686185839e+01    0.1371943   0.08611511  33.38 0.0003030756    1.668    0.400
       338 -10.1925    136.9733     20.0282   7.1031833311e+01   4.8168873915e+01    0.1962854    0.1687412  56.88 0.0003099334    1.017    0.017
       339 -10.4080    103.6247     19.2511   7.7838824921e+01   5.5589177028e+01    0.2910254    0.1394014  32.00  0.001306266    2.415    0.586
       340  -9.7473     45.0355     20.0099   9.6424588415e+01   6.5717428749e+01    0.1509952     0.147213 -47.23    0.0011261    1.688    0.407
       341 -10.3426     88.7071    241.4087   1.3333568686e+02   1.2505463375e+01    0.2040122    0.1481952 -48.07   0.00118151    1.835    0.455
       342 -10.8186    156.1953    240.7381   1.1976048344e+02   1.4168353585e+00    0.2379165    0.1777507 -86.17  0.001289716    1.877    0.467
       343  -9.5590     50.3010    240.3306   1.4051626394e+02   1.8215505715e+01     0.104751   0.09139197 -54.55 0.0003862488    1.648    0.393
       344 -10.5486    217.0223     16.5802   5.9323166149e+01   2.9730925893e+01    0.4084685    0.1143343  59.53   0.00160513    3.220    0.689
       345  -9.9599    195.7286    238.6671   1.1157829323e+02  -4.9526661301e+00    0.2335896    0.1421638  33.71  0.001121681    1.479    0.324
       346 -10.6095      9.5906     16.0347   1.1007475744e+02   7.0106768185e+01    0.2014914     0.133029  -5.91 0.0008579342    1.267    0.211
       347 -10.4885    165.0317     15.0566   6.5069925709e+01   4.2080744850e+01    0.2567953    0.1586423  75.15  0.001367678    1.470    0.320
       348 -12.2233     74.2752    238.3879   1.3581648513e+02   1.5282385682e+01     0.587844    0.3726446  60.00  0.003403192    1.352    0.260
       349 -10.9765    177.2377    235.2711   1.1467835615e+02  -1.2611102893e+00    0.4097392      0.26106  -4.43  0.001755991    2.728    0.633
       350  -9.6750     50.1574     15.1980   9.2455245006e+01   6.5558523895e+01    0.1440458    0.1296209   9.29   0.00106962    1.308    0.235
       351 -10.1363    159.9012    235.8621   1.1827163226e+02   1.6457697949e+00    0.2046692    0.1711243  20.69 0.0005726053    1.263    0.208
       352 -11.3351     73.8465    232.8573   1.3532789703e+02   1.6485071652e+01    0.2979393    0.1791918  53.64  0.001651799    1.437    0.304
       353  -9.9052    139.6371     13.7520   6.8658126651e+01   4.8169564139e+01    0.1591695    0.1144288 -42.06 0.0002461394    1.582    0.368
       354 -10.5837      1.4312    244.9934   1.4925414327e+02   2.2954655724e+01    0.1572841   0.08102366 -83.80 0.0004680067    1.548    0.354
       355 -10.2022    167.0340    233.7730   1.1649603318e+02   7.7400299899e-01    0.2140632    0.1977172 -40.02 0.0008375981    1.211    0.174
       356 -10.1241     85.7586    232.9753   1.3297903193e+02   1.4672368581e+01    0.1601855    0.1025873 -69.12 0.0008371074    1.585    0.369
       357 -10.0095     79.6039    231.3829   1.3402950402e+02   1.5938641556e+01    0.2298732    0.1422138  43.14 0.0006659104    1.532    0.347
       358  -9.3275    107.9994     10.4877   7.3765603516e+01   5.5494433189e+01    0.1593228    0.1047722  88.20 0.0006296468    2.322    0.569
       359  -9.5593     58.4866    230.4360   1.3808065122e+02   1.9167661840e+01    0.1264606   0.09960441  74.43 0.0001426979    1.008    0.008
       360 -10.6700    153.4391    233.6206   1.1924454636e+02   3.1858687357e+00    0.2477042    0.2020098 -20.62  0.001380458    1.546    0.353
       361 -10.2477    190.5700    226.7139   1.1057420860e+02  -2.0918612113e+00    0.2884831    0.1309798 -46.10  0.001029894    2.433    0.589
       362  -9.3816    249.3423    227.2857   9.9578742810e+01  -1.1544593837e+01    0.1266587   0.08212098   2.41  0.000487224    1.641    0.390
       363  -9.8442    127.3353    233.3380   1.2456735583e+02   7.7889619476e+00    0.1291519    0.1064141  -0.41 0.0007051646    1.750    0.428
       364  -9.4189    140.1494    227.3518   1.2103922489e+02   6.7252163317e+00    0.2034551    0.1111238  49.44 0.0009391892    1.709    0.415
       365 -10.2106    129.6920    226.8156   1.2314776757e+02   8.6727072355e+00    0.3734603    0.1782695  58.29  0.001480612    2.627    0.619
       366 -10.2777     88.1234    227.1476   1.3182513659e+02   1.5524762259e+01    0.1889756    0.1789887  69.70  0.001230852    1.240    0.194
       367 -10.3965     66.4719    226.6708   1.3613901359e+02   1.8854499795e+01    0.2884814    0.1366743  41.85 0.0007375898    1.981    0.495
       368 -10.2746      5.4895    226.5073   1.4752302109e+02   2.6249305535e+01    0.3151128   0.07392473  57.92   0.00119096    4.392    0.772
       369 -10.6068    115.9888    225.7927   1.2587425630e+02   1.1249062201e+01    0.2005257    0.1415612  84.21 0.0005745764    1.634    0.388
       370 -10.1766    180.7032    224.4382   1.1217251702e+02   3.6009815681e-02    0.2239333    0.1228581 -44.90  0.000614936    1.981    0.495
       371 -10.1391    108.2186     17.0353   7.5980522679e+01   5.4845064229e+01    0.1725035    0.1613003 -88.31 0.0005316227    1.292    0.226
       372  -9.9369     81.1692    224.4868   1.3293443137e+02   1.7161453338e+01    0.2660484    0.1560044 -88.80  0.001312674    1.919    0.479
