#   1 NUMBER                 Running object number                                     
#   2 MAG_AUTO               Kron-like elliptical aperture magnitude                    [mag]
#   3 X_IMAGE                Object position along x                                    [pixel]
#   4 Y_IMAGE                Object position along y                                    [pixel]
#   5 X_WORLD                Barycenter position along world x axis                     [deg]
#   6 Y_WORLD                Barycenter position along world y axis                     [deg]
#   7 A_WORLD                Profile RMS along major axis (world units)                 [deg]
#   8 B_WORLD                Profile RMS along minor axis (world units)                 [deg]
#   9 THETA_WORLD            Position angle (CCW/world-x)                               [deg]
#  10 FWHM_WORLD             FWHM assuming a gaussian core                              [deg]
#  11 ELONGATION             A_IMAGE/B_IMAGE                                           
#  12 ELLIPTICITY            1 - B_IMAGE/A_IMAGE                                       
         1 -11.4599    110.7033     39.7005   1.4515363657e+01   5.2675952756e+01     1.535121     0.426587 -35.80  0.004879056    3.401    0.706
         2 -12.3832    119.3673     39.3542   1.2393930755e+01   5.0557246059e+01     1.341323    0.5900109 -24.35  0.002879954    2.953    0.661
         3 -12.8376    163.3376     27.5436   1.1905518106e+00   4.1100243560e+01    0.6862177    0.3504776  61.26  0.001278912    1.969    0.492
         4 -11.9528    104.6668     13.0202   4.7520201644e+00   5.7622110059e+01     1.218787    0.4829824 -13.49  0.004168895    3.884    0.743
         5 -12.7612    105.7396     19.9871   7.5501614137e+00   5.6580785639e+01    0.4921479     0.337861 -69.88 0.0004302833    1.668    0.400
         6 -12.5436    108.7262     29.0383   1.0695796962e+01   5.4691849456e+01     1.026339    0.5952881  23.52  0.003746623    2.971    0.663
         7 -12.1673     58.3610     29.0340   2.6974701755e+01   6.6465983162e+01    0.8187529    0.3866579 -28.20 0.0005290595    2.655    0.623
         8 -11.4771     20.4455     21.6353   4.5395072813e+01   7.4121378408e+01    0.5858644    0.3364175 -34.93  0.001943563    1.731    0.422
         9 -11.2652    134.6451     21.6872   3.0667522735e+00   4.8983318085e+01    0.6496516    0.3610378 -52.15  0.002977451    1.813    0.449
        10 -11.6824    127.7545     16.3191   2.1306389973e+00   5.1346904946e+01    0.5080839    0.4731279  -0.55  0.001225622    1.262    0.208
        11 -11.3143    135.9288     14.6237   3.4895667647e-01   4.9432480416e+01    0.5329731    0.3017883  72.09  0.001997764    1.650    0.394
        12 -11.5763     36.2040     17.9111   3.2258354546e+01   7.2459719968e+01    0.6257616    0.4072103 -42.37  0.001900554    1.589    0.371
        13 -12.2914     48.7238     12.7912   2.2103298653e+01   7.0864338545e+01    0.6980728    0.2756785  49.22  0.002910419    2.355    0.575
        14 -10.7250      5.6885     10.0442   5.1377096936e+01   7.7952772066e+01     0.418932    0.3128116 -26.52  0.002219628    1.195    0.163
        15 -10.5907     13.0089      8.9675   4.3689161165e+01   7.7388486103e+01    0.3399588    0.3223407 -24.31  0.002028416    1.210    0.174
        16 -10.9724      9.4210     19.4324   5.3200050610e+01   7.5737581102e+01    0.4247851    0.2439831  -9.52  0.001167404    2.076    0.518
        17 -11.6443     16.0355     14.3620   4.4613897103e+01   7.6043490844e+01    0.6381922    0.3227638 -36.40  0.003101005    1.957    0.489
        18 -12.0388     22.6223     11.0588   3.7081069637e+01   7.5751575830e+01    0.5641608    0.3797927   1.41  0.002210301    1.762    0.432
        19 -12.0744    164.7238     17.9993   3.5811240458e+02   4.1864708660e+01    0.5277614    0.3003776  44.23  0.002460084    2.318    0.569
        20 -11.2195     86.0589     14.4646   9.6396333742e+00   6.2145320641e+01    0.5204058    0.3275105  -5.45   0.00226698    2.072    0.517
        21 -10.7981     88.8287      8.0367   5.7802200628e+00   6.2126171667e+01     0.348051    0.2395904 -32.43  0.001201678    1.530    0.346
        22 -11.7321    242.0537     15.1229   3.5187307738e+02   2.5496698173e+01    0.2610623    0.2047784  67.73 0.0003950248    1.620    0.383
        23 -11.8786    227.8426     14.8734   3.5255490307e+02   2.8234074809e+01    0.4341516    0.2041823 -71.27    0.0012907    2.145    0.534
        24 -10.8191    120.9706     11.9760   1.4940747359e+00   5.3542537539e+01    0.3815029    0.2587071 -69.14  0.001540423    1.533    0.348
        25 -11.2766    191.3477     11.6058   3.5401639381e+02   3.6291717645e+01    0.4555551    0.2401093 -14.84  0.002137086    2.552    0.608
        26 -10.4368    223.5931      2.5167   3.4994223515e+02   3.0343930576e+01    0.2308695    0.1815455 -67.97 0.0005789275    1.125    0.111
        27 -11.7182    211.8763      9.7764   3.5224743675e+02   3.2013139903e+01    0.5038249    0.3015132 -13.85   0.00221609    2.230    0.552
        28 -11.2130    218.4867      3.4651   3.5039737179e+02   3.1282152624e+01    0.3262447     0.203406  74.44  0.001761672    1.737    0.424
        29 -11.5706    168.8902      9.4304   3.5513807267e+02   4.1753633174e+01    0.5000874    0.2344106  64.55  0.001989669    2.107    0.525
        30 -11.7658     63.8435      9.2423   1.3590886643e+01   6.8015380238e+01    0.4115324    0.3014587 -36.83  0.000459881    1.466    0.318
        31  -9.3591    144.9260      9.8352   3.5758376546e+02   4.7631832501e+01    0.1994085    0.1696153  51.76 0.0005826774    1.321    0.243
        32  -9.7621      1.1278      7.4237   5.4471523667e+01   7.8843717676e+01    0.2237923   0.06616383 -56.11 0.0008514808    2.932    0.659
        33 -10.3225      1.8819      2.2449   5.0173204333e+01   7.9768042582e+01    0.2651172    0.1404683 -40.67 0.0008613237    1.676    0.403
        34 -11.3911    185.0500      6.0196   3.5294172845e+02   3.8289436171e+01    0.3881754    0.2165727 -55.66  0.001532812    1.527    0.345
        35 -11.0437    153.9545      6.4822   3.5555364777e+02   4.5693736847e+01    0.2837983     0.174876  88.13 0.0008422553    1.525    0.344
        36  -9.3821     78.0244      7.4531   8.1687046744e+00   6.4848964149e+01    0.2019548    0.1251636  66.44 0.0004744791    1.522    0.343
        37 -10.3970    247.4711      5.5200   3.4959560612e+02   2.5497325215e+01    0.1723447    0.1530218 -88.34 0.0007477177    1.382    0.277
        38 -10.9163    243.8389      3.8593   3.4938972703e+02   2.6325869651e+01    0.2306082     0.125266 -53.41 0.0007243652    1.357    0.263
        39  -9.8864    175.9145      5.8360   3.5353369823e+02   4.0433584684e+01    0.1876097    0.1703324  75.63 0.0006125051    1.242    0.195
        40  -9.7500    122.3764      6.2584   3.5904849284e+02   5.3727160213e+01    0.2485142    0.1356109 -16.02  0.001139208    2.173    0.540
        41  -9.6501    128.9745      4.9409   3.5769203024e+02   5.2151624271e+01    0.2202086    0.1837344 -32.60 0.0002926075    1.273    0.215
        42 -10.6296    141.6901      2.6642   3.5546656339e+02   4.9115133920e+01    0.2951833    0.2151601 -46.30  0.001219835    1.304    0.233
        43 -11.1533    137.9117      3.9985   3.5632452544e+02   4.9954597975e+01    0.2954801    0.2387697 -89.11 0.0003705191    1.109    0.099
        44 -11.7600    134.0053      2.4820   3.5620504425e+02   5.1081401490e+01    0.6579708    0.2756779  79.86  0.002760198    2.270    0.559
        45  -9.4973     70.5957      5.1901   9.0218619879e+00   6.6857800427e+01    0.2426662    0.1555951  41.71 0.0009679372    1.521    0.343
        46  -9.5996     75.4965      3.2711   6.5645021918e+00   6.5857491961e+01    0.3615103    0.1218416  72.28  0.001225604    3.504    0.715
        47 -10.8787     41.7178      3.6070   1.9346435519e+01   7.3437104481e+01    0.4260334    0.2286894  28.11  0.001965293    2.252    0.556
        48 -10.6878    235.7574      4.4003   3.4983497388e+02   2.7783860372e+01    0.1408128   0.09914113  76.01 0.0009506657    1.631    0.387
        49  -9.8301    165.0728      3.9768   3.5381281552e+02   4.3201613608e+01    0.1984893    0.1487815  41.80 0.0007829311    1.702    0.412
        50  -9.1772      5.2595      4.6513   4.8223097134e+01   7.9010436564e+01    0.1064781   0.09643012  81.24 0.0006969712    1.603    0.376
        51 -10.8784    113.7108      2.0314   3.5855258748e+02   5.6323182029e+01    0.5118585    0.2231667  85.37  0.001842783    2.474    0.596
        52 -11.1769    205.3483      1.8230   3.5065119336e+02   3.4190158080e+01    0.3696246    0.1550227  88.87 0.0007300084    2.414    0.586
        53 -10.1582    105.4373      1.7516   3.5967027242e+02   5.8470081247e+01    0.2659796    0.1781365  88.07 0.0008653447    1.459    0.315
        54  -9.4630     12.1846      2.1225   3.9284343830e+01   7.8658420643e+01     0.191114    0.1467929  -4.40 0.0008329999    1.229    0.186
        55  -9.6945    152.2729      1.3801   3.5405522473e+02   4.6576425587e+01    0.2268163    0.1117655  74.51 0.0004660934    1.863    0.463
        56 -10.1629    124.1242      1.3623   3.5692280177e+02   5.3703464586e+01    0.2673148    0.1151034  74.25 0.0007426436    2.090    0.521
        57  -9.7044     82.2213      1.2572   3.8297617036e+00   6.4380236819e+01    0.1827781    0.1087086  75.06 0.0004718892    1.639    0.390
        58  -9.0476     52.4629      1.5732   1.3020715172e+01   7.1378539214e+01    0.1282336    0.1165071  40.70 0.0002333723    1.028    0.028
        59 -10.0579     28.7118      1.4339   2.5328166779e+01   7.6185330268e+01    0.2223215    0.1131475  45.21 0.0004353797    1.861    0.463
        60 -10.8187     35.6273    102.7276   6.2408769137e+01   5.2637691544e+01      1.29064    0.5267741   4.74   0.00342766    5.980    0.833
        61 -12.4073     15.3394    109.7684   7.1669683985e+01   5.2537883046e+01     1.855364    0.8443568 -20.33  0.006600207    3.701    0.730
        62 -11.6095      4.5391    106.5651   7.5652527379e+01   5.4104058289e+01    0.5886033     0.395949  83.04  0.003088464    1.368    0.269
        63 -10.9693      7.5322    114.5428   7.5192466585e+01   5.1762112296e+01    0.3086156    0.2190684 -77.21  0.001253905    1.240    0.194
        64 -12.2331      2.7254    111.5867   7.6789753373e+01   5.2842129169e+01    0.5903065    0.3312697  72.81  0.002142486    1.728    0.421
        65 -11.7740     22.2553    114.0201   6.9468180246e+01   5.0827511189e+01    0.5213866     0.325667  -0.50  0.001878037    2.087    0.521
        66 -11.8192     28.0391    112.5515   6.7023320546e+01   5.0713677011e+01    0.6520047    0.3541087  59.08  0.002145543    2.044    0.511
        67  -9.8488     79.0941    114.7533   4.8575274962e+01   4.3292946166e+01    0.2890124    0.2168491 -52.11 0.0006492293    1.314    0.239
        68  -9.1951     67.4978    114.5026   5.2539092597e+01   4.5240671719e+01    0.1562501    0.1422892  80.19  0.000809181    1.088    0.081
        69 -10.1237     48.8569    111.8853   5.8868420366e+01   4.8583692571e+01    0.2945439    0.2084072  36.11 0.0006250893    1.443    0.307
        70 -11.9641     79.5075    107.9133   4.6823394827e+01   4.4975031297e+01    0.5722742    0.3784541  30.48 0.0009463654    1.649    0.394
        71  -9.4600    175.3161    108.5090   2.1966978821e+01   2.5463794365e+01    0.2347068    0.1214832 -39.92 0.0001462213    1.757    0.431
        72 -10.1233    106.0088    107.9500   3.8320811545e+01   3.9974511610e+01    0.1912864    0.1826151 -65.38 0.0007666675    1.019    0.019
        73 -11.2559     50.4926    100.5358   5.5927606732e+01   5.1426425325e+01    0.7128546    0.3985556 -36.65  0.002700333    2.259    0.557
        74 -10.4051     91.8729    102.2241   4.1214740912e+01   4.4127955250e+01    0.4809988    0.3856979  -3.95  0.002230181    1.668    0.400
        75  -9.8867     86.0668    103.2955   4.3423355241e+01   4.4959659517e+01    0.2682745    0.1986588  35.92 0.0007887416    1.412    0.292
        76  -9.4342     57.3965    103.2204   5.3805622120e+01   4.9744994022e+01    0.2212539    0.1420986 -76.65 0.0008120221    1.706    0.414
        77 -11.7390     68.1331     95.4215   4.7787748099e+01   5.0109265929e+01    0.6421967    0.5153645   5.30  0.002390763    1.557    0.358
        78 -10.5746     16.9726    100.2414   6.9816982913e+01   5.5022672087e+01    0.2437688    0.1851045 -78.06 0.0005990304    1.182    0.154
        79 -11.6389      9.2481     96.9947   7.2709731153e+01   5.6432063403e+01    0.4736942    0.3937803  53.03 0.0003659745    1.245    0.197
        80 -12.4354    210.4933     98.1321   1.3802712386e+01   2.0404738714e+01    0.2465135    0.2152321 -36.74 0.0003243177    1.042    0.040
        81  -9.2337    132.9901    100.0000   2.8833410833e+01   3.6091418502e+01    0.2447525   0.08820208  47.72 0.0007931518    2.878    0.653
        82 -10.4754     30.6854     97.0129   6.3454031324e+01   5.4707058404e+01     0.407687    0.3570108  -6.29  0.002259875    1.308    0.236
        83 -11.6342     79.4470     93.1172   4.2979717582e+01   4.8705252227e+01    0.7956744    0.7324126 -62.60  0.003571962    1.053    0.051
        84 -10.4916     80.9858     84.1172   3.9790064255e+01   5.0597536697e+01    0.5159889    0.4079499   9.28  0.002414841    1.641    0.391
        85 -12.0157     75.3174     78.6886   4.0198570560e+01   5.2964547231e+01    0.5615671    0.4863271  78.38  0.000455356    1.283    0.221
        86 -11.5364     28.2756     84.6863   6.2157264920e+01   5.8269439367e+01     0.522163    0.4003569 -15.68 0.0007084677    1.527    0.345
        87 -10.6655     43.1065     91.7617   5.7043356621e+01   5.4727623343e+01    0.6483158    0.1833065 -61.01  0.001783139    3.042    0.671
        88 -11.6346     36.8683     90.2795   5.9434422216e+01   5.5866118023e+01    0.9362546    0.4945872  37.72  0.004044058    1.939    0.484
        89 -11.3194     23.1531     94.2263   6.6246331495e+01   5.6165850702e+01    0.5678098    0.3095475 -37.95  0.002386159    2.103    0.525
        90  -9.3633    125.7301     93.9779   2.8985095539e+01   3.8957473439e+01    0.2126694    0.1930162 -52.83 0.0002949942    1.063    0.059
        91 -10.0837     50.7826     91.2194   5.3655791890e+01   5.3857555572e+01    0.3178052    0.2602349 -37.72 0.0008817681    1.294    0.227
        92 -10.2713     51.3744     86.7697   5.2284432009e+01   5.4935824319e+01    0.4430772      0.26723  34.83 0.0009020179    1.709    0.415
        93 -11.2821     44.9547     84.0028   5.4373455263e+01   5.6535902755e+01    0.5100892     0.410715  89.27  0.002004739    1.355    0.262
        94 -10.3175     98.1215     90.7753   3.5983175062e+01   4.5604839969e+01    0.2561552    0.2389226  80.86 0.0005181454    1.093    0.085
        95 -11.6945      6.8709     88.4907   7.2740996771e+01   5.8873038246e+01    0.7528736    0.4035013  19.35   0.00356192    2.051    0.512
        96 -11.4959      2.3726     81.4006   7.3985247530e+01   6.1002580285e+01    0.4901088    0.2566341 -89.07  0.000147545    1.841    0.457
        97 -10.6490      1.8482     71.3442   7.2938081372e+01   6.3689202950e+01     0.470836    0.1902539 -68.52  0.002016027    2.019    0.505
        98 -10.0769     66.7231     88.4440   4.6445208169e+01   5.2116007294e+01    0.3258634    0.2373748 -17.46 0.0008636835    1.883    0.469
        99  -9.1119    199.0159     88.2667   1.3088583724e+01   2.4189670630e+01    0.1475392    0.1210266  60.74 0.0003958292    1.398    0.285
       100  -9.5698    104.2598     86.8142   3.2889053610e+01   4.5209915783e+01    0.2121673    0.1882028  -7.61 0.0007121424    1.342    0.255
       101 -10.0453    118.9752     85.9789   2.8420670186e+01   4.2155375926e+01    0.2488382    0.2329033 -67.78  0.001307323    1.041    0.039
       102 -10.1194     90.7816     85.5396   3.6808043029e+01   4.8322920348e+01    0.3782286    0.2813944  64.95   0.00172631    1.555    0.357
       103 -12.1158     60.9411     83.3493   4.7326244763e+01   5.4351930694e+01    0.2986286    0.2909574 -87.70 0.0004271178    1.032    0.031
       104 -10.0035     37.7388     85.3068   5.7935755366e+01   5.7089584584e+01    0.3206419    0.2014142   6.75  0.001411213    2.058    0.514
       105  -9.9218    143.2673     84.1704   2.1951833400e+01   3.6995390598e+01    0.2148596    0.1970988 -36.05 0.0005157171    1.113    0.101
       106 -10.4438    112.9418     83.1291   2.9213770751e+01   4.4109307739e+01    0.4953156    0.2811439  63.50  0.001882561    2.286    0.562
       107 -10.0983     67.5017     81.2933   4.4055510336e+01   5.3757617758e+01    0.3134628    0.2548587 -29.84  0.001546406    1.372    0.271
       108  -8.8324    162.3218     81.2321   1.7258174467e+01   3.3203980744e+01    0.1358468    0.1132439  23.56 0.0002855235    1.510    0.338
       109  -9.6414    103.0192     79.5136   3.0986376855e+01   4.7083134270e+01    0.2469297    0.2002142 -47.25 0.0005554053    1.211    0.174
       110 -10.9243     89.2708     77.0509   3.4629041454e+01   5.0568675599e+01    0.5035177    0.3189634  49.08  0.001537223    1.620    0.383
       111 -10.6073     94.2371     75.0499   3.2304412427e+01   4.9959687910e+01    0.5729448     0.365501 -65.79  0.002342945    2.005    0.501
       112 -10.8837     53.3408     76.1687   4.8469505121e+01   5.7343316841e+01    0.4438972    0.3744437 -80.38  0.001938197    1.275    0.215
       113  -9.3801    118.9753     78.2559   2.6034427070e+01   4.3756119382e+01    0.2070339    0.1973861 -74.88 0.0001889704    1.016    0.016
       114 -10.4285     58.0645     77.8349   4.6911652044e+01   5.6190383669e+01     0.259178    0.2099995 -55.17 0.0005073413    1.183    0.155
       115 -11.1004    246.9005     75.6318   4.5797124254e+00   1.7257532933e+01    0.3916413    0.1988493 -72.09   0.00171061    3.725    0.732
       116  -9.9034     46.8904     74.7333   5.0967442804e+01   5.8648376133e+01    0.3465948    0.1754224 -44.73 0.0009285325    2.007    0.502
       117 -10.8762     14.2265     74.1624   6.6963307532e+01   6.2245940874e+01    0.4099947    0.2538838 -79.02  0.001893733    1.549    0.354
       118  -9.8766    103.2299     74.6945   2.9351130844e+01   4.8064724831e+01    0.2758285    0.1949559  54.33   0.00125661    1.453    0.312
       119 -10.7119     19.0647     88.5026   6.7137421976e+01   5.8054343734e+01    0.6651204    0.3366946 -67.95  0.002948889    1.726    0.421
       120 -11.1003     27.6779     73.2572   5.9896818708e+01   6.1342351847e+01    0.4684509    0.3004516 -26.02  0.001157284    1.859    0.462
       121 -11.7709     40.3601     69.5802   5.2566710805e+01   6.0825022760e+01    0.5744892      0.56143  77.94  0.002590131    1.079    0.073
       122 -10.5528     35.2775     71.7325   5.5692583017e+01   6.0909350598e+01    0.4736291    0.2444225  43.27  0.001700222    2.131    0.531
       123 -12.3202     43.8361     60.7260   4.8000440195e+01   6.2511744847e+01    0.8993258    0.5151721  19.28  0.002220037    2.156    0.536
       124 -10.8111     40.2179     56.5726   4.8408559384e+01   6.4002661597e+01    0.3473328    0.2227893  32.89  0.000989427    1.615    0.381
       125  -9.5420    153.7546     72.1564   1.6273374070e+01   3.6773997897e+01    0.2738857    0.1083673  59.12  0.000974194    2.727    0.633
       126 -11.0930    122.7569     68.4535   2.1892352224e+01   4.4796721885e+01    0.4465488    0.2633139  46.96  0.001117101    1.778    0.438
       127  -9.8238    101.9996     66.3505   2.6875971932e+01   5.0056294656e+01    0.3154463    0.2000859 -38.95 0.0007941003    1.607    0.378
       128 -10.2344    105.0596     63.3333   2.4903153553e+01   4.9945562911e+01    0.2614227    0.2081861 -57.69 0.0005687748    1.293    0.227
       129  -9.8477     13.7243     67.4270   6.5904005520e+01   6.4044370195e+01    0.4565153    0.1413519  14.33  0.001574447    3.768    0.735
       130 -12.7048      7.2731     63.3443   6.8667539893e+01   6.5506035055e+01    0.8600109    0.2607117 -42.73 0.0004730699    3.289    0.696
       131 -12.6290      4.3312     61.2688   6.9959620256e+01   6.6194126324e+01    0.6720579     0.252286 -45.85 0.0002440339    2.411    0.585
       132 -11.5054     92.6318     62.5704   2.8466141200e+01   5.2928278453e+01    0.4948674    0.2983202  60.11 0.0008039679    1.891    0.471
       133 -10.6625     88.3635     53.4345   2.6405243805e+01   5.5670208917e+01    0.9409096    0.2480661 -39.48  0.002702853    3.938    0.746
       134 -10.2429    158.8153     62.8294   1.2589072065e+01   3.7160283572e+01    0.2975857     0.184843  47.45  0.000808664    1.828    0.453
       135  -9.9526     58.1924     62.2047   4.1676331530e+01   5.9895424000e+01    0.3297106    0.2938845  -7.45  0.001781105    1.223    0.182
       136  -9.8227     65.0343     60.8793   3.8190917762e+01   5.8967317049e+01    0.3550862    0.3164528 -72.14   0.00127259    1.212    0.175
       137  -9.9983    113.7666     60.8003   2.1592562353e+01   4.8369786289e+01    0.3058086    0.2030211 -49.88 0.0009798952    1.520    0.342
       138  -9.2504    201.9807     63.7488   6.6062841240e+00   2.7360702874e+01    0.1622251     0.114418  68.30 0.0008915252    1.593    0.372
       139  -9.1772    150.9579     60.5178   1.3288255625e+01   3.9413367420e+01    0.2010917    0.1430191  61.19 0.0003488145    1.446    0.308
       140 -11.9705     74.8532     53.1468   3.1167101158e+01   5.8656320042e+01    0.9591504    0.3405488 -49.78  0.003126227    3.176    0.685
       141 -11.2627     72.5457     46.3430   2.9221689407e+01   6.0460952796e+01     0.741119    0.4224711 -58.96  0.002979241    2.384    0.581
       142 -11.2919     25.5962     56.7537   5.6527832312e+01   6.5728081344e+01    0.5264311    0.3578667 -62.35  0.001406919    1.386    0.278
       143  -9.8147     21.0259     56.7469   5.9167810985e+01   6.6173975907e+01     0.322449    0.1933391 -85.67  0.001450692    2.123    0.529
       144 -10.2782    124.9445     56.7019   1.7397654410e+01   4.6392570073e+01    0.7933204    0.3604206  51.94  0.003055944    2.203    0.546
       145  -9.9183    122.9194     44.4817   1.3518361294e+01   4.8891164210e+01     0.293959    0.2120961  70.98 0.0007381878    1.404    0.288
       146 -10.6075     51.2006    249.3292   7.2586030392e+01   1.6044029976e+01    0.2368059   0.09758285  20.48  0.001098104    2.720    0.632
       147 -11.6515    117.0083     47.8873   1.6115324902e+01   4.9822507744e+01    0.6032138    0.4741164  14.02  0.001862995    1.712    0.416
       148  -9.2530    172.6819    247.3096   4.7781558874e+01   2.4027020785e+00    0.1005388   0.07922792  41.57 0.0004968193    1.639    0.390
       149 -10.3740    106.5180     58.0488   2.2581396494e+01   5.0603260684e+01    0.2814593    0.2100233  76.09 0.0005525958    1.543    0.352
       150  -9.9083    238.1604     55.8150   1.0611333946e+00   2.1401427081e+01    0.1862796    0.1300465 -51.94 0.0004001408    1.189    0.159
       151 -10.3764    156.9630     54.5097   1.0395735870e+01   3.8925918449e+01    0.4545892    0.2909054 -68.88  0.001674226    1.815    0.449
       152 -10.2471    155.1100     48.5961   8.8740811260e+00   4.0272428152e+01    0.3032419     0.202417 -24.52  0.000923074    1.688    0.407
       153 -10.3840     80.2034     70.6166   3.5682730723e+01   5.3863744672e+01    0.6476199     0.476115 -75.98  0.002929073    1.742    0.426
       154  -9.2496     67.4420     55.0888   3.4935048957e+01   5.9753491832e+01    0.2190074    0.1422889 -45.15 0.0008852948    1.522    0.343
       155 -10.4274     60.5665     51.7635   3.6567869014e+01   6.1757859860e+01     0.517776    0.2884136 -57.24  0.002158774    2.096    0.523
       156 -10.3086     61.3308     46.5440   3.4016381416e+01   6.2680191451e+01    0.4712931    0.3143791  25.82  0.002182388    1.781    0.438
       157 -10.5866     31.9028     52.6229   5.1561088150e+01   6.6014446054e+01    0.4499219    0.2497886  11.17  0.001923441    2.359    0.576
       158 -10.1357    126.7957     50.2339   1.4730042026e+01   4.7015514659e+01    0.3968929    0.2052041 -25.89  0.001536809    2.379    0.580
       159 -10.6801    243.7195     51.0006   3.5955275358e+02   2.1018740050e+01    0.1976184    0.1512352 -66.95 0.0003447979    1.284    0.221
       160 -10.4022     13.2036     46.3392   6.0938459357e+01   6.9375805293e+01    0.4751959    0.1500374 -44.47  0.001749792    2.944    0.660
       161 -10.3477    145.4863     49.1586   1.0682685038e+01   4.2548815496e+01    0.4675432    0.2824655  -8.96  0.001815387    2.851    0.649
       162  -9.5946     97.6672     49.9166   2.2065275657e+01   5.4168699015e+01     0.204019    0.1872262 -51.76 0.0003898278    1.092    0.084
       163  -9.6349    188.7606     49.1147   4.3743211830e+00   3.2309256319e+01    0.2458423    0.1616275 -68.89 0.0008635393    1.587    0.370
       164  -8.6435    137.3202     49.3222   1.2253695572e+01   4.4545795059e+01    0.1466071    0.1152734  25.05 0.0006090372    1.672    0.402
       165 -10.3234     83.1679     46.7291   2.5449638048e+01   5.8079881338e+01    0.3892466     0.261057 -13.10  0.001657766    2.194    0.544
       166  -9.6931     27.2647     47.4504   5.2424224169e+01   6.7771414631e+01    0.2437509    0.1367875  16.61  0.001109292    2.042    0.510
       167 -12.8899     41.3800     44.6017   4.3098050688e+01   6.6529179169e+01      0.81281    0.3793996  37.72 0.0005582813    2.182    0.542
       168 -10.0779     22.9571     37.0043   5.1064186608e+01   7.0623556394e+01    0.4612263    0.1898995  38.49  0.001520189    2.656    0.623
       169 -10.7429     20.2816     45.9978   5.6250533161e+01   6.8845659879e+01    0.3719475    0.2338333 -41.19  0.001444446    1.498    0.332
       170 -11.2357     26.3916     42.5891   5.1112820191e+01   6.8985964598e+01    0.4694779    0.3030826  43.29 0.0009075786    1.770    0.435
       171  -9.2134      2.2474     48.5951   6.8708845956e+01   6.9492710145e+01      0.17109    0.1179574 -14.90 0.0007117351    1.547    0.354
       172  -9.6446    138.8318     44.0566   1.0191034880e+01   4.4969257003e+01    0.2864151    0.1746295  39.07  0.001233412    2.128    0.530
       173  -9.9124    155.9375     42.3507   6.7914574247e+00   4.0973829196e+01    0.2630966    0.2052921 -27.02 0.0009390722    1.381    0.276
       174 -10.3295     56.6337     41.7296   3.4017641430e+01   6.4518361682e+01     0.288869     0.229954  59.28 0.0008525366    1.446    0.308
       175 -10.3024     18.0557     40.5490   5.5769360112e+01   7.0328096718e+01    0.2846476    0.1727981 -50.36 0.0008802035    1.465    0.317
       176 -10.0650    234.4803     41.5008   3.5816033408e+02   2.3888470706e+01    0.1239237   0.09458826 -48.87 -1.156982e-05    1.007    0.006
       177  -9.3150     91.0027     41.2172   2.0538258083e+01   5.7230693437e+01    0.2000966    0.1870591  65.95 0.0003871699    1.051    0.049
       178  -9.8818     29.7430     60.0384   5.5207799266e+01   6.4476574899e+01    0.3063934    0.1693765 -65.76  0.001163007    1.803    0.445
       179 -10.4417     79.7356     38.2556   2.2958123290e+01   6.0328943450e+01    0.4395803    0.3213336  86.98  0.001934421    1.881    0.468
       180 -10.9313     78.4028     34.0498   2.1492260830e+01   6.1317547073e+01    0.6131844    0.4248996  24.14  0.002875223    1.840    0.456
       181 -10.2561     11.3093     30.2412   5.6616824678e+01   7.3258180481e+01    0.4149212     0.269448 -25.15  0.002246917    1.565    0.361
       182  -9.7242      3.9578     39.2959   6.5222262796e+01   7.1670322891e+01    0.2601123    0.1500698  37.80   0.00132366    1.995    0.499
       183 -10.8850      3.7760     35.5494   6.4256203728e+01   7.2566607333e+01    0.4037786    0.3193348 -37.52  0.001833575    1.133    0.117
       184  -9.5600    249.8246     38.8460   3.5650569104e+02   2.1423166839e+01    0.1701526    0.1019992 -52.89 0.0004242936    1.335    0.251
       185  -9.9647     60.7200     36.9851   2.9909448403e+01   6.4616037512e+01    0.2883246    0.1987636 -43.80 0.0006359008    1.477    0.323
       186  -9.6117     62.3202     33.3330   2.7418009884e+01   6.4933422851e+01    0.2738494    0.1885723  43.72 0.0009014804    1.422    0.297
       187 -10.7531    153.3905     35.7735   5.0815769973e+00   4.2502133715e+01    0.2782102     0.225429 -62.38 0.0005697141    1.143    0.125
       188  -9.7396      6.4038     30.7923   6.0645922041e+01   7.3503880418e+01    0.2553834    0.1338943 -25.60 0.0007703229    2.067    0.516
       189 -11.1371    125.7019    240.5100   5.6138876567e+01   8.9483720470e+00    0.2459562     0.174029  41.51  0.001591158    1.354    0.262
       190 -11.0510    173.9273     32.5149   1.4489467610e+00   3.7937147573e+01    0.7203641    0.3318684 -63.93 0.0009929502    2.612    0.617
       191 -10.1350    177.3961     28.5176   3.5991589370e+02   3.7611700450e+01     0.233385    0.2298576 -53.34 0.0007141616    1.219    0.180
       192 -11.1447     68.1862    240.1640   6.8358979698e+01   1.5845176895e+01    0.2872387    0.1819638   6.16  0.001592538    2.122    0.529
       193 -10.6112     72.8689    237.8361   6.7160890315e+01   1.5736554670e+01    0.2549568    0.1412092  27.37  0.001427881    1.566    0.361
       194 -10.2856    131.9303    240.4859   5.4860210848e+01   8.1926643798e+00    0.1850639   0.09636089  28.44 0.0006521714    1.574    0.365
       195 -11.6042    115.0891     24.5193   7.5164270510e+00   5.3653384188e+01    0.4416847    0.2496117  56.36  0.001341935    1.684    0.406
       196  -9.2777     70.5250     33.5235   2.4145736196e+01   6.3160503934e+01    0.1418462    0.1342453  22.74 0.0008092204    1.048    0.046
       197  -9.6447     67.2437     32.1764   2.4784731365e+01   6.4091623832e+01    0.3054078    0.2087937  24.03  0.001441028    1.814    0.449
       198 -10.2495    240.2825     32.1010   3.5566748681e+02   2.3932977408e+01    0.2604565    0.1259817  52.61  0.001344843    2.940    0.660
       199  -9.3921    216.8832     32.1251   3.5732053264e+02   2.8478182566e+01    0.1516135    0.1406699 -34.22 0.0003104876    1.273    0.214
       200 -10.8979    147.5137    238.0276   5.1430522325e+01   6.6713942836e+00    0.3328296    0.2501089  42.33  0.002229198    1.459    0.315
       201 -11.5445     49.4008     29.8413   3.1715969443e+01   6.8073233090e+01    0.6502504    0.3605594  33.63  0.002501102    1.940    0.485
       202  -9.3403     36.1967     30.8276   3.9627043276e+01   7.0142786754e+01    0.1824799    0.1468277 -16.36 0.0004303849    1.277    0.217
       203 -11.7122     26.5878     27.8292   4.4285312561e+01   7.2113719980e+01    0.4992009     0.335605 -61.34   0.00216358    1.769    0.435
       204  -9.2801     15.5872    233.2757   7.9421263331e+01   2.2527923897e+01    0.1435887    0.1002272 -74.26 0.0009518964    1.649    0.394
       205 -10.0185     13.8828     22.6365   5.1096356879e+01   7.4652553556e+01    0.2157419     0.200982  33.86 0.0003952751    1.254    0.202
       206  -8.9732     22.3010     31.2767   4.8968318577e+01   7.1936310841e+01    0.1337672   0.09267123 -21.68 0.0002571408    1.539    0.350
       207  -9.5873    135.5610     30.4985   6.0652076194e+00   4.7673194997e+01    0.2538633    0.1694447  60.74 0.0006479326    1.468    0.319
       208 -12.0564    127.1051     28.3787   6.7499949222e+00   5.0099207403e+01    0.7259524    0.3920916  79.15  0.002042067    2.037    0.509
       209 -10.6422    188.9664     27.1789   3.5840748410e+02   3.5096844105e+01    0.3666048    0.2848653  39.28  0.001581523    1.733    0.423
       210 -11.2168    183.0729     25.5698   3.5851572664e+02   3.6638793969e+01    0.4475884    0.2685719 -58.41  0.002008765    1.518    0.341
       211 -10.6574    229.7956     27.1242   3.5523223696e+02   2.6493977846e+01     0.236825    0.1762795  63.95 0.0009144301    1.654    0.395
       212 -10.7545    155.1181     23.4087   8.8086756909e-01   4.3616672677e+01     0.458114    0.2853591 -55.48  0.001935017    1.521    0.342
       213 -11.4042    148.0388     22.4476   1.4587531516e+00   4.5498155637e+01    0.5060874    0.1757531  61.54  0.001941632    2.641    0.621
       214 -11.3134    149.4782     27.0970   2.8093405313e+00   4.4584072983e+01    0.6465631    0.2695425  76.42  0.002503477    2.597    0.615
       215 -10.6524    142.9737     25.2968   3.1125253708e+00   4.6440093331e+01    0.3081537    0.1946009  67.38 0.0009557604    1.523    0.343
       216  -9.4574     97.7665     25.9991   1.2014864589e+01   5.7843290381e+01    0.1945981    0.1904242  86.25 0.0005734307    1.037    0.036
       217 -10.1776     45.7078     24.6270   3.0799572606e+01   6.9654790801e+01    0.2685534    0.1727264 -33.20  0.000436813    1.583    0.368
       218 -10.5825      9.6499    218.1717   8.0213019698e+01   2.6090256224e+01    0.1576928   0.09705649 -73.61 0.0007750162    1.775    0.436
       219 -10.6804      8.8312    211.2947   8.0165261037e+01   2.7608544092e+01     0.208135    0.1129513  46.04  0.001028992    1.425    0.298
       220  -9.3047    171.5303    208.5186   4.2578342839e+01   8.1916141136e+00    0.1236892    0.1021693   3.50  0.000809409    1.032    0.031
       221 -10.4357    169.4913     23.0008   3.5912931628e+02   4.0146684711e+01    0.2495566    0.1844324  79.72 0.0006562937    1.321    0.243
       222  -8.8416     86.2358     23.3893   1.3932336862e+01   6.1019189765e+01    0.1405457    0.1056462  16.06 0.0006442773    1.645    0.392
       223 -11.9051      5.9172    198.9740   8.0425973476e+01   3.0544368021e+01    0.4378878    0.1756785 -75.85  0.002090696    2.441    0.590
       224 -10.0413      1.5858    199.2588   8.1486081026e+01   3.0825659254e+01    0.1620801    0.1020944 -75.63 0.0009504741    1.643    0.391
       225 -10.2180     16.0217    190.5304   7.7540399046e+01   3.1616591147e+01    0.2620451    0.1443699  71.18 0.0009160576    1.657    0.397
       226 -12.4605      6.2045    186.1854   7.9873262351e+01   3.3449103269e+01     0.595241     0.351889 -59.20  0.003231374    1.944    0.486
       227 -10.4912      4.8491     22.4951   5.8626352918e+01   7.5452856646e+01    0.4075475    0.2075517  25.07  0.002077846    2.035    0.509
       228 -12.3100      2.6594    183.8501   8.0700624947e+01   3.4271644870e+01    0.7078854    0.2976879 -66.41   0.00331584    2.444    0.591
       229  -9.6361     28.1626    175.8503   7.3404775840e+01   3.4002873448e+01      0.17638    0.1539126 -58.90 0.0007373494    1.317    0.241
       230 -10.7188     16.0548    173.8397   7.6639068897e+01   3.5601036763e+01    0.3316481     0.160475  81.03  0.001530514    2.014    0.503
       231 -10.7819    178.2782     20.9552   3.5766428179e+02   3.8290135084e+01    0.3793325     0.245455  42.52  0.001935028    2.092    0.522
       232 -10.7464     68.3386     20.3052   1.8216347502e+01   6.5629078458e+01    0.3860885    0.2945957 -36.66  0.001453707    1.371    0.270
       233 -10.8180    246.5723     20.2963   3.5275236195e+02   2.4113384157e+01    0.1722345    0.1378032  51.62  0.001216004    1.786    0.440
       234 -10.1005    216.7813     19.9177   3.5439432950e+02   2.9908685184e+01    0.1719139    0.1484092 -46.99 0.0004102563    1.164    0.141
       235  -9.3372    170.6694    171.6989   3.6513288083e+01   1.4558399492e+01    0.1369548   0.09669258  -4.26 0.0005319968    1.648    0.393
       236  -9.6653     46.4537     19.9577   2.7686256403e+01   7.0272239299e+01    0.2134167    0.1706827  39.20  0.001222381    1.206    0.171
       237  -9.7338     74.8914     19.0873   1.5284712522e+01   6.4280700543e+01    0.2212933    0.1565505  25.37 0.0007393323    1.654    0.396
       238 -12.1734     17.1643    149.6707   7.4720799623e+01   4.1646221672e+01    0.8356518    0.3237948  83.56  0.003108808    2.860    0.650
       239 -12.3527      9.3017    166.8883   7.8153838021e+01   3.7872918090e+01    0.6796808    0.3883559  19.89  0.003482668    1.903    0.474
       240 -12.8239     12.7162    160.6015   7.6812247630e+01   3.9186558622e+01     1.049203    0.5847549 -18.25  0.004591923    2.948    0.661
       241 -11.0267     21.4425    150.4853   7.3441546080e+01   4.1068612706e+01    0.2557175    0.2192136  85.52  0.000611078    1.055    0.052
       242  -9.7529    211.1452     15.9108   3.5378706259e+02   3.1518932913e+01    0.1877405    0.1279081 -54.29  0.000252012    1.169    0.145
       243  -9.7891    147.5476     15.9635   3.5935185548e+02   4.6343096073e+01    0.3108995      0.13142  55.08  0.001279828    2.443    0.591
       244 -10.5410    186.5946     14.8078   3.5523495597e+02   3.7035030180e+01    0.2227964     0.168296  88.43 0.0008316655    1.275    0.215
       245 -11.5345     23.9986    147.9779   7.2420672178e+01   4.1499871762e+01    0.3521825    0.2796479  83.13 0.0008873353    1.132    0.116
       246 -10.1603    219.1084     13.1550   3.5264394486e+02   3.0165246174e+01    0.1688957    0.1605065 -49.20  0.001232547    1.297    0.229
       247 -11.0008     18.2304    165.0894   7.5482322718e+01   3.7591714543e+01    0.3632087    0.2033526 -61.88  0.001794549    1.836    0.455
       248  -9.8428    156.8293    165.6100   3.8265673647e+01   1.7915796814e+01    0.1874825    0.1247134  46.30 0.0008066999    1.647    0.393
       249 -10.5885    205.1580    163.0935   2.8445045891e+01   1.0745656737e+01    0.2204017    0.1779037 -20.40 0.0007314428    1.056    0.053
       250 -10.9515     28.1189    160.9163   7.2257169892e+01   3.7751325137e+01    0.3941184     0.199586 -86.86  0.001765841    1.958    0.489
       251  -8.8914    169.3148    159.6749   3.4489100821e+01   1.6973936710e+01    0.1288703    0.1104399 -87.84 0.0004890239    1.667    0.400
       252  -9.2320     32.2870    157.6442   7.0712325822e+01   3.8183452298e+01     0.152401   0.08908136  62.72 0.0004274603    1.674    0.403
       253 -11.0046      9.4317    155.0300   7.7460311253e+01   4.0865399124e+01    0.3227076    0.2187118  74.76  0.001338677    1.299    0.230
       254  -9.6356    104.7131    154.4392   4.8878452716e+01   2.9086773152e+01     0.249355    0.1956719 -71.38  0.001256231    1.394    0.283
       255  -9.6956    215.0010    161.5080   2.6504023474e+01   9.5605384237e+00    0.1634216    0.1183856  32.29 0.0003781242    1.506    0.336
       256 -11.1870     46.8477    147.8907   6.5113989480e+01   3.9145572884e+01    0.7473261    0.3816391 -55.89   0.00322192    1.969    0.492
       257 -11.3031      4.2245    153.1169   7.8928790205e+01   4.1732151469e+01    0.3360659    0.1948436  31.85  0.001360557    1.675    0.403
       258  -9.5900     55.5709    152.2901   6.2944080263e+01   3.6930476190e+01    0.1968828    0.1289505 -58.78 0.0005065911    1.537    0.349
       259 -10.4064    103.9689    147.4713   4.7782165710e+01   3.0862055113e+01    0.3300782    0.2270318 -43.77            0    1.539    0.350
       260 -12.3393      3.7990    142.3763   7.8479791846e+01   4.4547758890e+01    0.8860798    0.4551689  47.53  0.002864809    1.777    0.437
       261 -12.0640     12.3963    135.6067   7.5195835958e+01   4.5743573808e+01    0.7214735    0.4859606 -79.41  0.003813388    1.332    0.249
       262 -10.6697     32.9764    143.9782   6.9133115612e+01   4.1700648668e+01     0.318008    0.2614218  84.42 0.0008393077    1.112    0.101
       263 -10.6827     40.8910    138.4752   6.5867656933e+01   4.2331268029e+01    0.4364772    0.3338202 -82.09  0.001473085    1.235    0.190
       264  -9.5911     26.4431    131.4631   6.9977067629e+01   4.5696507952e+01    0.2517951    0.1937848 -89.80 0.0005060429    1.191    0.160
       265 -10.9941     30.4511    132.6369   6.8714663593e+01   4.4998208409e+01    0.4386626    0.2673804 -48.56   0.00194069    1.780    0.438
       266 -10.0083     20.6762    134.0055   7.2236478358e+01   4.5518184651e+01    0.3006892    0.2729715 -25.29  0.001148913    1.314    0.239
       267  -8.8950     79.6910    138.3259   5.3211791293e+01   3.7122666564e+01    0.1590884    0.1121389  69.41 0.0007038353    1.655    0.396
       268  -9.1131    103.9598    130.5578   4.4325048533e+01   3.4935132546e+01    0.2162243     0.149823  37.11 0.0003544471    1.463    0.316
       269 -11.1638     10.7263    125.9263   7.4992789763e+01   4.8466460855e+01    0.7394773    0.2992302 -55.58  0.003008752    2.410    0.585
       270  -9.7021     26.6115    127.2237   6.9438334970e+01   4.6832573054e+01     0.278592    0.1568574 -69.67 0.0002568121    1.612    0.379
       271  -9.8826     27.3113    123.7198   6.8768098371e+01   4.7723238298e+01    0.1791674    0.1384224   9.74 0.0002477039    1.526    0.345
       272  -9.9747     22.8142    125.8579   7.0647898802e+01   4.7543559092e+01    0.3913164    0.1952724  85.31  0.001497417    2.137    0.532
       273  -9.5042     19.1599    122.8115   7.1647446097e+01   4.8679353182e+01    0.2006088    0.1487121 -58.01  0.001056553    1.336    0.252
       274 -11.6496     24.1879    136.2773   7.1259792696e+01   4.4600911531e+01    0.5905796    0.4090407 -16.27  0.002910618    1.946    0.486
       275  -9.8118      2.1287    125.4855   7.8011068525e+01   4.9130874441e+01    0.2963178    0.1447979  75.07  0.001313581    1.960    0.490
       276  -9.1298     97.9813    124.4758   4.4744442609e+01   3.7509051304e+01    0.2253273    0.1506931  40.36 0.0005029101    1.501    0.334
       277 -10.6243    104.9029    122.3615   4.2201446666e+01   3.6742245856e+01    0.3598355    0.3136371  70.06  0.001009463    1.222    0.182
       278  -9.8611     49.0361    122.6487   6.0712669764e+01   4.5643605573e+01    0.3298853    0.2301424  -6.05  0.001483877    1.997    0.499
       279 -10.6659     43.8013    116.7341   6.1640682250e+01   4.7889870008e+01    0.4315742    0.2464145 -78.50 0.0006888983    1.800    0.444
       280 -10.3834     58.5894    115.2533   5.5898076977e+01   4.6362450064e+01    0.3005719     0.240997 -69.75 0.0002248924    1.196    0.164
