#   1 NUMBER                 Running object number                                     
#   2 MAG_AUTO               Kron-like elliptical aperture magnitude                    [mag]
#   3 X_IMAGE                Object position along x                                    [pixel]
#   4 Y_IMAGE                Object position along y                                    [pixel]
#   5 X_WORLD                Barycenter position along world x axis                     [deg]
#   6 Y_WORLD                Barycenter position along world y axis                     [deg]
#   7 A_WORLD                Profile RMS along major axis (world units)                 [deg]
#   8 B_WORLD                Profile RMS along minor axis (world units)                 [deg]
#   9 THETA_WORLD            Position angle (CCW/world-x)                               [deg]
#  10 FWHM_WORLD             FWHM assuming a gaussian core                              [deg]
#  11 ELONGATION             A_IMAGE/B_IMAGE                                           
#  12 ELLIPTICITY            1 - B_IMAGE/A_IMAGE                                       
         1 -14.8501    175.5997     53.2210   4.9566274702e+01   3.4491057995e+01     1.185797     1.004734  32.47  0.004129764    1.400    0.286
         2 -15.4469    195.6971     25.4271   3.9420184386e+01   3.3320637812e+01      1.21779     0.966459  65.19  0.004150541    1.258    0.205
         3 -13.8504    189.7901     15.1399   3.7493609849e+01   3.5881399029e+01    0.4870391    0.3490391 -88.44  0.001742896    1.267    0.211
         4 -11.6840     60.2657     21.0188   6.7388578323e+01   6.4643009774e+01    0.2159001     0.162999  30.56 0.0004950819    1.194    0.162
         5 -10.2462    102.8543    249.9699   1.0767729079e+02   8.5784464689e+00    0.1202372   0.08599665 -65.25 0.0003073214    1.630    0.386
         6 -17.6022     68.6413    141.7583   1.0097931364e+02   3.8099043253e+01      4.78436     2.980628 -58.60   0.02252523    1.472    0.321
         7 -18.0120     63.6543    209.9875   1.1175067331e+02   2.2228861289e+01     7.278011       6.4424 -28.04   0.04399936    1.558    0.358
         8 -13.7530    160.0484    222.4315   9.2042224055e+01   4.6038816997e+00    0.6797003    0.4859004 -47.97  0.001307422    1.583    0.368
         9 -12.3479    170.4415    225.7228   9.0385465237e+01   2.3261118430e+00    0.2447709     0.171902 -47.57   0.00109081    1.643    0.391
        10 -12.4606    165.7373    225.0068   9.1252418476e+01   3.2139673881e+00    0.3175796    0.2416934  -4.87  0.001209173    1.502    0.334
        11 -11.0355    175.3018    227.3341   8.9640496295e+01   1.2701263314e+00    0.1340645   0.09462801   0.05 0.0003604188    1.658    0.397
        12 -12.7665    150.9142    219.4313   9.3524973769e+01   6.6703140687e+00    0.4405312    0.2516621 -34.91  0.002064178    2.153    0.536
        13 -12.8226    153.8775    211.1390   9.1538388145e+01   7.7435489616e+00    0.4691178     0.317594 -48.31  0.001557686    1.620    0.383
        14 -11.5123    144.0442    220.9952   9.5256708352e+01   7.5183229598e+00    0.2063845    0.1874006  30.83  0.001264531    1.025    0.024
        15 -11.0797    137.1352    223.1035   9.7074037079e+01   8.2571762667e+00    0.1964854    0.1750419   8.55  0.001190803    1.208    0.172
        16 -12.0070    168.0905    237.9518   9.2771665680e+01   6.4520793978e-01    0.2845161    0.1805944 -36.54 0.0004073898    1.784    0.439
        17 -12.1806    188.2531    214.8880   8.4891154787e+01   1.2925659709e+00    0.2557136    0.1754695 -17.59  0.001172797    1.621    0.383
        18 -11.0254    135.3363    236.9454   9.9411145261e+01   5.9814623361e+00    0.2129103    0.1886048  37.66 0.0006063298    1.034    0.033
        19 -12.2838    187.7671    206.0832   8.3422221387e+01   2.9056985048e+00    0.4073264    0.1695571 -45.05  0.001673104    2.567    0.610
        20 -10.7427     15.4692    204.1507   1.2168845311e+02   2.9070439401e+01    0.2968039     0.117378 -56.45  0.001374495    2.877    0.652
        21 -11.2222    182.4899    203.4663   8.4043790186e+01   4.2698027324e+00    0.2670465    0.1338217 -42.83 0.0009794782    2.076    0.518
        22 -11.0323    134.7980    232.2101   9.8876942518e+01   6.9283586807e+00    0.3401737    0.2351214 -17.03  0.001729933    2.168    0.539
        23 -11.8323    170.1559    197.8192   8.5643929415e+01   7.4759602564e+00    0.3198372    0.2631041 -85.31  0.001675209    1.754    0.430
        24  -9.9543     23.2044    192.2972   1.1915062334e+02   3.0993773002e+01    0.1120603   0.08056399 -63.05 0.0004406685    1.441    0.306
        25 -11.5555     22.7116    182.7044   1.1846513585e+02   3.3280798954e+01    0.1798461    0.1402529 -35.57 0.0006500015    1.770    0.435
        26 -12.4644    154.2863    178.4056   8.5519393205e+01   1.4336561352e+01    0.4770875    0.3448291 -84.06  0.001668483    2.172    0.540
        27 -13.2365    156.4363    175.1582   8.4374846166e+01   1.4622085118e+01    0.7106846    0.3455858 -61.16  0.002420755    3.231    0.690
        28 -11.1223      3.9457    178.8111   1.2245500605e+02   3.5850178313e+01    0.1864482    0.1196807  72.24 0.0008768531    1.349    0.259
        29 -11.8105    128.4303    228.3336   9.9703366658e+01   8.6730661057e+00    0.8308787    0.2374008  33.30  0.002715402    3.765    0.734
        30 -10.6468     10.2547    174.9555   1.2072545086e+02   3.6236657792e+01    0.1511267    0.1169994 -57.67 0.0005899942    1.417    0.294
        31 -14.0314    231.3885    167.0867   6.7304705269e+01   2.3872852671e+00    0.9753084    0.9389986  46.99  0.006208968    1.314    0.239
        32 -14.0095    245.7054    160.2134   6.3458416498e+01   1.1927665476e+00     1.182956    0.2827707 -42.25  0.003844095    3.861    0.741
        33 -11.1688     20.9825    167.5261   1.1750480341e+02   3.7077083561e+01    0.2125651    0.1393679 -46.25  0.001157942    1.799    0.444
        34 -11.9029     25.3986    165.5706   1.1620861146e+02   3.7142311468e+01    0.2899912    0.2043497  -2.35  0.001211796    2.160    0.537
        35  -7.5664    120.2180    231.8612   1.0193773647e+02   9.3055818941e+00    0.6972783     0.226175 -43.87   0.00237511    4.660    0.785
        36 -11.2206     24.4309    156.5967   1.1551166789e+02   3.9438710871e+01    0.4916613    0.2963024  61.90    0.0019504    1.726    0.421
        37 -10.5245    117.5998    229.4792   1.0218908880e+02   1.0174305959e+01     0.207009    0.1632533   8.92 7.725019e-06    1.604    0.376
        38 -13.1723    112.8125    228.0384   1.0303527388e+02   1.1206038720e+01    0.5197279    0.3484897 -38.18  0.002602339    1.956    0.489
        39 -11.5453    110.2831    222.9949   1.0293364388e+02   1.2606742707e+01    0.2613324    0.2130345 -71.86 0.0003867885    1.353    0.261
        40 -10.1654     76.4059    244.8308   1.1247465419e+02   1.3286087669e+01    0.1609741     0.115425 -72.00  0.001005895    1.518    0.341
        41  -9.0638     19.9482    141.5504   1.1502002418e+02   4.3562813238e+01    0.1469602    0.1266215  43.22  0.000332228    1.320    0.242
        42 -11.7764    160.6259    128.1140   7.2833997883e+01   2.4024277520e+01    0.4017543    0.2748646 -56.09  0.001746881    1.594    0.372
        43 -10.1364      1.9312    126.9662   1.1849868063e+02   4.8429816491e+01     0.142599    0.1156494 -74.98 0.0004571221    1.026    0.026
        44 -10.8608    143.7613    118.5837   7.4507133966e+01   2.9818668936e+01    0.2202742    0.1523255  56.63 0.0009417275    1.599    0.374
        45 -10.2439    183.4896    116.4928   6.4923962370e+01   2.1377444573e+01    0.1530511    0.1460843 -31.04 0.0001432111    1.038    0.037
        46 -10.8156    167.4541    112.3124   6.7270583932e+01   2.5836542953e+01    0.3382418    0.2413979 -74.65  0.001123728    1.945    0.486
        47 -10.1413      3.1074    112.2689   1.1643664058e+02   5.1930957007e+01    0.1593625    0.1410156 -58.94 0.0005763315    1.143    0.125
        48 -11.2484    205.4006    110.3208   5.9229549467e+01   1.7756493075e+01     0.280419    0.2630315  44.62 0.0006986688    1.160    0.138
        49 -10.8423     10.7783    110.8020   1.1379339345e+02   5.1830110529e+01    0.2256335    0.1591538 -12.01  0.001157116    1.782    0.439
        50 -10.6263     25.3733    108.6760   1.0864754031e+02   5.1286704979e+01    0.2407346    0.1780389 -35.69 9.517923e-05    1.400    0.286
        51 -10.7293     24.2055    105.0291   1.0840600001e+02   5.2273813443e+01    0.2066422    0.1903954 -27.24 0.0007127547    1.194    0.163
        52  99.0000    105.4387    229.3100   1.0478435375e+02   1.2097118151e+01    0.5920926    0.3922786  72.66  0.003109161    1.828    0.453
        53 -11.5944     99.0011    227.9793   1.0600954774e+02   1.3342153574e+01    0.3745764     0.268555  73.18  0.001809453    1.518    0.341
        54 -11.8482      2.9682     95.6712   1.1419300279e+02   5.5912973862e+01    0.2586662    0.1843791 -27.63 0.0008775198    1.530    0.347
        55 -10.3036     13.8933     92.6789   1.0982646238e+02   5.5990740669e+01    0.1622524    0.1468098 -52.57  0.000314988    1.111    0.100
        56  -9.8318     19.6742     91.2966   1.0746156539e+02   5.5920125250e+01    0.1233021   0.09466562  71.29 0.0004736766    1.628    0.386
        57 -10.9182    149.8629     85.5919   6.3953280260e+01   3.5265777150e+01    0.3105899    0.2434181   0.50  0.001410384    1.682    0.405
        58 -11.3072     91.6122    232.8528   1.0814320831e+02   1.3467737915e+01    0.2625565    0.2102644  -4.21  0.001039801    1.878    0.467
        59 -10.8456    182.0358     82.5042   5.6411300381e+01   2.8156938182e+01    0.2254478    0.1465624  56.64 0.0009336948    1.568    0.362
        60 -12.7148      3.2383     79.0832   1.1133376951e+02   5.9757662500e+01    0.3877912     0.152857 -52.73  0.001902545    1.853    0.460
        61 -11.5924    101.4942    242.8173   1.0718097137e+02   1.0091628810e+01    0.2703091    0.1920113  19.80  0.001531705    1.748    0.428
        62 -14.2361    162.2433     66.3629   5.5719953577e+01   3.5706027106e+01     1.093994    0.7675349  37.41  0.001075714    1.642    0.391
        63 -13.3650    187.2947    243.5851   8.9789614264e+01  -3.1667300043e+00    0.4652215    0.3179179 -20.22  0.002752221    1.611    0.379
        64 -13.2036    181.5010     45.9592   4.6641977233e+01   3.4093427126e+01    0.4488674    0.3844515 -73.10 0.0008362709    1.117    0.105
        65 -13.2857     14.4031     59.0793   1.0221857981e+02   6.3524361838e+01    0.4185642    0.2674073 -28.47   0.00152984    1.442    0.306
        66 -18.9749     44.6127     91.4865   9.8309366663e+01   5.3589229870e+01     16.59603    0.7555675 -58.67   0.02302399   19.047    0.947
        67 -11.7705    148.1572    227.5133   9.5356925787e+01   5.6326434951e+00    0.2984647    0.2565376 -81.78  0.001180905    1.489    0.328
        68 -12.1146     84.8252    240.2044   1.1032758655e+02   1.3003810918e+01    0.3407429    0.2052633 -58.72  0.001915775    1.887    0.470
        69 -10.0916     79.4330    245.6399   1.1194475476e+02   1.2715802190e+01    0.1509775    0.1257758  27.58 8.626271e-05    1.411    0.291
