#   1 NUMBER                 Running object number                                     
#   2 MAG_AUTO               Kron-like elliptical aperture magnitude                    [mag]
#   3 X_IMAGE                Object position along x                                    [pixel]
#   4 Y_IMAGE                Object position along y                                    [pixel]
#   5 X_WORLD                Barycenter position along world x axis                     [deg]
#   6 Y_WORLD                Barycenter position along world y axis                     [deg]
#   7 A_WORLD                Profile RMS along major axis (world units)                 [deg]
#   8 B_WORLD                Profile RMS along minor axis (world units)                 [deg]
#   9 THETA_WORLD            Position angle (CCW/world-x)                               [deg]
#  10 FWHM_WORLD             FWHM assuming a gaussian core                              [deg]
#  11 ELONGATION             A_IMAGE/B_IMAGE                                           
#  12 ELLIPTICITY            1 - B_IMAGE/A_IMAGE                                       
         1 -11.9247    175.6216     63.1584   8.7379910868e+01   3.3373700593e+01     2.046232     1.163942 -63.90  0.006783323    3.293    0.696
         2 -11.9230    178.6556     42.4255   8.0338379037e+01   3.5468691616e+01     0.697365    0.3896327  -3.09  0.001715608    2.406    0.584
         3 -11.7551    221.7613     38.8366   7.3612360657e+01   2.5691424802e+01     1.740221    0.5846484 -46.59  0.006014315    3.501    0.714
         4 -11.9705    215.5627     26.0964   7.0709119593e+01   2.8444761639e+01      1.26107    0.8425905 -59.08  0.006542046    1.648    0.393
         5 -11.0572    215.3804      5.0198   6.4790387888e+01   3.0448113523e+01    0.7051846    0.3006872 -49.25  0.003037272    2.356    0.575
         6 -13.3212    223.4279     15.6075   6.7073650848e+01   2.7664392278e+01     3.103761     1.381872  88.43  0.006258538    3.087    0.676
         7 -11.6065    232.0618      8.2970   6.4455174133e+01   2.6395889323e+01    0.5127715    0.3381912 -15.71 0.0006837194    1.473    0.321
         8 -10.3173     69.0130     26.3539   1.0189350645e+02   6.3364869549e+01    0.6631694    0.3497995 -56.78  0.001643079    3.549    0.718
         9 -10.1190    119.7056      9.6904   7.8643589252e+01   5.4221833604e+01    0.6325626    0.3663322  36.02  0.002430773    1.783    0.439
        10  -9.7000     13.7831      9.8968   1.2320246273e+02   7.3983918505e+01    0.4892285    0.2112096 -69.94  0.001520049    6.069    0.835
        11  -8.3535    176.6731      9.9861   6.9946331734e+01   3.9492149480e+01    0.2456756    0.1286552 -45.03   0.00106514    1.962    0.490
        12  -9.8733    172.6850      3.4496   6.8195679808e+01   4.1075711395e+01    0.6897104    0.2448376 -43.26  0.002509454    2.904    0.656
        13  -9.8527    249.0155      2.8006   6.1988686419e+01   2.3258026747e+01    0.3556793    0.2746838 -42.68  0.002320636    1.116    0.104
        14 -11.4935     57.3138    186.5744   1.4106879418e+02   3.0309460510e+01    0.6724917    0.5934915  14.36  0.004960965    1.406    0.289
        15  -9.6444     74.5498    249.0143   1.4225950974e+02   1.8219206010e+01    0.2129147    0.1260453 -43.51  0.001449618    2.744    0.636
        16  -8.8428    189.9606    189.7330   1.1410750572e+02   1.1241666644e+01    0.1806527    0.1529172  -0.45 0.0004568528    1.141    0.124
        17  -8.4584    214.1661    167.6769   1.0584691824e+02   1.0341706455e+01    0.3165825    0.1937199  61.03  0.001368318    3.838    0.739
        18  -8.7662     17.5162    151.0430   1.4753921637e+02   4.1250439415e+01    0.1674364   0.09728813 -83.26 0.0004227805    1.523    0.344
        19 -10.1180     67.5574    144.1152   1.3411041420e+02   3.7761394915e+01    0.4806128    0.3046999  55.43   0.00172812    1.604    0.377
        20  -8.7027    233.5177    145.4888   9.8195805088e+01   1.0011383125e+01    0.1290801    0.1020569   1.40 0.0008102683    1.016    0.016
        21  -7.4488    192.4420    144.4599   1.0514768745e+02   1.7233074986e+01    0.1338803    0.1164828   6.40 8.030121e-05    1.029    0.028
        22  -9.0454    134.0638    137.0038   1.1604582410e+02   2.9098693877e+01    0.1993641    0.1843618  16.21 -0.001877172    1.040    0.038
        23  -8.5172    242.3239    132.6641   9.4117456190e+01   1.0132873972e+01    0.1168966   0.09596234 -46.05 0.0007050998    1.714    0.417
        24  -9.2897    199.9729    125.7647   9.9612225881e+01   1.8631348677e+01    0.4255406    0.1733582  44.58  0.000936098    2.440    0.590
        25  -8.5997    131.2325    121.9384   1.1348610973e+02   3.2543808883e+01    0.2213119    0.1902018  63.62  0.001203635    1.345    0.257
        26 -11.1321    244.3928    116.7457   9.0307131345e+01   1.1725718685e+01    0.4790666    0.2462922 -28.71 0.0003142351    1.688    0.407
        27  -8.3118    222.4995    120.5086   9.4512025267e+01   1.5158173398e+01    0.2156201    0.1331614  60.26 0.0008650229    2.395    0.583
        28  -8.3022    200.6449    116.3144   9.7268638047e+01   1.9904879929e+01    0.1321633    0.1118852 -67.87 0.0007045144    1.739    0.425
        29  -9.8053    187.4956    113.5619   9.9052062312e+01   2.2939556722e+01    0.3055926    0.1327362 -33.69  0.001226188    2.219    0.549
        30  -7.4810    168.3382    113.6779   1.0295569262e+02   2.6801576494e+01    0.1400085    0.1177835 -79.68  0.000705059    1.716    0.417
        31  -8.8340    204.9659    110.1414   9.5005730372e+01   1.9961176217e+01    0.3475188    0.1334695  36.88  0.001261105    3.052    0.672
        32  -9.8995    189.5068    103.3121   9.6095554974e+01   2.4132286877e+01    0.3669213    0.2083755  35.36   0.00124723    1.863    0.463
        33 -10.9937    245.8079     98.4939   8.5907547203e+01   1.3703210106e+01    0.5030987    0.3185079 -14.70  0.002031415    1.413    0.292
        34  -8.6815    194.0202     98.4646   9.4009813412e+01   2.3932294100e+01    0.2037452    0.1377836  44.96 0.0005097565    1.518    0.341
        35 -10.8312    186.7238     92.0318   9.3648583501e+01   2.6473366099e+01    0.8586278    0.2323353 -38.70  0.002675533    3.536    0.717
        36  -9.3184    150.5755     90.9188   1.0086880756e+02   3.4551064656e+01    0.3988689     0.275965  -8.51  0.001135458    1.815    0.449
        37  -9.9320    243.3200     88.7919   8.3926163072e+01   1.5343175624e+01    0.3418328    0.1765557 -18.30  0.001183483    1.814    0.449
        38 -10.9612    240.9162     82.5453   8.2717011976e+01   1.6560444007e+01    0.4936001    0.2948886 -46.11  0.002480102    1.922    0.480
        39  -8.1520    135.6715     90.1798   1.0425589097e+02   3.7879600721e+01    0.2446689    0.1993586  61.18 0.0008068741    1.428    0.300
        40 -10.4616    183.2020     77.7144   9.0315271161e+01   2.9446678495e+01    0.5860545    0.4080955 -40.42  0.002851649    1.451    0.311
        41  -8.2441    245.3229    249.6826   1.1392692910e+02  -2.3060553118e+00   0.08421022   0.06785094  26.02 0.0006296928    1.667    0.400
        42  -9.4362    159.5226     81.4842   9.6135865090e+01   3.4217975813e+01    0.2869171    0.2459092  20.33 0.0007979621    1.180    0.153
        43 -10.2759    162.9363     78.2019   9.4435262692e+01   3.3990844363e+01    0.4937416    0.3666406  10.44  0.001533511    1.569    0.363
        44  -9.3430    231.6751     79.8631   8.3265665580e+01   1.8709508386e+01    0.2282263    0.1724389  38.94  0.001294328    1.412    0.292
        45  -9.7813    144.1920     78.9345   9.8847718784e+01   3.8108143804e+01    0.3454495     0.295448 -38.29  0.000946308    1.169    0.145
        46  -7.8214    213.7987     76.4201   8.4899877364e+01   2.2862186395e+01    0.1869268    0.1246732  39.53 0.0009334691    1.584    0.369
        47  -8.9287    219.9320     74.5673   8.3518181237e+01   2.1801126343e+01    0.3118921    0.2088726  50.47  0.001619064    1.609    0.379
        48  -9.9945    238.9677     71.4789   8.0209855377e+01   1.8276324339e+01    0.2563066    0.1654542 -42.31  0.001082876    1.571    0.364
        49 -10.9913    159.4312     66.7540   9.1657325925e+01   3.6659577636e+01    0.4066859     0.282103 -13.60  0.001289454    1.579    0.367
        50  -9.0797    129.4936    248.9923   1.3272028658e+02   1.1870429588e+01    0.1232569    0.1046142 -53.83 0.0005565566    1.605    0.377
        51 -10.1582    201.2405     60.1104   8.2249912558e+01   2.7803111280e+01     1.356996    0.7620633  83.42  0.005205172    3.172    0.685
        52  -9.7214    196.7231     55.0491   8.1450866852e+01   2.9507321889e+01    0.8008994    0.3787823  44.43  0.002685897    2.275    0.560
        53 -11.1196    195.7232     44.6688   7.8506888242e+01   3.1047372916e+01    0.6418327    0.5696485 -48.94 0.0008572411    1.169    0.144
        54 -10.3161    184.4338     38.1467   7.8101910484e+01   3.4571140380e+01    0.7878365    0.4082142 -59.67  0.002942959    2.895    0.655
        55  -9.9304    230.2582     62.0225   7.8853339102e+01   2.1186000813e+01    0.7542918    0.6480529  34.91  0.002089791    1.252    0.201
        56 -11.4146      4.8257    244.1785   1.5375796600e+02   2.5480248039e+01    0.3922943    0.2911812 -52.72  0.003416691    2.122    0.529
        57 -11.3621      3.6785    240.1181   1.5384960220e+02   2.6178496451e+01    0.3853914    0.2579101  74.03  0.003396352    1.280    0.219
        58 -10.0177     69.8699    244.2122   1.4277173740e+02   1.9399792714e+01    0.1746716    0.1340555  34.09 0.0002071262    1.245    0.197
        59  -8.3021    250.3098    243.6710   1.1237149594e+02  -2.3852146117e+00    0.0837962   0.06957036  20.32 2.438347e-05    1.664    0.399
        60  -9.9931    185.2522     55.0815   8.3244947390e+01   3.2214491402e+01    0.2883601     0.254376 -14.63 0.0004420989    1.071    0.066
        61  -8.5423    136.7890     45.9023   8.9521896009e+01   4.5344722085e+01    0.2227653    0.1941378   9.84 0.0003407125    1.161    0.139
        62 -10.0915    150.0219     42.6815   8.5519772877e+01   4.2556914267e+01     0.391597    0.2216254  86.97  0.001327294    3.462    0.711
        63  -8.9705    250.6748     40.7338   7.1245219602e+01   1.9364285132e+01    0.2121538    0.1039926 -21.28 0.0002840065    1.799    0.444
        64 -10.4393    202.7251     37.9144   7.5568813437e+01   3.0178114187e+01    0.3847577    0.2734232  24.04 0.0008346486    1.620    0.383
        65  -8.7645     76.1028     38.5425   1.0465539792e+02   5.9885643797e+01    0.2915357    0.2139989 -62.04  0.001238174    1.845    0.458
        66  -9.8736    132.6363     37.6093   8.7363021265e+01   4.7575325682e+01    0.2790416    0.1989392  54.23  0.001331455    1.417    0.294
        67  -9.1710    122.7239     37.8201   8.9809132498e+01   4.9951713377e+01    0.2829939    0.2037983 -85.60  0.001181123    2.122    0.529
        68  -8.0094     48.3657     38.6962   1.1648576593e+02   6.4292556570e+01    0.1298229    0.1078717  80.68 0.0005879822    1.740    0.425
        69  -9.8799    241.5139     32.6549   7.0026045812e+01   2.2065221215e+01    0.3695749    0.2362652 -67.22  0.001955966    1.918    0.479
        70  -7.9495    136.3225    229.7078   1.2955365974e+02   1.3497847858e+01    0.1068573   0.07122071  52.40 0.0002704467    1.611    0.379
        71  -7.5057    192.2345     28.6903   7.4088595838e+01   3.3731511413e+01    0.1411479   0.09719159 -47.88 0.0001734432    1.491    0.329
        72 -12.6171     20.6051    223.7980   1.5046949569e+02   2.7332598514e+01    0.5838209    0.3607414  55.15  0.002483221    1.196    0.164
        73  -9.3922    179.6043     23.6756   7.4110369307e+01   3.7407781413e+01    0.4326523    0.3430504  64.20  0.002315854    1.291    0.225
        74 -10.2304    145.4506     21.9410   7.8739139751e+01   4.6335966581e+01    0.2541575    0.2427619  11.90 0.0003196345    1.011    0.011
        75 -10.1728    248.5408     17.7322   6.5697371583e+01   2.2047926822e+01    0.3859178    0.2241945 -80.95  0.001613642    2.157    0.536
        76  -8.0333    159.1797     60.1853   8.9607522978e+01   3.7745731363e+01    0.1968357    0.1745858 -59.22 0.0002909794    1.281    0.219
        77  -7.5781    141.6911    224.3407   1.2796338880e+02   1.3511972749e+01    0.1076383   0.07611413  56.19 0.0004030097    1.690    0.408
        78  -8.8486     47.6985    223.0249   1.4550304850e+02   2.4934410849e+01    0.1637506    0.1181667  45.34 0.0005081289    1.114    0.103
        79  -9.4672    144.1512     59.1113   9.2485260320e+01   4.1505230321e+01    0.3128804    0.2826039 -58.54 0.0006158348    1.249    0.200
        80 -12.8422     42.1499    202.3905   1.4535810172e+02   2.8983655115e+01    0.7946088    0.7475813 -62.44  0.006623921    1.384    0.277
        81  -9.5271     21.9743    208.5029   1.4960538114e+02   2.9776076985e+01    0.1497574   0.08357477  35.25 0.0005651521    1.579    0.367
