#   1 NUMBER                 Running object number                                     
#   2 MAG_AUTO               Kron-like elliptical aperture magnitude                    [mag]
#   3 X_IMAGE                Object position along x                                    [pixel]
#   4 Y_IMAGE                Object position along y                                    [pixel]
#   5 X_WORLD                Barycenter position along world x axis                     [deg]
#   6 Y_WORLD                Barycenter position along world y axis                     [deg]
#   7 A_WORLD                Profile RMS along major axis (world units)                 [deg]
#   8 B_WORLD                Profile RMS along minor axis (world units)                 [deg]
#   9 THETA_WORLD            Position angle (CCW/world-x)                               [deg]
#  10 FWHM_WORLD             FWHM assuming a gaussian core                              [deg]
#  11 ELONGATION             A_IMAGE/B_IMAGE                                           
#  12 ELLIPTICITY            1 - B_IMAGE/A_IMAGE                                       
         1 -15.2149      5.9946    142.0860   1.2348075678e+02   4.4180494399e+01     3.320559     1.340082 -68.63   0.01702186    1.885    0.470
         2 -13.0138    165.3280     57.1541   5.9419219339e+01   3.6412675350e+01      1.81942     1.266498  23.72  0.005564325    1.867    0.464
         3 -13.1131    179.2760     42.0908   5.2346978474e+01   3.5076369267e+01    0.9878688    0.9479398  89.79  0.003194094    1.006    0.006
         4 -16.4160     19.9526     16.2044   9.0946585184e+01   7.0417222746e+01     3.664051      2.15034  -4.54    0.0218099    1.796    0.443
         5 -12.9710    216.9908      3.3084   3.7275703142e+01   3.0254495313e+01     2.560515    0.4948363  74.03  0.007661031    5.088    0.803
         6 -13.7283    199.4758     10.3524   4.0713589088e+01   3.3770318802e+01     1.175034     1.110061 -53.16  0.004208659    1.143    0.125
         7 -11.6263    189.4529     15.4881   4.3231878245e+01   3.5725463168e+01     0.433854    0.3064799  79.98  0.001386624    1.336    0.252
         8  -9.2028    133.2971     15.9687   5.1993266988e+01   4.9824456967e+01    0.1829416    0.1700276  10.03 0.0002111466    1.120    0.107
         9 -13.0393    245.1618    242.2932   8.6582886891e+01  -1.0250311524e+01     1.225999    0.7903416 -17.18  0.008169248    1.492    0.330
        10  99.0000     92.1750    175.8010   1.0681398114e+02   2.6387930035e+01     6.818707     3.129544  38.79   0.02954789    2.140    0.533
        11 -12.4711     24.0660    206.3514   1.2459196922e+02   2.8477541071e+01    0.4358338    0.2167594  67.00  0.001078548    1.767    0.434
        12  -9.1839    223.5356    207.4932   8.4406701999e+01  -2.6289082497e+00    0.1890445    0.1783379  89.98 0.0005915717    1.676    0.403
        13  -9.0926     52.8012    207.2168   1.1907571758e+02   2.5053810581e+01    0.1605995    0.1133373  56.85  0.000530344    1.216    0.177
        14 -10.5948    192.1685    194.3409   8.7984195042e+01   4.8034287854e+00    0.7806001    0.4180768 -63.37  0.002418064    5.758    0.826
        15  -9.7546     32.2112    204.2358   1.2288388917e+02   2.8052849706e+01    0.1364931   0.09296539  34.67 0.0008702321    1.704    0.413
        16  -9.4497    211.6133    202.0942   8.5637941090e+01   1.4647688109e-01    0.2149302    0.1624893  39.26 0.0005624035    1.320    0.242
        17 -11.1505    243.0007    200.2132   7.9568078249e+01  -4.7023014037e+00    0.2404601    0.2074233   8.77  0.000235424    1.153    0.132
        18  -9.6939    212.6489    197.1718   8.4522557333e+01   7.2518234297e-01    0.2058955    0.1687488  35.55  0.000508395    1.228    0.186
        19  -9.5319    159.1878    195.8754   9.5063996025e+01   1.0550295787e+01    0.2057519    0.1802417  60.49 0.0005954633    1.227    0.185
        20  -8.6961     23.7233    196.5413   1.2398064486e+02   3.0543396651e+01    0.1977007    0.1070464  54.69  0.001182142    1.605    0.377
        21  -8.0694     18.4969    194.9950   1.2489688941e+02   3.1384095347e+01    0.4217477    0.2391133   4.73  0.001854775    5.093    0.804
        22  -8.9262     65.9316    194.0672   1.1506508630e+02   2.6144638096e+01    0.1953056    0.1382678  71.03 0.0005073541    1.288    0.224
        23 -10.6515      1.3600    194.1308   1.2812679643e+02   3.3113907923e+01    0.1493053   0.08114566 -82.64 0.0003797648    1.460    0.315
        24  -9.9570    212.9325    192.7906   8.3634357201e+01   1.3599657071e+00    0.2070834    0.1620785  10.77 0.0005010698    1.201    0.168
        25 -10.6816     31.0389    188.5564   1.2189330800e+02   3.1495187873e+01    0.6568393    0.1989291  50.12  0.001344969    2.980    0.664
        26  99.0000     24.2140    157.5251   1.2060180160e+02   3.9130236544e+01    0.9147064    0.4496586  37.47  0.003769998    2.139    0.533
        27 -13.4043     33.6038    134.6571   1.1562220951e+02   4.3641448865e+01     1.924963     1.187948 -64.68   0.01074594    1.353    0.261
        28 -12.5054     73.3381    212.4678   1.1545999649e+02   2.1303016785e+01    0.4118522     0.309385 -40.00 0.0009579593    1.986    0.496
        29 -11.0639    239.5068    188.6383   7.7949844480e+01  -2.5093168151e+00    0.2625991    0.1904224  -6.24 0.0009658263    1.290    0.225
        30 -14.5281     67.3186    141.2504   1.0757778060e+02   3.8162730054e+01     2.930891     2.168807  69.70    0.0157632    1.452    0.311
        31  -9.5493     45.7801    189.0017   1.1884569339e+02   2.9765363476e+01    0.1540338    0.1217518  67.66 0.0003851367    1.100    0.091
        32  99.0000     37.5740    189.4640   1.2061408698e+02   3.0595810162e+01    0.1205628    0.0966488  83.70 0.0002682898    1.034    0.033
        33 -10.1180    180.9813    188.3175   8.9126429525e+01   7.9023854018e+00    0.2141317    0.1995653 -42.67 0.0003547903    1.208    0.172
        34 -11.4936    151.4045    195.9894   9.6738831073e+01   1.1943258938e+01    0.5799814    0.3103406  39.83  0.002673694    1.707    0.414
        35 -11.0850    153.4472    185.6952   9.4496786978e+01   1.3551564257e+01    0.3636383     0.257864 -76.97  0.001419901    2.068    0.516
        36  -8.9871     65.8736    183.2935   1.1385506812e+02   2.8515620692e+01    0.1643527    0.1392968  52.81 0.0003097716    1.192    0.161
        37  -9.8671    188.6163    178.7886   8.5698462320e+01   8.1711704326e+00    0.3315304    0.2935473 -77.32  0.001687036    1.500    0.333
        38  -9.7542    188.3849    175.1731   8.5017406392e+01   8.8696394683e+00    0.3019622     0.258787 -82.73  0.000903909    1.620    0.383
        39  -8.0087     40.6007    178.3157   1.1893017518e+02   3.2720837684e+01    0.1384976   0.07454124  66.18 7.945653e-05    1.870    0.465
        40  -8.8375    195.5082    173.9856   8.3318789747e+01   7.7125926884e+00    0.2152462    0.1378085 -38.40  0.001033119    1.592    0.372
        41  -8.7952    202.3058    172.9203   8.1736137588e+01   6.6011159093e+00    0.1984044    0.1714887 -27.89  0.001117927    1.160    0.138
        42 -14.6507     29.9250    224.2567   1.2467503267e+02   2.4309361588e+01    0.5065006    0.3324749  28.56  0.003305276    2.047    0.512
        43 -10.8705    230.4219    168.1420   7.5402128909e+01   2.1852949385e+00    0.4591471    0.1935235 -48.69   0.00163896    3.565    0.719
        44  -8.8468    186.2460    170.4036   8.4482226512e+01   1.0162836027e+01    0.2027903    0.1341205  49.97 0.0009504286    1.608    0.378
        45  -6.5964     31.4261    168.5279   1.2001851862e+02   3.5908238012e+01    0.1244551   0.09842321  88.07  0.000174887    1.014    0.014
        46 -13.8905     11.9183    205.8730   1.2682631479e+02   2.9771402488e+01    0.3854789    0.3240965  73.11  0.001664259    1.227    0.185
        47  -9.1998     24.9454    166.8200   1.2131688305e+02   3.6932830158e+01    0.1935732     0.159745  12.07  0.001158834    1.747    0.427
        48  -9.7393    124.0599    162.6151   9.6956320545e+01   2.3902786476e+01    0.2340207    0.1981934 -75.37 0.0003943734    1.248    0.198
        49 -13.4216     55.8542    224.0598   1.1991236575e+02   2.1311004909e+01    0.3071217    0.1829734  61.29  0.001091829    1.405    0.288
        50 -12.2075    114.3852    153.4250   9.7562350572e+01   2.7759408866e+01    0.9696565    0.6589431  84.60  0.004221561    2.086    0.521
        51 -10.8210     97.5637    157.8755   1.0260207251e+02   2.9639254163e+01    0.3219899    0.2489408 -51.01 0.0004295204    1.329    0.247
        52 -12.0660    101.9413    151.7653   1.0038829185e+02   3.0335232097e+01    0.7748788    0.5859826 -34.36  0.001610445    1.600    0.375
        53 -12.0035    133.4952    146.3929   9.1354847028e+01   2.5729453665e+01     1.480233    0.5069345 -57.28  0.004119482    4.291    0.767
        54  99.0000     64.9861    218.1647   1.1766019244e+02   2.1290099248e+01    0.5430959    0.1447057  48.34  0.002199925    3.119    0.679
        55 -10.6162    144.0309    147.9297   8.9126268627e+01   2.3270699287e+01    0.5910755    0.2766223 -59.60  0.001986787    3.020    0.669
        56  -9.6896     47.5013    146.1721   1.1353846325e+02   3.9427866768e+01    0.3196785     0.206721 -71.24  0.001743332    1.339    0.253
        57 -14.4603      6.5276    173.4764   1.2583514284e+02   3.7075662717e+01     1.903075     1.146202  79.43   0.01208863    1.365    0.267
        58 -11.4042    111.2216    138.4806   9.5320931824e+01   3.1813671042e+01     0.636197    0.4509028 -25.81   0.00285662    1.895    0.472
        59 -10.9869     44.5120    140.8070   1.1357256933e+02   4.1047305958e+01    0.2573333    0.2372834  18.88   0.00116932    1.367    0.268
        60 -11.3351    100.6970    137.3324   9.7868665768e+01   3.3962025283e+01    0.2926449    0.2752688   9.39 0.0003632216    1.216    0.177
        61 -10.9592    135.6405    128.7722   8.6781779830e+01   2.9253272183e+01    0.8246179    0.1537943 -49.39   0.00181223    6.073    0.835
        62 -10.0900    117.3549    129.3942   9.1676128895e+01   3.2782464331e+01    0.3032497    0.2474896 -24.17 0.0006947459    1.433    0.302
        63  -9.1815    160.3560    128.8514   8.0788938012e+01   2.3920424276e+01     0.282182    0.2175223  57.48  0.001315365    1.410    0.291
        64 -10.1873    105.5368    125.0334   9.3863088249e+01   3.6019031081e+01     0.272494    0.2452343 -32.20  0.000609285    1.179    0.152
        65  -9.2931    121.5010    123.9872   8.9292161345e+01   3.3220313316e+01    0.2248729    0.1298307 -28.26 0.0008103757    2.547    0.607
        66  -8.6711    148.1902    120.9746   8.1713748895e+01   2.8284763664e+01    0.2068061    0.1976974 -37.02   0.00107132    1.033    0.031
        67  -9.6703     78.0165    120.2204   1.0059887543e+02   4.1744416091e+01    0.2455931    0.1934724 -59.87  0.000511571    1.161    0.139
        68  -9.4634    204.2804    118.3853   6.8851540872e+01   1.6159389371e+01    0.2390807     0.215185 -21.81 0.0002826594    1.072    0.067
        69  -9.1743    111.9967    118.9406   9.0633454399e+01   3.6240049519e+01    0.2247618    0.2155188 -50.48  0.000361299    1.015    0.015
        70  -9.9881     73.3257    116.7795   1.0124135365e+02   4.3262642611e+01    0.5567753    0.1353297 -50.94  0.001716736    3.525    0.716
        71 -10.5268    120.5944    112.4528   8.6637595619e+01   3.6034446616e+01    0.4886605    0.3177662  79.48  0.001780918    2.847    0.649
        72 -10.0685    134.4903    106.0680   8.1227641732e+01   3.4523015523e+01    0.5857561    0.1528372 -43.89  0.001602154    3.749    0.733
        73  -9.6890    168.0847    113.7767   7.5166164849e+01   2.5307702060e+01    0.3130132    0.2676431  88.29 0.0006051967    1.411    0.291
        74  -8.4813    113.4814     95.5387   8.4003303021e+01   4.1242393764e+01    0.1534145    0.1465847 -27.83 0.0001232056    1.018    0.018
        75 -18.3216     40.4325    238.8593   1.2375318262e+02   2.0393096225e+01     5.510506     2.105716  34.26   0.01964082    2.868    0.651
        76  -8.4718    150.5216     82.5028   7.0413688442e+01   3.5660741519e+01    0.1556979    0.1523527  -5.90  0.000123948    1.017    0.017
        77 -10.2529    109.2644     75.7568   7.9225055079e+01   4.6249001320e+01    0.2468104    0.2277112   3.63 0.0002568284    1.085    0.079
        78  -8.6888    205.4753     70.5676   5.6162664274e+01   2.4258589545e+01    0.2647929    0.1459414 -20.81  0.001031199    2.323    0.569
        79  -9.6674    167.5612    229.7254   9.8778300008e+01   3.3164425054e+00    0.2101769    0.2006243 -80.50 0.0009211989    1.318    0.241
        80 -12.1702     65.2249    210.9590   1.1693946444e+02   2.2701320134e+01    0.3954791    0.2609357  57.44  0.001815298    1.294    0.227
        81  99.0000     59.6509    207.6542   1.1774424739e+02   2.4102243980e+01    0.4547268    0.2119846 -56.63  0.001590857    2.391    0.582
        82 -12.4784    183.7704     35.4621   4.9697488304e+01   3.4812697002e+01     0.640267    0.5027749  43.00  0.001622723    1.373    0.271
        83 -10.5625      8.1163    224.7211   1.2849177194e+02   2.6448057824e+01    0.1235016    0.1018399 -76.89 0.0004207041    1.472    0.321
        84  -9.3568     79.9832    220.2944   1.1492732117e+02   1.8831138731e+01    0.2373071    0.1469766  83.45   0.00124724    1.747    0.428
        85  -8.6244     26.9771    211.9343   1.2441756323e+02   2.7045503571e+01    0.1431167    0.1246743 -59.27 0.0005102771    1.585    0.369
        86  -8.9228    165.9872     18.7661   4.7341218318e+01   4.1323336817e+01    0.1919372    0.1647892  70.76 0.0001978424    1.076    0.071
