#   1 NUMBER                 Running object number                                     
#   2 MAG_AUTO               Kron-like elliptical aperture magnitude                    [mag]
#   3 X_IMAGE                Object position along x                                    [pixel]
#   4 Y_IMAGE                Object position along y                                    [pixel]
#   5 X_WORLD                Barycenter position along world x axis                     [deg]
#   6 Y_WORLD                Barycenter position along world y axis                     [deg]
#   7 A_WORLD                Profile RMS along major axis (world units)                 [deg]
#   8 B_WORLD                Profile RMS along minor axis (world units)                 [deg]
#   9 THETA_WORLD            Position angle (CCW/world-x)                               [deg]
#  10 FWHM_WORLD             FWHM assuming a gaussian core                              [deg]
#  11 ELONGATION             A_IMAGE/B_IMAGE                                           
#  12 ELLIPTICITY            1 - B_IMAGE/A_IMAGE                                       
         1 -13.5125    195.4718     44.8837   3.9845216454e+01   3.1359569931e+01    0.9480645    0.9047573  85.83  0.003791701    1.175    0.149
         2 -13.6722    222.9477     15.1630   3.0461788917e+01   2.9074908400e+01    0.8555328    0.7511466 -69.73  0.003949278    1.186    0.157
         3 -12.7075     55.3296      4.8344   5.6471198800e+01   6.6942455635e+01    0.6297628    0.3750683  40.13  0.003752425    1.382    0.276
         4 -10.2120     60.3483     20.9304   6.1964875447e+01   6.4355566251e+01    0.2021365    0.1597867  41.97 0.0004777432    1.295    0.228
         5 -19.5116     14.1351    147.5107   1.1327041868e+02   4.2435021141e+01     20.05524     5.504544 -76.12   0.06695279    3.551    0.718
         6  -9.9214     73.7401    206.3976   1.0451620042e+02   2.1115535293e+01    0.2239425    0.1606399 -84.39 0.0005832787    1.466    0.318
         7  -9.2224     54.7195    206.3208   1.0909191950e+02   2.3618520324e+01    0.2586504    0.1489899  66.24   0.00122684    1.892    0.471
         8 -10.0921     86.9733    205.5963   1.0118081507e+02   1.9423817200e+01    0.2563751    0.1985563 -63.65  0.000165826    1.322    0.244
         9  -8.6378     90.0146    201.9636   9.9929365325e+01   1.9824581515e+01    0.1700814    0.1575615  55.33 0.0005026172    1.022    0.021
        10 -10.2117     52.5878    248.0446   1.1338636169e+02   1.4743156195e+01    0.3431593    0.1120193 -62.64  0.001511389    3.101    0.678
        11  -8.7388    167.6869    200.3490   8.1045301336e+01   7.4661677733e+00    0.1381014    0.1159286  78.22 0.0007046414    1.721    0.419
        12 -10.6308    192.5453    194.2686   7.4532752296e+01   4.5417977595e+00    0.8411426    0.4345941 -62.41  0.002617266    5.086    0.803
        13  -9.3594     59.6625    197.0054   1.0684247257e+02   2.5227395698e+01    0.1766202    0.1489491 -84.53 0.0002029963    1.116    0.104
        14 -10.1200    155.3913    196.1945   8.3073430475e+01   1.0405179089e+01    0.2066662    0.1401042 -58.71  0.000961486    1.755    0.430
        15 -10.6223     37.5516    249.3403   1.1649957463e+02   1.6243664905e+01    0.1529247    0.1328454  36.54 0.0001725277    1.323    0.244
        16  -9.4307     83.2766    194.7864   1.0060590624e+02   2.2530259167e+01    0.3494194    0.1872551  28.85  0.001509116    1.980    0.495
        17 -10.3826     45.0544    246.6033   1.1480638262e+02   1.5931708624e+01    0.1063459   0.05057036 -79.31 0.0002292825    2.222    0.550
        18  -9.1594    163.2008    192.3955   8.0566805445e+01   9.8574181634e+00    0.1973323    0.1328197  44.38  0.000445731    1.577    0.366
        19 -11.6481     53.6566    188.4670   1.0733898535e+02   2.8073010705e+01    0.7573886    0.3918366 -60.73  0.002265558    1.816    0.449
        20 -10.0918     34.4969    190.7811   1.1239703290e+02   2.9685034533e+01    0.2071843     0.151848  68.55 0.0004596306    1.282    0.220
        21  -9.5612    211.3095    189.6666   6.9874993505e+01   2.3998770626e+00    0.1251955    0.1105447 -73.98 0.0004213054    1.674    0.402
        22  -8.6385    185.1995    189.4072   7.5133868257e+01   6.6997630838e+00    0.1796417    0.1331817  43.55  0.000258438    1.496    0.331
        23  -9.5818     76.3661    184.5192   1.0091431867e+02   2.6047510084e+01    0.3015817     0.194767 -69.90  0.001323777    1.563    0.360
        24 -10.6582     84.4972    185.3352   9.8899186451e+01   2.4659969111e+01    0.5220594    0.3874007 -85.96  0.001948585    1.493    0.330
        25 -10.0849     79.6572    182.6526   9.9768077468e+01   2.6038809916e+01    0.3871934    0.2902962 -87.58  0.001703509    1.450    0.310
        26 -10.4857    145.0323    182.3537   8.2908331345e+01   1.5231747532e+01    0.2673848    0.2190492 -83.55   0.00088078    1.596    0.373
        27  -9.4109     88.2491    178.8519   9.6882291743e+01   2.5703296764e+01     0.245055    0.1953921  51.77 0.0004923815    1.263    0.208
        28  -9.8606     91.2042    176.4758   9.5695652488e+01   2.5839139248e+01    0.3573018    0.2480276 -71.69  0.001050422    1.544    0.352
        29  -9.9079     83.9212    176.7041   9.7698073604e+01   2.6898674483e+01    0.3959478    0.2094187 -67.20 0.0006366691    2.008    0.502
        30  -9.7941     77.2153    228.0165   1.0621243821e+02   1.5761031273e+01    0.1800244    0.1435209 -72.82 0.0006689841    1.311    0.237
        31 -12.5372    236.2554    173.0468   6.2053715170e+01   1.5248560792e+00      0.76138    0.4016541  17.90  0.003199096    3.103    0.678
        32 -11.0557    137.2944    173.4591   8.3064091453e+01   1.8659881985e+01    0.3422259    0.2402624 -37.94  0.001574318    1.474    0.322
        33 -10.3413     46.3204    172.0099   1.0723416196e+02   3.3090372916e+01    0.5155362    0.3206531 -80.13  0.002505879    1.578    0.366
        34  -9.7348    179.9783    173.9906   7.3156644615e+01   1.0720585143e+01    0.2242471    0.1890924  84.35  0.001134503    1.689    0.408
        35  -9.1831     91.4683    185.0317   9.7023656115e+01   2.3677450355e+01    0.2222939    0.1434677 -64.23 0.0005565503    1.579    0.367
        36 -10.2379    186.9791    168.8076   7.0573928576e+01   1.0521215656e+01    0.2672341    0.2353053 -19.85 0.0009537503    1.057    0.054
        37 -11.8593    230.4054    168.5487   6.2165126559e+01   3.2127879172e+00    0.7076092    0.2809832 -43.55  0.002947115    2.270    0.559
        38 -10.2246    178.5844    166.7566   7.1945011973e+01   1.2478029742e+01    0.2135971    0.1382455 -52.88 0.0009540648    1.678    0.404
        39  -9.1144    186.3168    164.0508   6.9706468058e+01   1.1613433463e+01    0.2658056     0.185775 -49.15 0.0006553779    1.456    0.313
        40  -8.5515    149.3022    165.7091   7.8498001041e+01   1.8207034610e+01    0.1487956      0.12359  80.31 0.0003032261    1.568    0.362
        41 -11.0542     87.1866    154.7404   9.2920478114e+01   3.1989645259e+01    0.3101817    0.2806737 -49.21 0.0004177946    1.087    0.080
        42 -11.9203     93.5562    148.2523   8.9782468768e+01   3.2613404868e+01    0.7809589    0.5520192 -35.31   0.00354013    1.565    0.361
        43 -11.1085    134.1965    147.8052   7.8395892293e+01   2.5280482195e+01    0.8317148    0.3118818 -55.41  0.002530115    3.203    0.688
        44 -10.7852    133.1890    141.9829   7.7324384662e+01   2.6855623313e+01    0.7427638    0.2529411 -54.35  0.002133628    3.524    0.716
        45 -10.0201    111.7963    149.8660   8.4910709236e+01   2.9022682643e+01    0.5453171    0.3167992  69.06  0.001762063    3.448    0.710
        46  -9.3755    174.6498    148.9683   6.8914849339e+01   1.6992865947e+01    0.2213189    0.1850957 -42.57 0.0005469844    1.141    0.124
        47  -8.8237    179.5060    141.4915   6.6157376835e+01   1.7610360958e+01    0.1514879    0.1422612 -38.74  7.27702e-05    1.035    0.033
        48  -9.9898     85.1425    138.8978   9.0338828168e+01   3.6377371750e+01    0.2381411    0.2071421  75.69 0.0006223161    1.288    0.223
        49 -10.8604    105.8024    135.5889   8.3436785510e+01   3.3655750847e+01    0.4468323    0.3112148 -23.59  0.001534343    1.829    0.453
        50 -10.5869    105.8412    130.7327   8.2287084155e+01   3.4844477812e+01    0.5849229    0.3784646 -65.60  0.002229274    1.836    0.455
        51 -11.6645     93.7076    134.9398   8.6878666395e+01   3.5961188663e+01    0.3050689    0.2702799 -41.70  0.000386706    1.101    0.092
        52  -8.9191    116.6634    134.3279   8.0026131328e+01   3.1923810284e+01    0.1632464    0.1267519  80.85 0.0007051855    1.726    0.421
        53  -9.0836    148.6740    132.7523   7.1174179765e+01   2.5835072135e+01    0.2083274    0.1808091 -79.56 0.0008151857    1.348    0.258
        54 -10.2019    135.8892    129.2083   7.3553153127e+01   2.9291094580e+01    0.4187978    0.1913437 -45.89  0.001506009    2.131    0.531
        55 -10.1731    113.5126    127.7973   7.9347848384e+01   3.4106637371e+01    0.3524081    0.2772926 -31.43 0.0007691666    1.343    0.255
        56  -9.5529     76.4599    231.6808   1.0677718598e+02   1.5077313286e+01    0.2106627    0.1974227   3.64 0.0007462971    1.299    0.230
        57 -10.2956    101.1682    123.2241   8.1862352194e+01   3.7539209374e+01    0.2917109    0.2390823 -17.38  0.000673118    1.380    0.275
        58  -9.3316    119.1831    122.5857   7.6434590823e+01   3.4230414131e+01    0.2265537    0.1519281  26.51 0.0009464705    1.733    0.423
        59  -9.4812    135.0000    119.9490   7.1455129734e+01   3.1585234208e+01    0.2655042   0.08850296 -45.86  0.000800807    2.931    0.659
        60  -9.3493    109.1997    117.2112   7.7942089116e+01   3.7461604116e+01    0.2241184    0.2051831 -16.03 0.0003333364    1.126    0.112
        61 -10.8120     68.5872    116.1255   9.0576112443e+01   4.4674811404e+01    0.2924323    0.2294421  14.15  0.001467736    1.420    0.296
        62  -9.8261    134.4827    105.9897   6.7905507003e+01   3.4766193179e+01    0.4569823    0.1455314 -49.32  0.001316771    3.512    0.715
        63  -9.6864    205.3452    110.4485   5.3951127993e+01   1.8515291090e+01    0.2579412    0.2375133  46.64 0.0007787745    1.212    0.175
        64 -11.1113    118.6088    109.7989   7.3256780653e+01   3.7288480869e+01    0.6636102    0.4337215  76.75  0.002402196    2.855    0.650
        65  -8.6814    160.9566    108.4814   6.2173373001e+01   2.8417395290e+01    0.2179236    0.1527189  50.52 0.0005113727    1.480    0.324
        66 -10.8299    119.7720    104.3067   7.1429887517e+01   3.8267534447e+01    0.3628422    0.2224986 -49.75   0.00152513    1.661    0.398
        67  -8.3871     90.9427    230.0628   1.0333978435e+02   1.3406652962e+01     0.157091    0.1365468  49.16 0.0003120384    1.024    0.023
        68  -9.4306    167.2361    224.6518   8.5394859215e+01   2.8492711131e+00    0.2397576    0.1779837 -40.02  0.001266054    1.415    0.293
        69  -9.8327     74.9086    249.8469   1.0892603791e+02   1.1560773102e+01    0.1627498    0.1061941 -53.17 0.0007199786    1.825    0.452
        70  -9.6393     59.0261    216.8862   1.0918448656e+02   2.0630230269e+01    0.1423409    0.1217004  84.60 0.0002870207    1.092    0.084
        71  -8.4188    156.6458     84.2771   5.6666416059e+01   3.4094422772e+01     0.152216    0.1158786 -84.15 0.0004799039    1.649    0.394
        72 -12.0999     51.7041     75.7048   8.6059052396e+01   5.6429001480e+01    0.4970093    0.3906509  12.75   0.00224958    1.292    0.226
        73  -9.1323     57.4244    211.2100   1.0896833864e+02   2.2137089877e+01    0.1999113    0.1369486  43.84 0.0009395367    1.356    0.263
        74 -12.9782    179.8786     57.5447   4.5204254663e+01   3.3122001313e+01     1.345225    0.9460363  28.04  0.004649955    2.098    0.523
        75 -11.8429    248.3572    245.9406   7.3158684148e+01  -1.1316001358e+01    0.5889726    0.2608961 -27.80  0.003201794    2.014    0.504
        76 -12.8185    200.9666     39.3760   3.7874827740e+01   3.0864948134e+01     0.550126    0.4830147 -66.47  0.001350263    1.077    0.072
        77 -10.3986     39.3501     44.2958   8.0695834292e+01   6.4124870306e+01    0.3353377    0.1481261  37.68  0.001530162    2.486    0.598
        78 -11.7860    201.1852     24.4068   3.4403590007e+01   3.2660363326e+01     0.304393    0.2863328  24.40  0.002096747    1.459    0.315
        79  -8.3147     54.3263    239.9677   1.1236752632e+02   1.6184051761e+01    0.1492805    0.1063001 -85.33 0.0004005465    1.402    0.287
        80  -9.8381    190.0064     15.1218   3.3392488674e+01   3.6177044721e+01     0.227608    0.1608254 -60.53  0.001050693    1.313    0.239
        81  -9.4269    196.5469     14.5087   3.2607310905e+01   3.4785949062e+01    0.1225889    0.1008798 -81.36 0.0001067031    1.005    0.005
        82 -11.0559     47.9534    239.5019   1.1366461697e+02   1.7050389954e+01    0.1731217    0.1397952  71.91  0.001136703    1.078    0.072
