#   1 NUMBER                 Running object number                                     
#   2 MAG_AUTO               Kron-like elliptical aperture magnitude                    [mag]
#   3 X_IMAGE                Object position along x                                    [pixel]
#   4 Y_IMAGE                Object position along y                                    [pixel]
#   5 X_WORLD                Barycenter position along world x axis                     [deg]
#   6 Y_WORLD                Barycenter position along world y axis                     [deg]
#   7 A_WORLD                Profile RMS along major axis (world units)                 [deg]
#   8 B_WORLD                Profile RMS along minor axis (world units)                 [deg]
#   9 THETA_WORLD            Position angle (CCW/world-x)                               [deg]
#  10 FWHM_WORLD             FWHM assuming a gaussian core                              [deg]
#  11 ELONGATION             A_IMAGE/B_IMAGE                                           
#  12 ELLIPTICITY            1 - B_IMAGE/A_IMAGE                                       
         1 -12.2253      2.1095     44.4895   1.2827135922e+02   6.5296527388e+01     2.165498          nan -57.63  0.004509151   14.087    0.929
         2 -12.8780      9.6309     10.7737   1.1375279843e+02   7.0255300202e+01     1.016024    0.4293111 -45.34  0.005907531    2.247    0.555
         3 -11.6619      2.1923     15.0239   1.1887263175e+02   7.0164456770e+01    0.7959172    0.1087318 -48.38  0.002958935    5.131    0.805
         4 -11.5466      2.2865      4.9275   1.1482081079e+02   7.1596449909e+01    0.6822442    0.2260996 -43.03  0.003782197    2.451    0.592
         5 -13.0031    193.5029     30.1196   6.9368810734e+01   3.3329445380e+01     1.068657    0.9473985  18.15  0.006319412    1.433    0.302
         6 -13.7078    206.9865     12.2044   6.3247883954e+01   3.2128349742e+01     1.463729     1.051038  39.94  0.008206281    1.786    0.440
         7  -9.9525    250.0000    245.0012   1.0756712412e+02  -1.3683870357e+01    0.1764168   0.06230044 -34.55 0.0008093761    2.991    0.666
         8 -11.2239    140.4019    250.0068   1.2856878193e+02   3.5864314220e+00     0.430917    0.1493022  40.48  0.001803123    2.519    0.603
         9 -11.2881    123.8507    249.6814   1.3161116831e+02   6.4151050920e+00    0.4744218    0.1251082  45.92  0.001813448    3.024    0.669
        10 -11.3695    111.5849    249.3359   1.3383256483e+02   8.4796317225e+00    0.3395095    0.1998412  42.02  0.001831389    1.531    0.347
        11  -9.3325     66.9762    250.2641   1.4184863790e+02   1.5037326750e+01    0.1631916    0.1176537  63.30 0.0002477152    1.073    0.068
        12 -11.5696     34.8612    244.3083   1.4677221862e+02   2.0298905966e+01    0.4244553    0.3139122  54.53  0.003154908    1.340    0.254
        13 -10.3988     29.7261    250.1995   1.4797940260e+02   1.9819707641e+01    0.2782414    0.1732611  61.02  0.001078968    1.228    0.186
        14 -10.9899     34.3237    249.5311   1.4720566511e+02   1.9397602859e+01    0.4152382     0.160741  47.58   0.00235695    2.077    0.519
        15 -14.0190     10.3564    206.7519   1.4837302846e+02   3.0354314030e+01      2.22021    0.8314869 -71.14   0.01135931    2.153    0.536
        16 -15.2546      9.0297    150.8050   1.4394787690e+02   4.2523676501e+01     6.094717     1.731454 -77.83    0.0234323    3.498    0.714
        17  -8.6335    152.6095    212.8136   1.2082001789e+02   8.0390117488e+00    0.1663966    0.1316145 -70.63 0.0002526979    1.468    0.319
        18 -12.0764     11.0396    238.2589   1.5021618198e+02   2.4099873035e+01    0.5897717     0.250893  86.22  0.003407308    2.057    0.514
        19 -10.9917    150.3676    229.6235   1.2386518526e+02   5.3516672106e+00    0.3894506    0.1485254  37.23  0.001519522    2.661    0.624
        20  -9.6030     52.1717    197.6888   1.3966658936e+02   2.7612242820e+01    0.2636583    0.1528444  66.13  0.001439584    1.651    0.394
        21 -11.2905     64.3646    196.6851   1.3706086184e+02   2.6219309205e+01     0.343961    0.2369392 -48.70   0.00130846    1.848    0.459
        22  -9.5094    192.3316    193.0119   1.0905778150e+02   4.0977962457e+00    0.2223684    0.1158428 -63.73 0.0007048644    4.308    0.768
        23 -11.4326     69.9310    189.0132   1.3495602179e+02   2.7145481498e+01    0.2785311     0.228998 -64.06  0.000455623    1.285    0.221
        24  -9.0857    229.3256    229.6556   1.0862971661e+02  -8.5052822916e+00    0.1138031    0.1011552  74.19 0.0007050596    1.741    0.426
        25 -10.5197    238.3307    248.1687   1.1014865376e+02  -1.2354193027e+01    0.1770387    0.1264115  21.59  0.001152283    1.148    0.129
        26 -10.6763     79.4909    176.5779   1.3114192699e+02   2.8578441511e+01    0.2456738     0.219248 -81.48 0.0004233329    1.093    0.085
        27 -12.9585     66.5533    174.3281   1.3376620767e+02   3.0959014468e+01    0.5020158    0.2820819 -46.15  0.001806608    2.201    0.546
        28 -11.6073     86.6770    167.4885   1.2806987287e+02   2.9582752161e+01    0.5996887     0.532178  71.19  0.003548829    1.083    0.077
        29 -14.5090     54.2818    211.4947   1.4064951372e+02   2.4385457170e+01      7.78021    0.5898884  47.60   0.02068346    7.518    0.867
        30  -9.6122     99.2537    151.3836   1.2215623896e+02   3.1303541853e+01    0.2730753    0.2383283  87.53 0.0007284114    1.121    0.108
        31  -9.0358    102.1085    147.4798   1.2067594587e+02   3.1729565996e+01    0.2773329    0.1923036 -40.62  0.001005929    1.622    0.383
        32 -11.7529     87.8462    150.6468   1.2488415361e+02   3.3363090298e+01    0.2911007    0.2516413 -44.10 0.0005620508    1.275    0.216
        33 -12.2135     67.4811    143.9930   1.2887432863e+02   3.7946141464e+01    0.7046447    0.4967916  76.95    0.0034376    1.621    0.383
        34 -13.9031     44.6352    221.6685   1.4337563958e+02   2.3513794333e+01     3.028729     2.205393  -3.91   0.01554663    3.831    0.739
        35 -11.5008    126.5522    244.9155   1.3053475380e+02   6.7900420716e+00    0.3440888    0.1621166  54.85  0.001639667    2.000    0.500
        36  -9.4444    110.3323    136.7550   1.1633287497e+02   3.2765748264e+01    0.3647051    0.2341068 -22.62  0.001289023    2.646    0.622
        37 -11.4885     58.0934    132.8877   1.2938524319e+02   4.1783411396e+01    0.7639358     0.314677 -75.25  0.002528351    3.951    0.747
        38 -10.1546     97.6997    133.8681   1.1901658141e+02   3.5697820760e+01    0.2638667    0.2256126 -22.74 0.0005323307    1.407    0.289
        39 -10.5811     50.2638    129.8686   1.3094587479e+02   4.3421247848e+01    0.2399477    0.2104268  49.98 0.0005982816    1.286    0.222
        40 -10.6306     27.5000    213.6740   1.4582290979e+02   2.7156531410e+01    0.4908994    0.1607782  60.03  0.002126874    3.251    0.692
        41  -9.2838    107.1558    123.6207   1.1420005715e+02   3.6398123303e+01    0.1949479    0.1818472  36.18 0.0004278325    1.144    0.126
        42  -9.9885    168.0857    113.0661   9.6342028895e+01   2.5661953812e+01    0.3590644    0.2860244 -81.12 0.0007835223    1.523    0.343
        43 -11.0032    141.4286    230.4502   1.2575463044e+02   6.7972730523e+00    0.3370409    0.1753092  40.21   0.00162183    1.736    0.424
        44 -12.3814     38.3550    230.4979   1.4519574957e+02   2.2522373911e+01    0.3235649    0.2515084 -77.28 0.0007439347    1.356    0.263
        45 -11.8663     99.4726    248.3448   1.3593477261e+02   1.0579525915e+01    0.4073835    0.3330583  40.14  0.002727761    1.410    0.291
        46 -10.2386     88.7239    249.0150   1.3793500435e+02   1.2110229280e+01    0.1686478    0.1342406  76.11 0.0005745691    1.101    0.092
        47 -10.7580     81.8233    249.1308   1.3916923193e+02   1.3118272190e+01    0.2117785    0.1608874  49.84  0.001294229    1.279    0.218
        48 -10.5379     46.4636    248.8951   1.4518918919e+02   1.8017166382e+01    0.2810392    0.1158649  66.41  0.001432271    2.367    0.577
