#   1 NUMBER                 Running object number                                     
#   2 MAG_AUTO               Kron-like elliptical aperture magnitude                    [mag]
#   3 X_IMAGE                Object position along x                                    [pixel]
#   4 Y_IMAGE                Object position along y                                    [pixel]
#   5 X_WORLD                Barycenter position along world x axis                     [deg]
#   6 Y_WORLD                Barycenter position along world y axis                     [deg]
#   7 A_WORLD                Profile RMS along major axis (world units)                 [deg]
#   8 B_WORLD                Profile RMS along minor axis (world units)                 [deg]
#   9 THETA_WORLD            Position angle (CCW/world-x)                               [deg]
#  10 FWHM_WORLD             FWHM assuming a gaussian core                              [deg]
#  11 ELONGATION             A_IMAGE/B_IMAGE                                           
#  12 ELLIPTICITY            1 - B_IMAGE/A_IMAGE                                       
         1  -8.6648     46.1906     20.5841   5.8038296863e+01   7.0770155063e+01    0.4274335    0.2208331 -43.48  0.001888982    1.964    0.491
         2  -9.4130     27.4004     20.5259   7.0516922663e+01   7.3909698488e+01    0.6494183    0.3561133 -39.74  0.003088976    1.778    0.438
         3  -9.1726     13.1981     17.5954   8.0780699346e+01   7.6196021279e+01    0.4783166    0.2385446   2.41  0.002036994    2.800    0.643
         4  -8.5740     74.3323     13.3313   4.0976085858e+01   6.5584443897e+01    0.3065492    0.2105144   6.00  0.001276932    1.844    0.458
         5  -9.4649     78.7600     12.5351   3.9094378165e+01   6.4574040021e+01    0.4662772    0.2607565  64.68  0.001988461    1.756    0.431
         6  -9.1865     64.5278     13.6857   4.4785636854e+01   6.7902099298e+01    0.4518052    0.2248904  41.93  0.000989055    2.075    0.518
         7  -8.6256     97.0126     11.7842   3.3877749226e+01   5.9906937556e+01    0.3564929    0.2272343  24.40  0.001263342    1.992    0.498
         8  -9.3175      3.0458      7.6827   8.5750209295e+01   7.9181245991e+01    0.6996869    0.1774432 -46.46  0.002666248    3.103    0.678
         9  -7.9278    155.9927     11.0571   2.4585970752e+01   4.4063184467e+01    0.3000259    0.1386757 -23.09 0.0007747912    2.203    0.546
        10  -9.4462     31.7055     10.7243   6.0708580759e+01   7.5089302264e+01    0.2543807     0.215389  13.90  0.000292359    1.153    0.133
        11  -9.2691     32.1374      5.6289   5.6417074248e+01   7.5844458884e+01    0.3279747    0.2213497 -43.46 0.0002154695    1.590    0.371
        12  -9.9759     20.6125      8.4215   6.8023487218e+01   7.7209498855e+01    0.3733985    0.2854688  19.67 0.0001719083    1.315    0.239
        13  -8.8170     13.7027     10.5935   7.6128784405e+01   7.7632704305e+01    0.3178544    0.2352864 -80.80  0.001115436    1.940    0.484
        14 -10.4883     13.4191      4.1276   7.1705403805e+01   7.8942294728e+01    0.3661442    0.2837234  19.08 0.0002667947    1.293    0.227
        15  -9.6290    125.4444      9.8241   2.7829487681e+01   5.2397451144e+01    0.2763892    0.2253603  59.21 0.0002182827    1.215    0.177
        16  -9.4103     76.7363      6.0762   3.5928143349e+01   6.5802363968e+01    0.3759991    0.2697421  47.19   0.00109694    1.324    0.245
        17  -9.6215     84.9621      4.9134   3.3063610048e+01   6.3790553579e+01    0.3270341     0.253344 -10.52   0.00046403    1.413    0.292
        18  -8.9498     42.6912      5.0055   4.9126047914e+01   7.3889129464e+01    0.3939573    0.2278692  47.41  0.001938499    1.652    0.395
        19  -7.5301    179.9501      5.0094   2.0602760501e+01   3.8519168828e+01    0.1638775    0.1402273 -62.68 0.0004511327    1.012    0.012
        20  -8.2792     92.1591      5.3422   3.1634545553e+01   6.1848307959e+01    0.3147978   0.09622782  59.88  0.001095597    2.675    0.626
        21  -7.6100    131.5219      4.5808   2.4889340014e+01   5.1225958889e+01    0.1421837    0.1295213  89.60 0.0001308254    1.027    0.026
        22  -9.3091     57.5984      3.2215   4.0602009270e+01   7.0802062556e+01     0.263804    0.2313069  15.34 0.0004100321    1.134    0.118
        23  -8.4680    153.4791      3.1082   2.2066750966e+01   4.5460771687e+01    0.2246589    0.1764491  72.37 0.0003461762    1.250    0.200
        24  -8.1652    125.5051      3.0268   2.4995430374e+01   5.2999829207e+01    0.2083239    0.1834189  87.03 0.0004357921    1.046    0.044
        25  -8.9827    110.2957      2.0344   2.6669489885e+01   5.7238623061e+01    0.4126159    0.2629555 -82.30  0.001938525    1.653    0.395
        26  -8.9963    142.8079      9.3489   2.5401411475e+01   4.7735114334e+01    0.2431858    0.2172237  68.66 0.0002829603    1.138    0.121
        27  -7.5190     55.6351    134.7150   8.8940195796e+01   4.1662245492e+01    0.1420865    0.1104058 -24.49 0.0004923552    1.691    0.409
        28  -8.7813    184.2070    250.4034   7.4391111466e+01   2.9321216419e+00    0.1489111   0.07525768  34.33  0.000816781    1.685    0.406
        29 -10.0264    151.7851    248.5061   7.9961270373e+01   6.8829425914e+00    0.3756568    0.1746737  23.44 0.0003191518    1.829    0.453
        30 -10.1258    152.7703    244.4020   7.9318339080e+01   7.2818643492e+00    0.3848109    0.1452494  38.09  0.001469694    2.204    0.546
        31  -8.5002     69.5011    131.9986   8.4010882121e+01   4.0412755888e+01    0.2121807    0.1215348  82.48  0.000810455    2.541    0.607
        32  -8.3154    163.9236    126.0605   5.7377819858e+01   2.4369089577e+01    0.2671901    0.2147502  -9.08 0.0009621797    1.354    0.262
        33  -7.3714    110.4472    126.4834   7.0504643488e+01   3.4757865417e+01    0.1479616    0.1437309  17.33 0.0002885896    1.067    0.063
        34  -7.7734     85.3295    121.3221   7.6915612485e+01   4.0521904673e+01    0.1523301    0.1194948 -17.70 0.0003913495    1.694    0.410
        35  -7.3077    142.6649    110.7257   5.8379488332e+01   3.1608361279e+01    0.1495931    0.1169307   9.89 0.0003199582    1.602    0.376
        36  -8.6148      2.6220    109.3227   1.0520408420e+02   5.3303276423e+01    0.3686771    0.1592598 -38.79  0.001482628    3.068    0.674
        37  -8.7183    247.4939    108.4803   4.0136038876e+01   1.2050074880e+01    0.1207123   0.09541017 -22.47 0.0002264352    1.009    0.009
        38  -8.2627    133.8963    106.3363   5.9373976197e+01   3.4361866065e+01     0.314883    0.2037751 -25.13  0.001320204    1.981    0.495
        39  -7.6420    123.9812    106.5589   6.1988598864e+01   3.6430783671e+01    0.2154505    0.1333976  21.67 0.0007239674    2.485    0.598
        40  -7.7187    109.2157    105.9797   6.5963731527e+01   3.9637706284e+01    0.2539534    0.1798006 -19.29  0.001066767    2.026    0.506
        41  -8.3337     13.9164    105.6406   1.0050564116e+02   5.3577691299e+01    0.2445813    0.1673285 -67.22 0.0006976632    1.368    0.269
        42  -8.5943     67.0937    104.3873   7.9502732797e+01   4.7796210780e+01    0.4393028    0.1830261  31.68   0.00157224    2.522    0.604
        43  -7.9551     64.3109    100.9826   7.9774867447e+01   4.9109439483e+01    0.2156293    0.1939787 -72.07 0.0006242124    1.081    0.075
        44  -7.7251     94.9566    102.5260   6.9440975903e+01   4.3294009999e+01    0.2400543    0.1513812  39.75  0.001028588    1.587    0.370
        45  -9.6414     12.2300     93.5567   9.9990060864e+01   5.6924687869e+01    0.5264146    0.2668066 -32.24  0.001807852    2.571    0.611
        46  -9.0599     16.7634     93.8309   9.8049781256e+01   5.6536982576e+01    0.4307829    0.3049216 -14.04  0.002222648    1.764    0.433
        47  -7.0954    119.7526     93.7014   5.9615916622e+01   4.0089060554e+01    0.1469936    0.1225832  -7.18            0    1.489    0.328
        48  -7.7715     83.2535     93.5476   7.0989648709e+01   4.7700623308e+01    0.2097401    0.1519735  26.81 0.0009399973    1.583    0.368
        49  -8.5853     43.9036     92.0116   8.5996879866e+01   5.4340852402e+01     0.391086    0.2418704 -20.84    0.0015984    2.473    0.596
        50  -8.3350     96.5119     90.6110   6.5674448061e+01   4.5771287321e+01    0.4865254    0.3164196  -5.36   0.00163803    3.417    0.707
        51  -9.3455    238.9933     83.3827   3.5637413509e+01   1.6626488987e+01    0.2587686     0.115115 -37.28  0.001279537    1.800    0.444
        52  -7.8591    125.8269     83.7414   5.5045141495e+01   4.0773251508e+01    0.2627817     0.175635   7.85 0.0006751054    2.798    0.643
        53  -8.8070     66.4564     84.0966   7.4687355603e+01   5.3059697804e+01    0.3251973    0.2089453  29.85  0.001424088    1.703    0.413
        54 -10.0246     38.1125     80.4518   8.6071790296e+01   5.8106480209e+01    0.6864897    0.3914104 -11.45  0.002597959    3.012    0.668
        55  -8.6723     20.9895     84.0548   9.4787309951e+01   5.8840729933e+01    0.2064405    0.1894456 -81.56            0    1.017    0.017
        56  -9.3919    246.9997     80.4347   3.4147775363e+01   1.5616353920e+01    0.3594363    0.0831618 -42.09  0.001281625    3.819    0.738
        57  -8.7377     88.6125     78.2545   6.4572525151e+01   5.0252196405e+01    0.6523685    0.3296511  25.87  0.002000985    3.696    0.729
        58  -9.5388      7.9042     77.2552   1.0014176052e+02   6.1550293626e+01    0.4523307    0.2411561 -46.00  0.001670651    1.911    0.477
        59  -8.1736    184.6133     77.9989   4.1384277609e+01   2.8173417640e+01    0.2093654    0.1594024 -33.20 0.0005941073    1.211    0.174
        60  -8.9348     48.6182     77.4881   8.0500171804e+01   5.7524936254e+01    0.3237978     0.240918 -39.68  0.001584245    1.446    0.308
        61 -10.1287     25.5557     70.8353   9.0103913128e+01   6.1974139078e+01    0.7406126    0.4550959 -37.07  0.003470495    1.814    0.449
        62  -7.8361     74.8024     74.3206   6.8415901516e+01   5.3933767675e+01    0.2154927    0.1425371  31.30 0.0004675221    1.687    0.407
        63  -6.9218    116.3635     68.2988   5.2577311401e+01   4.6077842589e+01    0.1606304    0.1239125  17.88 0.0007033834    1.721    0.419
        64  -7.0687    138.3394     67.6854   4.6952984483e+01   4.0812858209e+01     0.161691    0.1174918 -73.14 0.0002809251    1.700    0.412
        65  -8.0945    107.0313     66.1235   5.4476871153e+01   4.8739484048e+01     0.291105    0.2220933  60.56   0.00135992    1.352    0.260
        66  -7.4835    211.5741     64.4679   3.4178408609e+01   2.4323393684e+01    0.1339585    0.1137107 -38.92 9.908261e-05    1.013    0.013
        67  -8.7714     84.2520     63.4102   6.1025820178e+01   5.4483603149e+01     0.355368    0.2654904  20.79 0.0009236826    1.719    0.418
        68  -9.0321     18.6976     61.6050   9.1811971845e+01   6.4992670477e+01    0.4679725    0.2127152 -31.06  0.001779382    2.959    0.662
        69  -8.3393     12.4863     62.2744   9.5469907523e+01   6.5260092403e+01    0.3390476    0.1288736 -78.43 0.0007825943    2.579    0.612
        70 -10.4882     62.0805     61.0160   6.9171050037e+01   5.9432885727e+01    0.4403565    0.3149765  25.48 0.0003503338    1.603    0.376
        71  -8.6890    249.6797     58.6708   2.9062057875e+01   1.7751555753e+01    0.1803304    0.1325833   4.79  0.001110074    1.755    0.430
        72  -9.0895     37.7776     58.0989   8.0214129591e+01   6.3915394813e+01    0.3734909    0.2403805  -2.39  0.001632544    2.209    0.547
        73  -8.0686    111.3252     57.6957   5.0185109787e+01   4.9323694205e+01     0.279113    0.2543001  78.42 0.0009098665    1.112    0.101
        74  -8.3427    108.2382     56.9889   5.0790689510e+01   5.0214762541e+01    0.2327548    0.2203318  70.73   0.00024536    1.044    0.042
        75  -9.3238     99.7900     54.9266   5.2517791370e+01   5.2657020878e+01    0.3819983    0.2613249 -28.39 0.0005826565    1.656    0.396
        76  -8.8120     49.6339     58.6440   7.4218491772e+01   6.2092845344e+01    0.2705725    0.2380639  74.54 0.0002205565    1.260    0.207
        77 -10.3675     75.3029     49.7121   5.9039573186e+01   5.9291263373e+01    0.4320337    0.3355175  -3.85 0.0002243864    1.716    0.417
        78  -7.8881    118.8356     50.9042   4.5666939411e+01   4.8643274573e+01    0.2333283    0.2038888  29.24 0.0005696819    1.289    0.224
        79  -9.1479     44.6240     49.0434   7.3242896004e+01   6.5144347882e+01    0.5188541    0.3502259   4.46  0.001961624    2.073    0.518
        80  -7.9753    106.2268     48.8286   4.8201604786e+01   5.2192869223e+01    0.3150425    0.1928903  31.91  0.001236128    2.211    0.548
        81  -9.2225     54.6322     44.7465   6.6179942643e+01   6.4440861011e+01    0.6231362     0.291811 -32.41  0.002048658    3.184    0.686
        82  -8.4956     10.3186     47.0624   9.3641629498e+01   6.9339858078e+01    0.3681932    0.2091721 -63.31 0.0007245093    1.518    0.341
        83  -8.9404     13.5112     45.4738   9.1114095494e+01   6.9532759918e+01    0.2953686    0.2044722  62.52 0.0009749993    1.708    0.415
        84  -7.1617    157.3274     46.2649   3.6304020155e+01   3.9457465123e+01    0.1446712     0.111739  33.34  0.000280531    1.569    0.363
        85  -8.9168      3.5396     44.9824   9.7754051639e+01   7.0222634752e+01    0.3764921    0.2563206  39.84  0.002063518    1.633    0.387
        86  -7.5640    131.0000     42.9851   3.9942293906e+01   4.6760379396e+01    0.2444815   0.08567721 -31.23 0.0004577468    2.865    0.651
        87  -8.4385     33.9848     42.8087   7.6912825712e+01   6.8116459508e+01    0.2203573    0.1433892 -36.56  0.001017396    1.604    0.377
        88  -7.7013    113.9081     41.1335   4.3075755290e+01   5.1513960507e+01    0.2113798    0.1788604  29.28 0.0004487691    1.343    0.255
        89  -8.4762     94.7836     41.3739   4.8485245929e+01   5.6334451790e+01    0.2394169    0.1501459  56.94 0.0005078859    1.580    0.367
        90 -10.3264     83.5114     39.5150   5.1403321688e+01   5.9383359245e+01    0.5171136    0.2971656  40.99 -0.000131107    1.866    0.464
        91  -8.7373      3.6235     39.3029   9.6513732133e+01   7.1658190491e+01    0.3075399    0.1774167 -78.63    0.0012203    1.634    0.388
        92  -8.2741      3.2932     24.9329   9.2914002157e+01   7.5207213715e+01    0.3745657    0.1212862 -52.28  0.000358128    2.387    0.581
        93  -9.2151      4.9208     33.9162   9.4214667053e+01   7.2940365721e+01    0.3080334    0.2594886 -65.30  0.001145829    1.078    0.072
        94  -8.7182      1.2299     29.4367   9.5996165462e+01   7.4207574643e+01    0.3786081    0.1722914 -87.81  0.001616518    2.557    0.609
        95  -8.1849    124.0749     39.1937   3.9960606381e+01   4.9148462870e+01    0.2206224    0.1968388  38.25 0.0002476356    1.218    0.179
        96  -9.6562     19.7246     35.6454   8.3608646342e+01   7.1438062501e+01    0.5143247    0.3500075  40.24  0.002165057    1.630    0.387
        97  -9.1891     22.0272     31.9390   8.0416002179e+01   7.2076057010e+01    0.3539284    0.2595433 -30.37            0    1.376    0.273
        98 -10.0051     68.6000     36.1219   5.5592685576e+01   6.3384745293e+01    0.5546334    0.3956356  29.54   0.00262819    1.598    0.374
        99  -9.2037     55.0476     35.6955   6.1698886401e+01   6.6244525472e+01    0.5074186    0.3361839 -17.42  0.002223498    2.102    0.524
       100  -8.6854    105.3808     36.5915   4.3362559626e+01   5.4433023783e+01    0.3077236    0.2464271  30.92 0.0005253264    1.422    0.297
       101  -7.6531     35.6706     37.6606   7.3668867295e+01   6.9071452689e+01    0.1438737    0.1384426 -42.75 0.0003914883    1.051    0.048
       102  -8.9044     38.5745     35.1317   7.0681830882e+01   6.9205373878e+01    0.4369438     0.200313  27.66  0.001511337    2.577    0.612
       103  -7.7086     92.4159     36.4782   4.7041362250e+01   5.7741242330e+01    0.1494248    0.1441372  27.34 0.0001631105    1.075    0.070
       104  -8.9335     11.9489     33.6750   8.8695476520e+01   7.2568770250e+01    0.4187866    0.1762048  53.63  0.001312266    4.064    0.754
       105  -9.1745     96.3890     32.8243   4.4178059862e+01   5.7320827299e+01     0.283914    0.2591415  30.69 0.0002813358    1.160    0.138
       106  -8.7448     70.9219     29.9076   5.1467873555e+01   6.3965849237e+01    0.2520073    0.2031905 -18.82 0.0004559642    1.350    0.259
       107  -9.8585     71.0957     25.4223   4.9007139819e+01   6.4657453836e+01    0.5088147    0.3024531  41.60  0.001956554    1.729    0.421
       108  -9.2055     62.0850     26.0147   5.3145619785e+01   6.6586660054e+01    0.5162109    0.2831125 -17.61   0.00131894    2.897    0.655
       109  -8.4708     42.5888     27.6845   6.4357191166e+01   7.0100993432e+01    0.3710503    0.2476479   5.55 0.0005581217    2.176    0.540
       110  -8.9288    223.9728    249.0020   6.7737104663e+01  -1.1588220277e+00    0.1341724     0.110541  25.88  0.001138859    1.752    0.429
       111  -7.6313    109.5130     25.4896   3.7500711354e+01   5.4934390572e+01    0.1496776     0.141202 -86.16 0.0001224912    1.032    0.031
       112 -11.1383     80.6908     22.9952   4.4219787773e+01   6.2720964797e+01    0.5884878    0.2848741  43.50 0.0008738369    2.178    0.541
       113  -9.1752    206.6568    248.6887   7.0432250144e+01   6.6582921264e-01    0.1816972    0.1203853 -33.31  0.001388521    1.877    0.467
       114  -7.2873    150.3303     23.2716   2.9514944157e+01   4.4256086250e+01     0.144357    0.1061243  40.83 0.0005473717    1.587    0.370
       115  -9.8139    128.9068     22.0337   3.2255160951e+01   5.0142560475e+01    0.2566124    0.2365926 -61.63            0    1.054    0.051
       116  -7.3350    136.7110     22.6609   3.1241713143e+01   4.7963338130e+01    0.1485144    0.1099289  31.90 0.0003901531    1.641    0.391
       117  -9.2842     92.2009     20.5778   3.9492293147e+01   6.0133172857e+01    0.2952686    0.2528213  20.07  0.000561404    1.292    0.226
       118  -8.1566    166.5755     20.5310   2.6648091236e+01   4.0331778144e+01    0.2237788    0.1119467 -40.03 8.575453e-07    1.778    0.438
       119  -9.3380      8.5973     19.6534   8.6057506691e+01   7.6120350413e+01    0.3810005    0.2923072  13.08  0.001491068    1.376    0.273
       120  -9.8134    192.0569    249.4442   7.2939362474e+01   2.1665237462e+00    0.2889546   0.09588007  38.06  0.001469736    2.918    0.657
       121  -7.4450    146.6763     18.7225   2.8369120439e+01   4.5737743180e+01    0.1442697    0.1053307  41.35 0.0002406124    1.585    0.369
       122  -7.9913    127.7658     16.3625   3.0160713807e+01   5.1093516892e+01    0.2372293     0.182139 -42.48  0.000538192    1.286    0.222
       123  -9.5838    178.1693    246.8845   7.5012525973e+01   4.0069767509e+00    0.1568651    0.1199408  26.02 0.0006795286    1.259    0.206
       124 -10.1837    162.3379    245.3877   7.7666087423e+01   6.0228623803e+00    0.2965098     0.155262  17.31  0.001624893    1.790    0.441
       125  -8.4129    243.0024    246.0000   6.4493320679e+01  -2.7526805943e+00    0.1495441   0.04225849  31.22 0.0008052686    2.962    0.662
       126  -7.8027    151.1752     12.7407   2.5686877403e+01   4.5168068590e+01    0.1833871    0.1565125  49.95 0.0003790388    1.294    0.227
       127  -7.6166     71.4909    239.5092   9.5120779212e+01   1.7681490945e+01    0.1141834   0.08736081  35.84 -8.278264e-05    1.064    0.060
       128  -8.4232     88.4074     12.6317   3.6408671351e+01   6.2084425748e+01    0.2889362    0.1693607  61.80  0.001100135    1.588    0.370
       129  -9.0797    186.2099    237.1698   7.2388021706e+01   4.1935504213e+00      0.15345    0.1163685   9.24 0.0006564581    1.069    0.064
       130  -9.2175    188.2286    233.5654   7.1563332594e+01   4.3754061348e+00    0.1676521     0.154425 -25.84 0.0009395772    1.617    0.381
       131  -8.5181    109.0500     11.4866   3.1259455993e+01   5.6698051258e+01    0.3464112     0.144448  78.40  0.001222301    2.710    0.631
       132 -10.3317    119.6633    235.3286   8.4782451259e+01   1.2584204934e+01     0.206715    0.1850972   8.19 0.0004115818    1.223    0.182
       133  -8.3193    248.0703    221.0744   6.0259484111e+01  -9.3367001443e-01    0.1283358      0.10958  -1.71 0.0005516195    1.590    0.371
       134  -7.6346    129.0119    218.5176   8.0977602518e+01   1.3939610450e+01    0.1837648   0.09632406  33.19 0.0006278711    1.520    0.342
       135  -8.2574     11.6320    206.7651   1.0665706314e+02   2.9743646915e+01    0.1612521   0.08699233  73.05  0.000946974    1.683    0.406
       136  -8.4842      3.9482    205.0993   1.0837895732e+02   3.0712814962e+01     0.165216    0.1340436  51.94  0.000404023    1.104    0.094
       137  -7.9907    248.2624    202.3500   5.7374232359e+01   9.2606085346e-01    0.1257032   0.08449315  29.13 0.0003710631    1.576    0.365
       138  -8.1283    146.9520     14.0099   2.6627940387e+01   4.6163195080e+01    0.2199747    0.1918318 -78.75 0.0006746728    1.060    0.057
       139  -7.2010     71.4122    202.5020   9.2211111700e+01   2.4306927768e+01    0.1258895    0.1028629  45.52 0.0001238084    1.020    0.020
       140  -8.3608      7.1394    190.1947   1.0722678966e+02   3.3521161551e+01     0.209366    0.1373254  62.45 0.0003918666    1.230    0.187
       141  -8.4620    154.4785    171.3759   6.8580315917e+01   1.7985013040e+01    0.2402924     0.129169 -44.45 0.0006443742    2.011    0.503
       142  -7.4601    106.6855    151.7086   7.6518612057e+01   2.9824211652e+01    0.1402194     0.111512  -5.75 0.0003967312    1.593    0.372
       143  -7.8065    145.4925    150.5035   6.6665310240e+01   2.3284247665e+01    0.1388293    0.1292345  18.44 0.0008106082    1.012    0.012
       144  -7.6949     60.9094    149.7511   8.9324787561e+01   3.7240869363e+01    0.2809715    0.1735289  -0.31  0.001158781    2.727    0.633
       145  -7.6921    133.7062    147.9440   6.8925865264e+01   2.5892278534e+01    0.1952619    0.1832502 -34.62  0.000643152    1.117    0.105
       146  -8.2248    239.1202    141.9633   4.8011579738e+01   9.0768195405e+00     0.166371    0.1393322 -27.67 0.0004698428    1.249    0.200
       147  -8.8875     67.5340    144.2943   8.6557193563e+01   3.7663387876e+01    0.5650133       0.2395  49.89  0.002149815    2.449    0.592
       148  -7.5875    105.7998    138.0922   7.4220339112e+01   3.2993057741e+01    0.1913709    0.1681884   8.61 0.0004161568    1.277    0.217
