#   1 NUMBER                 Running object number                                     
#   2 MAG_AUTO               Kron-like elliptical aperture magnitude                    [mag]
#   3 X_IMAGE                Object position along x                                    [pixel]
#   4 Y_IMAGE                Object position along y                                    [pixel]
#   5 X_WORLD                Barycenter position along world x axis                     [deg]
#   6 Y_WORLD                Barycenter position along world y axis                     [deg]
#   7 A_WORLD                Profile RMS along major axis (world units)                 [deg]
#   8 B_WORLD                Profile RMS along minor axis (world units)                 [deg]
#   9 THETA_WORLD            Position angle (CCW/world-x)                               [deg]
#  10 FWHM_WORLD             FWHM assuming a gaussian core                              [deg]
#  11 ELONGATION             A_IMAGE/B_IMAGE                                           
#  12 ELLIPTICITY            1 - B_IMAGE/A_IMAGE                                       
         1 -15.2157     13.5812    150.7344   1.4148113873e+02   4.2403827760e+01     10.61257     3.661526 -86.34   0.03483459    4.875    0.795
         2 -13.4029    198.6571     27.9962   6.6363345132e+01   3.2296187139e+01     1.410334     1.297917  29.07  0.007169617    1.369    0.270
         3 -13.3762    213.8973      9.9976   6.0411873856e+01   3.0734788005e+01    0.9452986    0.8127729  68.76  0.006250643    1.235    0.190
         4 -11.4372      2.7324      8.1035   1.1269541384e+02   7.1400151516e+01    0.4176476    0.1299653 -38.65  0.002238934    2.464    0.594
         5 -10.0709    105.4828    246.4914   1.3325495519e+02   9.6105181397e+00    0.1261479    0.1024171  61.99 0.0001124294    1.013    0.013
         6 -12.4597    247.2467    247.9223   1.0688343952e+02  -1.3807093428e+01    0.6197128    0.5265408   3.95  0.004509824    1.161    0.139
         7 -12.4623    183.6177    246.9796   1.1840921197e+02  -3.6651586517e+00    0.6634697    0.4658974  64.26  0.003667399    1.938    0.484
         8 -10.1147    138.6855    250.0273   1.2741355655e+02   3.4982273909e+00    0.1758739    0.1542503  54.65  0.001166032    1.065    0.061
         9 -11.1356    123.6723    249.7596   1.3022025884e+02   6.0571654810e+00     0.501916    0.1251643  41.38   0.00179188    3.458    0.711
        10  -9.4419     66.0012    249.7108   1.4074359645e+02   1.4942029978e+01    0.1684108    0.1217966  62.12 0.0005378586    1.097    0.088
        11 -10.9271     46.5387    248.6821   1.4400666571e+02   1.7740548195e+01    0.2925897    0.1838443  86.67  0.001223223    1.355    0.262
        12 -10.8214     50.6945    244.4915   1.4296936300e+02   1.8001288275e+01    0.2127507    0.2000066 -57.01  0.001594961    1.674    0.403
        13 -11.0994     28.8804    248.5736   1.4692383802e+02   1.9928250669e+01    0.3459601    0.2243136 -67.41  0.001661237    1.708    0.414
        14 -12.4397     35.2650    243.5152   1.4552420678e+02   2.0128926867e+01    0.5304438     0.456434  32.14  0.003931268    1.803    0.445
        15 -10.2021     22.8015    245.6771   1.4772205959e+02   2.1176562049e+01    0.1476878    0.1240755  63.56 0.0007418265    1.385    0.278
        16 -11.6321      6.0835    240.9837   1.5011094624e+02   2.3873177970e+01    0.3007347    0.2145755 -65.49 0.0005386514    1.745    0.427
        17 -12.2272     12.3792    241.5782   1.4914674104e+02   2.3101785864e+01     0.619502    0.1930433 -72.49   0.00319978    2.691    0.628
        18 -11.2939     18.1861    241.4396   1.4820385630e+02   2.2499486110e+01    0.3526341    0.1367478  61.29   0.00137895    2.194    0.544
        19 -10.7515     16.7936    250.0030   1.4894048485e+02   2.1037106344e+01    0.2355818    0.1774614  41.18  0.001777589    1.733    0.423
        20 -11.6673      4.4762    249.6451   1.5082241765e+02   2.2418122688e+01    0.5812355    0.2292421  42.96  0.001254506    2.313    0.568
        21 -10.8359    100.3003    245.0015   1.3405827061e+02   1.0710821983e+01    0.2161986    0.1509412 -84.18  0.001072644    1.512    0.339
        22 -11.6266    184.0336    238.9673   1.1707814127e+02  -2.4887948743e+00    0.3653941    0.2168775  46.42  0.001417198    1.554    0.356
        23 -10.8065    230.3591    231.5554   1.0707345449e+02  -9.0988363432e+00    0.4719056    0.2710402 -60.49  0.001747222    5.281    0.811
        24 -11.3900     50.1940    235.2915   1.4229807805e+02   1.9863677561e+01     0.328441    0.2275558  87.93  0.001828589    1.209    0.173
        25 -14.0789    101.9289    228.9229   1.3186381011e+02   1.3546687565e+01      5.18186    0.1423801  46.19  0.009328856   13.145    0.924
        26 -10.6051    169.4863    250.3230   1.2159492660e+02  -1.7859504949e+00    0.3180132   0.09691969  40.10  0.001228911    2.814    0.645
        27 -10.1864      4.2496    228.4194   1.4968904087e+02   2.6487786448e+01    0.1476333   0.07579794  55.17 0.0009497103    1.634    0.388
        28 -11.6062     58.5748    197.9421   1.3697531585e+02   2.6661815502e+01    0.3084109    0.2281906 -66.60 0.0005652316    1.317    0.241
        29 -10.2774     78.7083    218.5515   1.3524039483e+02   1.9310126053e+01    0.2797166    0.1826717  77.64  0.001174606    1.506    0.336
        30  -8.6195    152.4735    212.8935   1.1917671073e+02   7.8244849593e+00    0.1806741    0.1390397 -54.80 0.0003954593    1.425    0.298
        31 -12.5107      9.9426    206.9354   1.4731158737e+02   3.0298502369e+01    0.6023124    0.4247223  31.94  0.002959385    1.922    0.480
        32 -11.5929     11.8043    232.1953   1.4867446921e+02   2.4977083890e+01    0.3052218    0.1545182 -76.87   0.00168081    1.648    0.393
        33  -9.8820    192.7699    194.8007   1.0750159260e+02   3.5672039986e+00    0.7124638    0.3162932 -60.79  0.001730262    7.554    0.868
        34 -10.7621     10.3079    194.4181   1.4630279288e+02   3.2927811311e+01    0.2546781    0.1619723  61.50 0.0006003697    1.431    0.301
        35 -11.9093     65.1335    189.6239   1.3456503248e+02   2.7648851548e+01     0.290323    0.2369183 -58.80 0.0004265007    1.342    0.255
        36 -11.0934      2.1824    182.7335   1.4695008313e+02   3.6187167986e+01     0.405048    0.1219495 -74.67  0.001854585    2.545    0.607
        37 -10.8268     75.6655    176.8713   1.3043438318e+02   2.9094732603e+01    0.2525781    0.2140088 -73.48 0.0003850809    1.098    0.090
        38 -13.2386     62.2486    174.7974   1.3323463307e+02   3.1483813565e+01    0.5306202    0.2787794 -46.53  0.001865358    2.311    0.567
        39 -12.7528     31.1293    231.6178   1.4536362213e+02   2.2951836603e+01    0.2971946    0.2317393 -78.72 0.0007291253    1.326    0.246
        40  -9.7029     95.6610    172.2400   1.2499168154e+02   2.7028241076e+01    0.2895434    0.2009968  56.58 0.0003998283    1.456    0.313
        41 -11.7527     83.4471    167.7607   1.2716326880e+02   3.0065538018e+01     0.634149    0.6180457 -86.85  0.003873596    1.173    0.148
        42 -13.8534     36.4732    224.6226   1.4387436484e+02   2.3733920488e+01    0.7408391    0.5513163  77.46   0.00240593    1.017    0.017
        43 -10.0995     96.4523    152.1869   1.2113541922e+02   3.1666395190e+01    0.2985685    0.2659301 -50.49 0.0007234984    1.160    0.138
        44 -12.0559     84.9468    151.0198   1.2384298145e+02   3.3837863951e+01    0.3035902    0.2486029 -46.24 0.0005269839    1.284    0.221
        45  -9.1929     99.6256    147.9691   1.1948600952e+02   3.2127717198e+01     0.211826    0.1727495 -58.14 0.0004637815    1.159    0.137
        46 -12.1732     67.3750    143.5775   1.2701859843e+02   3.8230936974e+01    0.6826597    0.4484634  67.58  0.002990633    1.861    0.463
        47  -9.5939    108.6758    137.1152   1.1482416952e+02   3.3076122004e+01    0.4796049    0.3084464 -18.46  0.001800379    2.873    0.652
        48 -10.4654     95.7108    134.3370   1.1764075714e+02   3.6053817220e+01    0.2552543    0.2253776 -38.41 0.0003602063    1.194    0.163
        49 -11.3970     25.7207    128.4160   1.3551049594e+02   4.6518133153e+01    0.4339772    0.2162803  51.96  0.001308525    2.543    0.607
        50 -11.2740     20.2284    125.5567   1.3654341311e+02   4.7642701843e+01    0.2762063    0.2103319  79.95 0.0009579837    1.406    0.289
        51  -9.2973     76.1827    129.1071   1.2183158437e+02   4.0426032274e+01    0.2498741    0.1698957  67.32  0.000615105    1.907    0.476
        52  -8.8779    106.0628    123.7570   1.1242213040e+02   3.6683351252e+01    0.1893714    0.1887511 -29.14 0.0002383628    1.066    0.062
        53 -10.1896     81.8299    124.6676   1.1930716698e+02   4.0614358011e+01    0.3265491    0.2297047  64.68 0.0009912322    1.787    0.440
        54  -9.1085     53.6580    120.3222   1.2635833515e+02   4.5514841829e+01    0.1362112   0.09918199  79.05 0.0006626141    1.726    0.421
        55 -10.4178    167.8748    112.9582   9.4270728371e+01   2.5766899644e+01    0.3222739    0.2714173 -77.86 0.0005382429    1.334    0.250
        56  -9.3906    203.4544    111.5102   8.6647721998e+01   1.7683380744e+01     0.151457    0.1455155 -47.71 5.211554e-05    1.042    0.040
        57 -10.5104     42.0330     96.6815   1.2482409112e+02   5.2171958495e+01    0.4445379    0.2293113  51.49  0.001996342    2.959    0.662
        58  -8.5587     65.1707     81.4147   1.1347987796e+02   5.2620725854e+01    0.1714289    0.1250969  46.38 0.0006227157    1.658    0.397
        59  -9.5852    158.5042     77.0286   8.6521823412e+01   3.4936758973e+01    0.2293884    0.1496987 -37.35 0.0006101569    1.567    0.362
        60  -8.9501     56.9811     75.4806   1.1448590527e+02   5.4898011365e+01    0.1739406    0.1273099  30.09 0.0004649553    1.507    0.336
        61  -9.5463     47.6673     69.9891   1.1607575060e+02   5.7102782907e+01    0.2024398    0.1685486  47.33 0.0007061075    1.569    0.363
        62 -12.5925      5.7224     50.5962   1.2606248816e+02   6.4400559258e+01    0.5064345    0.3790433 -65.85  0.002381867    1.559    0.359
        63 -10.5905    163.1140    249.3693   1.2267077357e+02  -5.5020686049e-01     0.268155    0.1389042  51.89  0.001312271    1.902    0.474
        64 -10.1448     81.8336    249.0845   1.3787518006e+02   1.2780482685e+01    0.1976568    0.1328941  68.47 0.0008239141    1.269    0.212
        65 -11.0085      3.1806     38.2670   1.2350720781e+02   6.6738254957e+01    0.2265159    0.1697482 -59.94  0.001386452    1.573    0.364
