#   1 NUMBER                 Running object number                                     
#   2 MAG_AUTO               Kron-like elliptical aperture magnitude                    [mag]
#   3 X_IMAGE                Object position along x                                    [pixel]
#   4 Y_IMAGE                Object position along y                                    [pixel]
#   5 X_WORLD                Barycenter position along world x axis                     [deg]
#   6 Y_WORLD                Barycenter position along world y axis                     [deg]
#   7 A_WORLD                Profile RMS along major axis (world units)                 [deg]
#   8 B_WORLD                Profile RMS along minor axis (world units)                 [deg]
#   9 THETA_WORLD            Position angle (CCW/world-x)                               [deg]
#  10 FWHM_WORLD             FWHM assuming a gaussian core                              [deg]
#  11 ELONGATION             A_IMAGE/B_IMAGE                                           
#  12 ELLIPTICITY            1 - B_IMAGE/A_IMAGE                                       
         1 -13.5429    222.7671     47.0254   3.5712641142e+02   2.5262965252e+01    0.8664177     0.774094  56.74  0.001781565    1.439    0.305
         2 -11.8578    249.1087     23.3881   3.5033046146e+02   2.3235392500e+01    0.5818387    0.3533686 -20.31  0.003102686    2.038    0.509
         3  -9.8331      2.1342      3.3019   4.7848291025e+01   7.9583501851e+01    0.3700908    0.0582112 -52.56  0.001195962    5.064    0.803
         4 -10.0778     67.4818    240.7797   6.5690751840e+01   1.5447173504e+01    0.2911746    0.1758866 -72.52  0.001693549    2.038    0.509
         5 -10.0942     75.0000    248.5424   6.4601435301e+01   1.3201650654e+01    0.4022902    0.1767994 -52.25  0.002047077    2.827    0.646
         6 -12.8134     43.7262    242.9870   7.1221501803e+01   1.7578899539e+01     1.009065    0.5359791  28.48  0.001130423    1.534    0.348
         7 -13.7824     41.9851    230.4652   7.0891032600e+01   2.0193322275e+01     4.275234      1.47333  15.63    0.0144894    4.611    0.783
         8 -13.4722     55.1051    232.8396   6.7966265312e+01   1.8330205711e+01     1.751401    0.6414698 -55.08  0.007124277    3.281    0.695
         9 -13.9914     54.2998    217.9050   6.7052991981e+01   2.1452033410e+01     1.950635      1.13495 -45.27  0.005448648    2.237    0.553
        10 -15.5130      6.9211    143.7373   7.5240989912e+01   4.4022353326e+01     10.64329     1.931193 -84.48   0.02624945    6.301    0.841
        11  -9.4123    108.3652    239.7722   5.6377880202e+01   1.0833156742e+01    0.1570891    0.1088216 -40.30 0.0009522032    1.715    0.417
        12 -10.0687    103.2109    238.4488   5.7385958239e+01   1.1686262964e+01    0.2799765    0.1739134 -38.10  0.001089919    1.985    0.496
        13 -10.3666     72.7738    232.9882   6.3841058468e+01   1.6312302746e+01    0.2294846    0.2074634  39.96 0.0005378938    1.112    0.101
        14 -12.3284    128.5530    229.0634   5.0682721202e+01   1.0164085170e+01    0.7143621    0.2524765  36.74  0.003116652    2.408    0.585
        15 -12.1971    106.6107    229.4447   5.5646511770e+01   1.2869938869e+01     0.745114    0.2953337  30.31    0.0033882    2.045    0.511
        16  -9.7519     72.5874    225.2677   6.3211364684e+01   1.7838014746e+01    0.2266684    0.1867417  26.64  0.000438868    1.107    0.097
        17 -10.7829    163.9674    221.8964   4.2227726219e+01   6.8532501927e+00    0.4747107    0.1930752 -49.56  0.002183558    3.017    0.669
        18 -10.2226    174.8267    222.7656   4.0201679312e+01   5.3770876251e+00     0.235327    0.1529115   0.89 0.0008173052    1.504    0.335
        19  -8.8678    198.4673    240.5686   3.8370412490e+01   2.1777076116e-01    0.1115999   0.08242989   2.62 0.0001182753    1.012    0.012
        20  -8.6178    131.9838    211.5061   4.7584082882e+01   1.2813766016e+01     0.186769    0.1131468  28.60 -0.0001430452    1.438    0.305
        21 -13.4716     18.7863    237.3319   7.6557711867e+01   2.1076314966e+01    0.7118474    0.3426474  66.21 0.0004617504    1.978    0.494
        22  -9.8094    210.9159    198.8803   2.9820607109e+01   4.4959357004e+00    0.2071594    0.1495158 -10.65 0.0005037774    1.159    0.137
        23  -9.6015    191.4455    192.1651   3.2153603699e+01   7.9818624018e+00    0.3512067    0.2259462 -69.22  0.001300983    5.624    0.822
        24  -9.1790     72.9845    190.9674   5.9605674999e+01   2.5135325637e+01    0.2071788    0.1904461  35.89  0.000358283    1.049    0.046
        25 -14.3925     12.3533    246.0130   7.8264709578e+01   1.9982017024e+01     1.046727    0.6998383 -73.92  0.007031597    1.782    0.439
        26 -10.1786    129.2024    188.5749   4.4780281652e+01   1.7607646860e+01    0.2031295    0.1238457  20.08 0.0009566982    1.715    0.417
        27 -10.7239    116.4887    182.2512   4.6893441476e+01   2.0849975316e+01    0.2910684    0.1956365 -31.20  0.001413485    1.737    0.424
        28  -9.4031     94.2581    183.3157   5.2857742411e+01   2.3945474883e+01    0.2493945    0.2130262  73.81 0.0004713225    1.314    0.239
        29  -9.1017     83.3111    180.6859   5.5473622865e+01   2.6117958721e+01    0.2347685    0.1734776 -86.39 0.0005519226    1.606    0.377
        30 -15.2503      5.0437    233.8829   7.9511539155e+01   2.2948881775e+01     1.478582    0.7899186 -78.29  0.008719205    2.054    0.513
        31 -10.9692    179.8147    165.9135   2.9617840600e+01   1.4048646923e+01    0.5834516    0.4184194 -55.64  0.003145526    1.771    0.435
        32 -10.6934    172.1426    173.8674   3.2650184978e+01   1.3822600181e+01    0.4216726    0.2682524  31.93  0.001971666    1.560    0.359
        33 -11.1835    174.3753    170.1414   3.1501950921e+01   1.4143924142e+01    0.4472726    0.2713768  48.92  0.002194184    2.093    0.522
        34 -10.7168    101.1700    169.9970   4.8934862883e+01   2.5949727781e+01    0.4976285    0.1955928  44.88  0.001774445    2.646    0.622
        35  -8.4358     79.7591    173.3724   5.5457489060e+01   2.8354267174e+01    0.1467809    0.1052007  69.49 0.0006929262    1.619    0.382
        36 -11.7390     81.8779    145.0155   5.0278019678e+01   3.5081037623e+01     3.357274     1.684206 -58.03  0.009567813    2.007    0.502
        37 -11.7519     59.2013    160.9955   5.9894505989e+01   3.4238419977e+01    0.5503544    0.3900289 -16.67  0.002059424    1.917    0.478
        38 -11.9466     64.3037    157.0468   5.7759141858e+01   3.4577766205e+01    0.7833661    0.5319732 -33.22    0.0035804    1.858    0.462
        39 -13.4276     61.0566    145.0936   5.7021445760e+01   3.8137314021e+01     1.095724    0.7689381 -24.77  0.001153273    1.875    0.467
        40  -9.4576    110.4807    166.8291   4.5876152047e+01   2.5192886682e+01    0.2595892    0.2105409  61.63 0.0004418304    1.403    0.287
        41  -8.8767    141.8667    163.3744   3.7314364988e+01   2.0722661294e+01    0.2319621    0.1856641 -55.20 0.0006095987    1.386    0.278
        42 -12.5079     74.4467    149.9776   5.3476859935e+01   3.4953489714e+01    0.6767773      0.46915  30.71  0.000467465    1.413    0.292
        43 -13.3519     56.4832    127.6741   5.5716433837e+01   4.3419001820e+01     1.866085     1.390035  88.92  0.001046602    1.468    0.319
        44 -10.4805    134.3106    148.0392   3.6083695929e+01   2.5275437038e+01    0.5478799    0.2623983 -57.77  0.002035792    2.634    0.620
        45  -9.9068     47.2960    146.7344   6.1853270620e+01   3.9460250053e+01    0.3062649    0.2318356  31.71  0.001547002    1.299    0.230
        46 -11.2203     36.6922    142.3193   6.4909257675e+01   4.1841917309e+01    0.7162945    0.3208394  63.02  0.002543731    2.871    0.652
        47 -10.4009    108.9874    145.3671   4.2252799575e+01   3.0426429150e+01    0.2864775    0.2664922  37.16 0.0006637127    1.049    0.047
        48  -9.0652    100.5652    143.3022   4.4263325716e+01   3.2397644940e+01    0.2698968    0.1531496 -61.99  0.000708618    1.958    0.489
        49  -8.8069     27.9287    144.4601   6.8161849870e+01   4.2140141377e+01    0.2057189    0.1382275  24.89 0.0005930966    1.518    0.341
        50 -10.1104     46.1957    139.6030   6.1257422864e+01   4.1507449880e+01     0.291634    0.2087884  67.21  0.001067081    1.463    0.316
        51 -10.1708     74.1769    135.6207   5.1032222955e+01   3.8712350537e+01    0.4134192     0.267361  58.23  0.001460937    1.761    0.432
        52 -10.3456     98.0056    133.6988   4.3043867755e+01   3.5197603691e+01    0.6080505    0.3807036   4.41  0.002196623    2.840    0.648
        53  -8.3757    125.4800    134.0126   3.5312565435e+01   3.0011616889e+01    0.2103492    0.1362889 -75.63 0.0008085328    2.473    0.596
        54 -11.6970     84.8079    131.8964   4.6808011971e+01   3.7947613493e+01     0.299031    0.2888199 -62.99  0.000392449    1.051    0.048
        55 -10.1094    105.7708    130.4995   4.0019962430e+01   3.4557815394e+01    0.3766738    0.3411997 -74.68  0.001076727    1.167    0.143
        56  -9.4531    108.7134    126.2033   3.8179497569e+01   3.5029248749e+01    0.2932821    0.2466809  11.34 0.0008472336    1.365    0.267
        57 -10.1079    131.6168    129.7807   3.2756544446e+01   2.9767168206e+01    0.5048197     0.270659 -65.94  0.001573924    3.175    0.685
        58  -9.6878    136.1565    128.7801   3.1383292750e+01   2.9096713042e+01    0.3827198    0.1029163 -44.49  0.001104109    3.696    0.729
        59 -10.7905     24.2024    128.5558   6.7783736930e+01   4.6812623902e+01    0.5277209    0.2789213  81.33  0.001588616    2.114    0.527
        60 -10.7548     43.9372    130.7579   6.0779652135e+01   4.4177263050e+01    0.3849957      0.21357 -65.67  0.001650343    1.725    0.420
        61  -8.6711    219.1685    126.1338   1.4864869250e+01   1.4441089530e+01    0.1709357    0.1300979 -48.01 0.0005529518    1.320    0.242
        62  -9.3088     32.4914    124.4747   6.4146028202e+01   4.7153440576e+01    0.1462345    0.1378695  89.94 2.212949e-05    1.015    0.015
        63  -8.5512    126.9758    122.0035   3.2117518271e+01   3.2405051876e+01    0.1833859    0.1749169 -45.62 0.0003986406    1.039    0.037
        64 -10.6904     95.3347    121.2833   4.1099767576e+01   3.8747753659e+01    0.3319085     0.266901  24.42 0.0006954692    1.344    0.256
        65  -9.5466     87.1212    121.1934   4.3733556798e+01   4.0266119401e+01    0.2700145    0.2214392 -89.19 0.0005623991    1.391    0.281
        66  -8.5668    115.6572    121.6603   3.5113069246e+01   3.4742958576e+01    0.1621443     0.123604  -8.50 -0.0003245242    1.775    0.437
        67 -10.3300     40.3078    120.6480   6.0577642480e+01   4.7367052005e+01    0.2799124    0.1661847  40.39  0.001231541    1.657    0.396
        68 -10.9854     28.1269    118.8176   6.5065920580e+01   4.9139292307e+01    0.3764124    0.2803752  56.96 0.0007630188    1.359    0.264
        69 -12.3245     69.8065    144.8141   5.4102460518e+01   3.6973338701e+01    0.6082981    0.4429719  66.27  0.002437885    1.523    0.344
        70 -15.3719     26.6030    177.4000   7.1406653578e+01   3.3699857667e+01     7.492012     2.388705  59.22   0.01950319    3.775    0.735
        71  -8.2775    135.3347    119.3122   2.9325968183e+01   3.1300353236e+01    0.1548298    0.1207271  -2.02  0.000704503    1.683    0.406
        72 -10.9741    244.5230    115.1192   9.3315498167e+00   1.2197924584e+01    0.3539916    0.1822512 -57.43  0.001674697    3.009    0.668
        73  -9.2728    105.8863    116.0089   3.6571394469e+01   3.8001711575e+01    0.2234574    0.2220689 -55.44 0.0003105683    1.020    0.019
        74 -10.2619    122.4722    115.4079   3.1689546842e+01   3.4791464481e+01     0.447389    0.2908495 -78.65  0.001205932    2.585    0.613
        75 -10.9531     33.0823    108.6763   6.1523494590e+01   5.1446925577e+01    0.5123971     0.290752 -52.68  0.002242936    1.703    0.413
        76  -9.2569     28.9696    108.2219   6.3171915344e+01   5.1983072860e+01    0.2427256     0.164732  60.31  0.000404937    1.588    0.370
        77 -11.2742     15.6080     99.2124   6.7640371784e+01   5.5584184694e+01    0.5640407    0.3009999  39.09  0.002131031    1.916    0.478
        78 -11.0712     24.1233    104.9753   6.4732673524e+01   5.3322676763e+01    0.5120807    0.3608488 -63.16  0.001596043    1.318    0.241
        79 -10.3935     19.4817    102.5508   6.6391938132e+01   5.4376186365e+01    0.2560444    0.2355054 -11.65 0.0005489556    1.187    0.158
        80  -8.3048    212.1945    105.9857   1.1565150861e+01   1.8768010629e+01    0.1727484   0.08671106 -37.42 0.0003835336    1.675    0.403
        81 -10.5461     52.3736    104.6491   5.2769786902e+01   5.0196146011e+01    0.3353116    0.3029152  36.25  0.001769652    1.124    0.110
        82 -10.4238     54.7197     96.8888   5.0016085829e+01   5.1919508656e+01    0.2763284    0.2148777  15.37  0.001325592    1.431    0.301
        83  -8.3372     81.6962     95.3059   3.9065608936e+01   4.7728789520e+01    0.1588977    0.1230129  77.10 0.0003323164    1.601    0.375
        84  -9.7576     23.1420     95.1353   6.3599804636e+01   5.6105414803e+01     0.297935    0.1713662 -46.92  0.001064874    1.719    0.418
        85  -8.3890    103.5106     92.5125   3.0953793062e+01   4.3944324126e+01     0.160109    0.1479422  86.77 -8.736215e-05    1.127    0.113
        86 -10.1194     42.6985     88.9653   5.3341929247e+01   5.5668451497e+01    0.2786972    0.2100496  39.99 0.0004965816    1.359    0.264
        87 -10.2404    246.7583     87.9864   3.6562414953e+00   1.5631778150e+01    0.1656563   0.07860335 -35.76 0.0007830373    1.628    0.386
        88 -14.9750     41.2626    172.7717   6.6702099554e+01   3.3369696999e+01     8.616737     1.079972  40.51   0.02393334    4.615    0.783
        89 -10.0887     40.7681     83.0930   5.2788012552e+01   5.7453978171e+01      0.37981    0.1946666  47.66  0.001497106    2.245    0.555
        90  -9.9168    240.5021     83.4941   3.3618159078e+00   1.7251107599e+01    0.1207988   0.09442135 -40.86 -0.000110135    1.014    0.014
        91  -8.9160     23.6715     77.3539   5.9912811828e+01   6.0831315411e+01    0.2173064    0.1538285  61.18 0.0005641266    1.649    0.394
        92  -8.3368     65.6516     73.6966   3.8750067794e+01   5.5908927183e+01    0.1570848    0.1202705  -8.80 0.0004334983    1.695    0.410
        93  -9.4377     30.9507     72.4812   5.4934278586e+01   6.1363431619e+01    0.2327577    0.2033914  75.07  0.001202167    1.278    0.218
        94  -9.4890     27.4114     69.4640   5.6027959181e+01   6.2513068869e+01    0.2691115    0.1088964  36.10   0.00102797    2.492    0.599
        95  -9.4157     81.9989     70.1380   3.1063083557e+01   5.3482299411e+01     0.261685     0.222072 -57.37 0.0007003915    1.226    0.184
        96  -9.3566     59.5218     69.4858   4.0004370096e+01   5.7988567347e+01    0.1474999    0.1468439  24.58 0.0008100002    1.024    0.023
        97 -10.5055     18.8139     66.3719   6.0026756896e+01   6.4107413852e+01    0.3577662    0.2044716  44.56  0.001628274    1.983    0.496
        98 -12.1403    200.0528     62.0397   2.9207255374e+00   2.7765534447e+01    0.4958652    0.4302532  58.20  0.001299873    1.352    0.260
        99 -13.0955    210.9861     55.3746   1.3513932582e-01   2.6472655830e+01    0.9287406    0.7845042 -41.54  0.003272824    1.130    0.115
       100  -9.4084    124.8481    248.6085   5.3771622778e+01   7.4140344346e+00    0.1907953   0.08125762 -50.97 0.0008441425    2.802    0.643
       101 -11.5770      8.5042     44.1590   6.0683800576e+01   7.0380695819e+01    0.3589635    0.2885803  65.83 0.0008897671    1.526    0.345
       102  -9.9425     64.8931     58.0939   3.3479181910e+01   5.9528403534e+01    0.2243766    0.2001983  78.89 0.0005005024    1.291    0.226
       103 -11.2017    249.4928     28.5088   3.5134030411e+02   2.2605372052e+01    0.4193837    0.1969988 -30.06  0.002210801    1.933    0.483
       104  -9.5478    101.4377    248.2150   5.8753361213e+01   1.0226681637e+01    0.1951321    0.1125103 -51.25  0.001131346    2.110    0.526
       105  -9.7961     28.4807     32.4603   4.1964938312e+01   7.0956330744e+01    0.1343587    0.1234233  -3.74 3.504517e-05    1.026    0.026
       106 -10.6727     12.2929     30.0205   5.2797616061e+01   7.3321873080e+01     0.271098    0.1752985  32.03 0.0009444198    1.631    0.387
       107 -16.2013      5.6224    216.2001   7.8861490886e+01   2.6544255748e+01     2.906132     1.709872  43.95   0.01727756    1.322    0.243
       108  -9.5597     60.6271     21.3013   1.8215234632e+01   6.6937898803e+01    0.2429444    0.2036484  56.38 0.0006030665    1.172    0.147
       109 -14.6474     10.0947    206.3642   7.7425717668e+01   2.8322647303e+01     0.996418    0.6331928   7.73  0.002913235    1.922    0.480
       110  -9.9156      2.0516     22.0371   5.8207668514e+01   7.5832239696e+01    0.1911104    0.1482363  55.81  0.001131025    1.702    0.413
       111 -11.0575     18.9190     45.7193   5.3991986145e+01   6.9169458916e+01    0.3328893     0.225086  -4.20  0.001161776    1.610    0.379
