#   1 NUMBER                 Running object number                                     
#   2 MAG_AUTO               Kron-like elliptical aperture magnitude                    [mag]
#   3 X_IMAGE                Object position along x                                    [pixel]
#   4 Y_IMAGE                Object position along y                                    [pixel]
#   5 X_WORLD                Barycenter position along world x axis                     [deg]
#   6 Y_WORLD                Barycenter position along world y axis                     [deg]
#   7 A_WORLD                Profile RMS along major axis (world units)                 [deg]
#   8 B_WORLD                Profile RMS along minor axis (world units)                 [deg]
#   9 THETA_WORLD            Position angle (CCW/world-x)                               [deg]
#  10 FWHM_WORLD             FWHM assuming a gaussian core                              [deg]
#  11 ELONGATION             A_IMAGE/B_IMAGE                                           
#  12 ELLIPTICITY            1 - B_IMAGE/A_IMAGE                                       
         1 -11.8542    120.0321    103.6576   8.9497425626e+01   3.7996611430e+01     2.195577     1.660996 -67.60   0.01033027    1.571    0.363
         2 -10.2043    218.8902     34.1659   4.8986657415e+01   2.5851651102e+01    0.4474798    0.2185207 -57.82  0.001762877    2.498    0.600
         3 -10.7877     65.9300     20.4617   7.7124671871e+01   6.3454184475e+01    0.6721162    0.3908715  -2.40  0.003238081    2.107    0.525
         4 -10.5960     91.5996      7.8196   6.2936010869e+01   6.0141279764e+01    0.4967462    0.3542604  28.43  0.002824768    1.254    0.203
         5 -10.7494     68.1047      7.2416   6.9983154642e+01   6.4728928151e+01    0.5508259    0.3337259  12.45  0.002937097    1.703    0.413
         6 -10.1998    100.2919      3.2546   5.8606906346e+01   5.8709305469e+01    0.4538696    0.2506197  22.36  0.002159485    1.932    0.482
         7  -8.9585      2.3281      3.3185   9.8163783822e+01   7.3434304014e+01    0.2330333    0.1653595 -14.04   0.00174074    1.220    0.180
         8  -9.8020     40.3997      3.6148   7.8994472894e+01   6.9495766385e+01    0.4589415    0.2413899  -5.25  0.002145843    2.269    0.559
         9  -8.2096     23.0285      1.6977   8.6196413625e+01   7.1860483950e+01    0.2238185    0.1131216   7.41  0.001152258    2.547    0.607
        10  -8.8973     18.3157      5.8081   9.0781902268e+01   7.1748579306e+01    0.2212317    0.1440846 -34.79   0.00147895    1.288    0.224
        11  -9.4870    240.4333    219.2229   8.8945870005e+01  -6.0606466000e+00    0.2658742    0.1086647 -33.70   0.00130174    2.633    0.620
        12 -10.1330     56.0032    216.7488   1.2272867677e+02   2.3546166818e+01    0.2084951     0.135936 -81.11  0.001395015    1.423    0.297
        13  -7.2172    101.0467    215.0381   1.1422410491e+02   1.7668675517e+01    0.1384506    0.1130365  60.66            0    1.020    0.019
        14 -10.3249    233.3913    211.4871   8.8792719773e+01  -4.0142942044e+00    0.3774154    0.3317789  39.75  0.001871561    1.431    0.301
        15  -9.7052      6.4919    208.5224   1.3076292618e+02   3.0400101520e+01    0.2342154    0.1491757  60.40  0.001037866    1.269    0.212
        16  -9.4125    245.4181    206.0881   8.5740779984e+01  -5.2752226730e+00    0.4872153    0.1501365  31.22  0.001715863    4.057    0.754
        17 -10.8416     11.2321    206.7253   1.2986971347e+02   3.0301055382e+01    0.4551589    0.3703337  44.18  0.002318079    1.544    0.352
        18  -9.5170    124.0007    205.9945   1.0862791132e+02   1.5680962974e+01     0.181889    0.1562385  57.97  0.001167134    1.012    0.012
        19  -7.4406     88.2798    206.7138   1.1573944678e+02   2.1114892957e+01    0.1223486    0.0789981  69.70 0.0001998356    1.518    0.341
        20 -11.0344    192.6184    194.8729   9.3259713088e+01   5.3809844333e+00    0.9726939    0.5308475 -60.04  0.003728832    3.947    0.747
        21  -7.9006    139.2329    199.0020   1.0456277154e+02   1.4359688919e+01    0.1650662    0.1566937  65.52  0.001065423    1.086    0.080
        22  -8.4974    133.0117    199.0155   1.0582387179e+02   1.5436775259e+01    0.1851968    0.1627516  55.34            0    1.012    0.012
        23  -9.3089    226.4212    195.7598   8.7128240891e+01  -7.9066579705e-01    0.4607613    0.2522312   6.96  0.001783578    2.826    0.646
        24 -11.4247    191.4516    152.4780   8.4895706362e+01   1.2797437119e+01     1.057322    0.5428255 -55.68  0.003798162    3.126    0.680
        25 -12.1416    236.9570    145.5522   7.4735423866e+01   4.6902289866e+00     1.557857    0.7544692 -17.68  0.005896741    2.792    0.642
        26  -9.4837    176.0126    187.9735   9.5263449635e+01   9.5976539521e+00    0.2700958    0.1973846 -38.54  0.001468658    1.498    0.332
        27 -10.5899    239.0336    184.9432   8.2786670313e+01  -1.4824887882e+00    0.5097027    0.3182269  18.37  0.002686839    1.633    0.387
        28 -10.1337    182.1696    181.4015   9.2794850346e+01   9.5513064087e+00    0.5120201     0.294673 -26.86  0.002305673    2.181    0.541
        29 -11.7437    193.9763    172.0876   8.8586434943e+01   8.8471023651e+00     1.117258    0.6410212 -50.78  0.004713717    2.220    0.550
        30 -11.4031    177.9927    172.7178   9.1944931686e+01   1.1884755781e+01    0.8984264    0.6027789 -62.35  0.004164641    2.141    0.533
        31 -11.7026    182.7701    170.1880   9.0455941126e+01   1.1390809311e+01     0.773248    0.7401855 -65.52  0.004574122    1.225    0.184
        32  -9.8925    188.0763    175.3313   9.0419751180e+01   9.4486618621e+00    0.4091743    0.3322133 -39.13  0.001759256    1.326    0.246
        33  -9.3749    100.9918    175.9998   1.0913212264e+02   2.5362376719e+01    0.1870524    0.1666594  75.35  0.001152706    1.003    0.003
        34  -7.2251     79.7251    176.2402   1.1381172139e+02   2.8536503611e+01    0.1239949   0.08541055  70.30            0    1.439    0.305
        35 -10.5382    242.6474    172.3560   7.9591654986e+01  -3.5945393037e-01    0.3606995    0.2613781 -45.92  0.001971492    1.795    0.443
        36  -7.7173    133.2085    172.0212   1.0137872591e+02   2.0631445755e+01    0.2185296    0.1599212 -19.79 0.0008370099    2.007    0.502
        37 -10.2512    243.5524    179.3404   8.0873746501e+01  -1.4925905405e+00    0.3175419    0.2242935   8.57  0.001798206    1.356    0.262
        38  -9.7670    247.3177    163.8265   7.6991350510e+01   2.4813813184e-02    0.4273021    0.2279515  -9.90  0.001819044    2.485    0.598
        39  -8.5633     70.5959    160.9244   1.1377888676e+02   3.3163611999e+01    0.2623212    0.1787926  52.24  0.001479175    1.444    0.308
        40  -8.6460    250.0062    187.5214   8.1412285547e+01  -3.6764078231e+00    0.1843177    0.1465349  13.22 0.0008512725    1.065    0.061
        41 -12.4934    224.2752    176.3821   8.3691388645e+01   2.3749472474e+00     1.921792     1.064822   1.62  0.007542699    3.078    0.675
        42 -11.7625    143.9880    145.7065   9.3738411570e+01   2.4007099176e+01     2.269186    0.7477721 -57.09  0.005305503    6.571    0.848
        43  -8.0584    140.2913    249.6810   1.1103388042e+02   5.9976737933e+00    0.1123162   0.07567503  64.06 0.0007009719    1.602    0.376
        44 -13.3112    155.9513    123.3829   8.5704335926e+01   2.6146657572e+01     2.147294     1.182992  45.13  0.008727728    1.828    0.453
        45  -9.1715    153.0755    152.9440   9.3222929449e+01   2.0671016502e+01    0.3303072     0.196865  59.14  0.001376502    2.060    0.515
        46  -8.0521    115.7780    153.4164   1.0193861793e+02   2.7731338712e+01     0.278803    0.1313008  45.07  0.001144642    2.096    0.523
        47 -11.0917     55.2394    146.5125   1.1538267963e+02   3.8394864392e+01     1.155582    0.7777304 -36.57  0.006200144    2.063    0.515
        48  -9.9035     68.9208    144.8615   1.1180215645e+02   3.7040280537e+01    0.3780477    0.2483819 -64.74  0.001238861    1.362    0.266
        49 -11.2436     67.5129    132.5916   1.1013587060e+02   4.0078902232e+01     1.744376    0.6503325 -63.17  0.006903735    2.480    0.597
        50 -11.4450    200.8439    164.5531   8.5655255313e+01   8.7658234854e+00     1.047683    0.4766289 -48.96  0.003960318    2.914    0.657
        51  -7.4066    118.5382    150.5010   1.0072339387e+02   2.7873471139e+01    0.1422588    0.1357209  87.39 5.844753e-05    1.005    0.005
        52  -8.0701    112.5866    150.5057   1.0214488920e+02   2.8939739473e+01    0.1401833    0.1330833 -80.77 0.0008040298    1.030    0.029
        53  -8.6879    150.7496    148.2459   9.2738412454e+01   2.2104654615e+01    0.2040615    0.1763699   2.20  0.001054184    1.338    0.253
        54  -8.9042     27.5399    145.5304   1.2182896031e+02   4.1550831829e+01    0.2390868     0.174863  85.86  0.001102651    1.172    0.147
        55  -8.2550     12.9137    145.9236   1.2520616230e+02   4.2721030484e+01    0.1624608     0.124741 -72.24  0.001142429    1.182    0.154
        56  -9.8080    215.4356    141.6634   7.7716528145e+01   9.6695875808e+00    0.4152708    0.2521105 -22.56  0.001849777    1.763    0.433
        57 -12.1001    221.6920    187.1031   8.6314856071e+01   1.2643260306e+00     1.228736    0.5272724  35.28   0.00184984    2.261    0.558
        58 -11.9283    209.0985    185.2175   8.8285374164e+01   3.8406117617e+00     1.416916    0.7111109 -48.04  0.006111062    2.693    0.629
        59 -11.5959    173.4867    137.0971   8.5123074355e+01   1.9534111994e+01     1.110088    0.3887768  36.23  0.003141246    4.070    0.754
        60 -12.4333    184.4000    130.1141   8.1098318495e+01   1.8473914071e+01     1.298313    0.7853219 -24.56  0.005356008    1.936    0.484
        61  -8.3210     54.9143    133.3347   1.1351299837e+02   4.1484801069e+01    0.2418833    0.1532099 -75.30 0.0009897421    1.452    0.311
        62 -10.4120    197.8037    131.2734   7.8641017235e+01   1.5282825288e+01    0.4624471    0.2771051 -27.74  0.001973358    1.760    0.432
        63  -9.6964    149.5258    130.8944   8.9055067212e+01   2.5973968421e+01    0.2861584    0.2680112  65.59  0.001258516    1.119    0.106
        64  -8.6684    125.4317    127.6262   9.4135278530e+01   3.1630654891e+01    0.4227109    0.1442367 -48.77  0.001368519    2.875    0.652
        65 -10.9452    133.4772    145.0082   9.6051126072e+01   2.6247120249e+01     1.507453    0.3785758 -53.51  0.003827139    5.336    0.813
        66 -10.8070    238.1078    125.1623   6.9776274482e+01   7.6758882536e+00    0.5740188    0.3675792  13.58  0.002556733    2.074    0.518
        67  -9.2096    218.3668    123.3406   7.2767278581e+01   1.2158935770e+01    0.2953254    0.2129173   9.78  0.001065724    1.667    0.400
        68 -11.2353    136.2896    132.3379   9.2556489408e+01   2.8424297768e+01     1.430486    0.3086331 -48.89  0.003620722    4.923    0.797
        69 -11.8847    230.9765    168.7142   8.0880670012e+01   2.2844383435e+00    0.9084206    0.6242473 -43.09  0.003743768    1.701    0.412
        70  -9.4455    203.5342    112.4760   7.2776404599e+01   1.7378115576e+01    0.5061997    0.1487006 -34.61  0.001502946    3.351    0.702
        71 -11.0827    187.0467     91.6513   7.0350959424e+01   2.5028956946e+01    0.8374882    0.5757532  87.68  0.003355966    2.293    0.564
        72 -11.7706    188.0314     99.4534   7.2329136575e+01   2.3379520251e+01     0.814072    0.6221176 -52.09  0.003812948    1.420    0.296
        73 -10.1118      6.8699    112.7119   1.2322289377e+02   5.0616149425e+01    0.2418672    0.1878516 -42.33  0.001085898    1.492    0.330
        74 -10.1002    134.9112    120.6190   9.0071813115e+01   3.1249210351e+01    0.5187582    0.2705519 -44.22  0.001460491    1.882    0.469
        75  -7.5834     97.9234    110.9705   9.7418858281e+01   4.0496108278e+01    0.1683027    0.1620692 -57.12 0.0003580722    1.039    0.038
        76 -11.1919    134.7208    110.3253   8.7469466909e+01   3.3510487088e+01     1.501695    0.3054297 -45.78  0.003678542    4.889    0.795
        77  -8.9164    244.8914    108.1422   6.4567156137e+01   8.9569496620e+00    0.2200542    0.1872167 -46.35 0.0007960666    1.238    0.192
        78  -9.7088     65.7404    105.4535   1.0534698617e+02   4.6675217310e+01    0.4871714    0.3145207  20.94   0.00243299    2.033    0.508
        79  -7.7231    214.6714    104.9318   6.8761699658e+01   1.6130512861e+01     0.212812    0.1847162 -29.14 0.0004155889    1.084    0.077
        80  -8.1481      7.6595    105.3097   1.2209905757e+02   5.2243837006e+01    0.1183248   0.07588489  74.39 0.0007044552    1.691    0.409
        81  -8.4496     22.9945    156.9874   1.2400971441e+02   3.9418660083e+01    0.1672188    0.1237356 -53.16 0.0004791673    1.575    0.365
        82 -10.1770    153.6105     97.0599   7.9162870118e+01   3.2039856462e+01    0.6237527    0.3215599 -53.56  0.002215817    2.455    0.593
        83  -9.2024    239.0229     96.9865   6.2705578337e+01   1.1961507278e+01    0.2092293    0.1895753 -17.94            0    1.040    0.038
        84  -9.1318    242.2015     94.0168   6.1483170242e+01   1.1732956853e+01    0.3645149    0.2616447   2.30  0.001762128    1.730    0.422
        85  -8.1719    227.6802     94.9609   6.3968653361e+01   1.4812808880e+01    0.2117792    0.1776343 -28.60 0.0003524553    1.102    0.092
        86  -8.4127    127.8766     90.9132   8.3795543292e+01   3.9074698636e+01    0.2228303    0.2014399   1.23            0    1.170    0.146
        87 -11.3393    191.2616    107.8901   7.3968872033e+01   2.1065921348e+01    0.7371398     0.562116 -83.68  0.003273674    1.894    0.472
        88  -9.2021      9.7316     86.0334   1.1868945550e+02   5.6476920870e+01    0.1754739    0.1207885 -67.15 0.0002996367    1.106    0.096
        89 -10.3929      3.8530     82.5444   1.1997444342e+02   5.7591061794e+01    0.3564557    0.2002727 -48.09  0.001746472    1.549    0.355
        90  -9.0725    241.0493     82.5477   5.8764489140e+01   1.3751861466e+01    0.3200294    0.1905024  25.85  0.001312292    2.538    0.606
        91  -7.2694    231.6995     79.6564   5.9376662116e+01   1.6314882297e+01    0.1491079    0.1118513  10.92 0.0007037342    1.677    0.404
        92  -8.5236    183.9896     78.4963   6.7166604976e+01   2.8093822584e+01     0.240968    0.1535688  52.83 0.0009367067    1.592    0.372
        93 -12.3540    159.9964    129.1244   8.6200179492e+01   2.4079194351e+01      1.14066      0.65861  32.42  0.003979302    2.059    0.514
        94 -10.0797      7.1656     68.1503   1.1632200651e+02   6.0590230818e+01    0.2780657    0.2361337 -14.59  0.002052426    1.423    0.297
        95  -8.0494     45.5610     67.6612   1.0250626225e+02   5.7611491352e+01     0.163507    0.1113335 -58.58 0.0005277212    1.363    0.266
        96  -8.5657    117.2998     66.3413   7.8876280593e+01   4.6194914447e+01    0.2521719    0.2169509 -22.52 0.0002860064    1.114    0.102
        97  -8.3703    172.6311     65.2296   6.5400554174e+01   3.3183965321e+01    0.2161445     0.147773 -20.40 0.0007283909    1.593    0.372
        98  -9.3591    227.4222     48.9866   5.1896629997e+01   2.1819092218e+01    0.4928689    0.2985058 -16.83  0.002205869    1.948    0.487
        99  -8.3299    136.2575     52.0245   6.8994417241e+01   4.4354838016e+01    0.2145203    0.1995694   1.58  0.001151924    1.036    0.035
       100  -8.9004      4.0092     49.5145   1.1341203258e+02   6.4729098956e+01    0.3706615   0.08380538 -37.93  0.001296289    4.894    0.796
       101  -8.4187    172.0328     50.0282   6.0738057749e+01   3.5695560508e+01    0.2160862    0.2056999  35.39            0    1.048    0.045
       102  -9.0190     22.8872     48.2199   1.0545286781e+02   6.3782525705e+01    0.3636481    0.1908933 -16.52  0.001827204    2.549    0.608
       103  -9.1487    152.8023     47.7098   6.3781430193e+01   4.0945772144e+01    0.2529875    0.1836946  37.34  0.001187221    1.415    0.293
       104  -8.8144    140.6023     41.0008   6.4091956720e+01   4.4953936252e+01    0.4060378    0.1506662 -15.85 0.0009491466    6.388    0.843
       105  -9.8009     11.3410     39.1270   1.0752132252e+02   6.6421146768e+01    0.3170353    0.2221477 -29.49  0.002153665    1.281    0.220
       106  -7.9460    190.1140     36.7001   5.3572947713e+01   3.2841915914e+01    0.2452731    0.1875586 -39.72 0.0005653499    1.299    0.230
       107  -9.6950    243.0509    243.8413   9.2590319683e+01  -9.1300515766e+00    0.4014251    0.1831046   9.02  0.001631639    4.245    0.764
       108  -7.9322    145.0000     30.9663   5.9578436659e+01   4.5195932325e+01    0.2382338   0.08325616 -26.21 0.0008021465    2.940    0.660
       109 -10.1083     68.6236     27.9770   7.9528632283e+01   6.1926929040e+01    0.4128246    0.2955366 -16.24  0.002361481    1.255    0.203
       110  -9.1213     25.0664     27.1496   9.7172482422e+01   6.7627974797e+01    0.2701494    0.1313261 -23.55  0.001339614    2.310    0.567
       111  -9.4314    153.3790     26.3291   5.6327792323e+01   4.3633745249e+01     0.512171    0.1888485  49.67  0.001858572    2.481    0.597
       112  -8.7737     29.3301     31.6527   9.7039696145e+01   6.6422421909e+01    0.2232858    0.1311944 -13.39  0.001225786    1.939    0.484
       113  -8.3583     37.8022    243.0254   1.2758491655e+02   2.1036696028e+01    0.2196102    0.1467079  10.80  0.001107415    5.135    0.805
       114  -8.0820     18.4799     20.7936   9.7649381253e+01   6.9315931442e+01    0.2379709    0.1369761 -25.64 0.0006113503    1.523    0.344
       115  -8.7656      3.6069     22.2804   1.0546354110e+02   7.0099337776e+01    0.2214046    0.1346423 -38.66 0.0009337271    1.196    0.164
       116  -8.3597    222.3776     21.8891   4.5325229930e+01   2.6465205374e+01    0.1828932     0.129991  -9.14 0.0001006903    1.729    0.422
       117  -7.9755     14.8614     17.8706   9.8176822475e+01   7.0112972030e+01     0.138156    0.1159048 -37.54  0.001014573    1.286    0.222
       118  -7.8278    203.6629     17.0128   4.6053491893e+01   3.1683209365e+01    0.2196034    0.1108608   8.13 0.0007051189    4.370    0.771
       119  -8.7440     29.4774     15.4697   9.0032101536e+01   6.9148756460e+01    0.1218398   0.09036962 -19.76 -1.201822e-05    1.029    0.028
       120  -9.2053     21.4387     23.0470   9.7180989917e+01   6.8672473396e+01    0.3381345    0.1534261 -34.89  0.001801005    1.806    0.446
       121  -8.5900    223.9057    240.7162   9.5301876569e+01  -5.9710801305e+00     0.271037    0.1338756  16.92   0.00130201    2.691    0.628
       122  -8.8032    139.6981    239.9735   1.1001349091e+02   7.5043569186e+00    0.2131388    0.1488838  26.90   0.00132287    1.628    0.386
       123 -10.2308    248.0318    236.0711   9.0521360768e+01  -9.0502216934e+00    0.3468702    0.3103977  22.75  0.002647402    1.476    0.322
       124  -8.6185    127.9391    238.1106   1.1189544209e+02   9.6312751087e+00    0.1731775    0.1379102  53.94 0.0004129231    1.035    0.034
       125  -9.6413    155.8654    229.0562   1.0568891058e+02   6.5304922895e+00    0.2893788    0.1494488  38.54  0.001526026    1.654    0.395
       126  -9.7777    249.3658    224.4525   8.8348810281e+01  -8.0065088934e+00    0.3217259    0.1820083   2.98  0.001791286    1.948    0.487
