#   1 NUMBER                 Running object number                                     
#   2 MAG_AUTO               Kron-like elliptical aperture magnitude                    [mag]
#   3 X_IMAGE                Object position along x                                    [pixel]
#   4 Y_IMAGE                Object position along y                                    [pixel]
#   5 X_WORLD                Barycenter position along world x axis                     [deg]
#   6 Y_WORLD                Barycenter position along world y axis                     [deg]
#   7 A_WORLD                Profile RMS along major axis (world units)                 [deg]
#   8 B_WORLD                Profile RMS along minor axis (world units)                 [deg]
#   9 THETA_WORLD            Position angle (CCW/world-x)                               [deg]
#  10 FWHM_WORLD             FWHM assuming a gaussian core                              [deg]
#  11 ELONGATION             A_IMAGE/B_IMAGE                                           
#  12 ELLIPTICITY            1 - B_IMAGE/A_IMAGE                                       
         1 -12.3170    200.0344     43.0218   4.0788199687e+01   3.0508124668e+01    0.9144357    0.8424894 -84.94  0.004898251    1.093    0.085
         2 -12.2838    210.1993     33.6677   3.7408933508e+01   2.9445961856e+01    0.6770114    0.6643044 -38.32  0.001362935    1.298    0.230
         3 -11.9209    235.8528      7.2739   2.9573355906e+01   2.7081850246e+01    0.8057296    0.5957826 -72.09  0.005605028    1.057    0.054
         4 -10.5998     21.3811      7.4687   7.6538574983e+01   7.1866746080e+01     0.273254     0.227219  59.39  0.001743481    2.583    0.613
         5  -9.4519    127.8128    242.1410   9.8543360310e+01   6.1490271522e+00    0.1735044    0.1468012   0.89  0.001069405    1.342    0.255
         6  -8.2903     72.4143    250.6338   1.1109009654e+02   1.2394580256e+01     0.183005   0.09849889  37.57 0.0003101436    1.590    0.371
         7 -14.8711     40.8983    194.8908   1.1285264866e+02   2.8296276459e+01     12.52891     5.015093  77.96   0.01837883    4.769    0.790
         8  -8.3358     76.1110    210.4009   1.0620098691e+02   2.0274368645e+01    0.2683611     0.164981  88.20  0.001001362    1.954    0.488
         9  -9.4954    108.8070    214.0173   9.9013278110e+01   1.4648983765e+01    0.2275969    0.1530828  77.56  0.001079207    2.018    0.504
        10 -10.0374     40.9447    207.6091   1.1402009491e+02   2.5340460676e+01    0.3551864    0.2207451  80.74   0.00134543    1.574    0.365
        11  -8.3545     64.7638    205.1260   1.0826472012e+02   2.3004237601e+01    0.2074095    0.1589423  70.87   0.00118199    1.242    0.195
        12  -9.3624    111.1515    203.6587   9.6960849275e+01   1.6534084050e+01    0.2319493    0.1896017 -80.51 0.0005784756    1.370    0.270
        13  -9.6204    122.4495    199.0314   9.3521612477e+01   1.5710066488e+01    0.3287247    0.2595837 -83.10  0.001083984    1.541    0.351
        14  -9.2401    191.9167    192.7843   7.6630964253e+01   5.0855533241e+00    0.2971763    0.1981597 -65.80  0.001309966    2.582    0.613
        15  -8.5442     59.0419    196.5190   1.0866686072e+02   2.5748820624e+01    0.2315631    0.1667108  82.77 0.0005532539    1.383    0.277
        16  -9.8631     79.0219    238.9948   1.0863308419e+02   1.3792362325e+01    0.3847386    0.2202747 -43.99  0.001939183    2.429    0.588
        17  -8.3204    127.6807    192.2853   9.1130867714e+01   1.6319592490e+01    0.1464151    0.1108983  65.86 0.0004393074    1.591    0.372
        18 -11.6861     54.7800    185.7077   1.0846991225e+02   2.8872471018e+01    0.7580319    0.6486431  72.72  0.003403525    1.073    0.068
        19  -8.6191    109.7316    189.2544   9.5055026718e+01   2.0028970183e+01    0.2373553    0.1083681 -45.15 0.0009017155    2.460    0.594
        20  -8.2657     84.6307    185.7661   1.0087909862e+02   2.4798709216e+01    0.1995132    0.1323827 -76.90 0.0009428358    1.647    0.393
        21  -9.3984    138.7030    216.1221   9.2439423083e+01   9.4368065773e+00     0.208638     0.179455 -89.49  0.001142837    1.451    0.311
        22  -7.9730     82.6127    182.2567   1.0088139785e+02   2.5946431683e+01    0.1897226    0.1290455 -54.67 0.0005108194    1.483    0.326
        23  -8.6292     99.3380    180.8451   9.6324662766e+01   2.3706019783e+01    0.2452713    0.1903966  48.37 0.0005995448    1.263    0.208
        24  -9.1861     40.8616    177.6341   1.1107416157e+02   3.2464381308e+01    0.2654375    0.2363254 -30.17 0.0006868468    1.394    0.283
        25  -8.5950    115.3197    173.6525   9.0927622019e+01   2.2748930821e+01     0.157543    0.1163158  73.99 0.0007048946    1.733    0.423
        26  -9.9328    102.2573    173.0121   9.4232942689e+01   2.5120435593e+01    0.3130783    0.2215346  22.52  0.001463624    1.613    0.380
        27 -10.3850     68.2559    171.7855   1.0312996674e+02   3.0566829528e+01    0.4658152    0.3014255 -30.05  0.001996416    2.193    0.544
        28 -10.5346     72.8914    166.9238   1.0113990256e+02   3.1144511760e+01    0.5933943    0.3342744 -64.05 0.0009263739    1.710    0.415
        29  -9.1024    186.3365    174.2531   7.4136542871e+01   9.6274232210e+00    0.3307412    0.2898298  74.86  0.001354282    1.524    0.344
        30  -8.2164     96.3185    167.3249   9.4819034266e+01   2.7485889643e+01    0.1522449    0.1160747 -22.74  0.000687741    1.674    0.403
        31 -11.9577     59.6352    134.7936   9.9578468771e+01   4.1113125306e+01     1.230842      0.64767 -89.25  0.004202567    3.485    0.713
        32 -10.9420     81.4952    158.7235   9.7396633148e+01   3.1958145458e+01    0.7095594    0.4726427  59.74  0.003245845    1.729    0.422
        33 -11.7933     69.6547    153.5047   9.9872604928e+01   3.4995589568e+01    0.5034363    0.4109502 -33.98 0.0009723845    1.378    0.274
        34 -12.1341     68.8160    144.3941   9.8529166361e+01   3.7437359097e+01     1.105406    0.7169036  80.80  0.004779974    2.102    0.524
        35  -8.7844     72.2951    245.1489   1.1062520764e+02   1.3471312251e+01    0.2099862     0.160637  62.69  0.000678153    1.156    0.135
        36 -10.3831     88.5802    152.1737   9.4195264039e+01   3.2512589984e+01    0.6508453    0.4195842 -17.64  0.002358414    2.529    0.605
        37 -14.4236      9.4106    207.2962   1.2088659893e+02   2.8596825164e+01     1.850977     1.104516  86.88  0.007255415    1.428    0.300
        38  -8.3181     57.8507    152.4987   1.0311567351e+02   3.6808769669e+01    0.2765437    0.1552467 -50.51  0.001243936    1.738    0.425
        39  -9.8240    133.9691    145.4147   8.0266755114e+01   2.5983146911e+01     1.150367      0.23213 -53.23    0.0022725    7.609    0.869
        40  -8.1688    112.1792    150.4175   8.7208373084e+01   2.8919951770e+01    0.2172541    0.1420366  48.77 0.0005135845    1.617    0.382
        41  -9.6979     53.7366    148.5525   1.0369462310e+02   3.8322511052e+01    0.3711605    0.2133399 -40.63  0.001648778    1.999    0.500
        42  -9.1454    137.7820    228.4023   9.4492945364e+01   7.1862161805e+00    0.1963297    0.1177825  25.38 0.0009521024    1.685    0.407
        43  -9.4802    101.9486    138.6210   8.7571698568e+01   3.3652652054e+01    0.5775263     0.333963 -21.71  0.001929594    3.277    0.695
        44  -9.1717    105.9441    131.1745   8.4732590288e+01   3.4758276345e+01    0.4225634    0.2524537 -54.56  0.001765754    1.670    0.401
        45 -10.5697     89.8065    137.6564   9.0932897247e+01   3.5965983386e+01    0.2922541     0.259758 -37.21 0.0004576054    1.147    0.128
        46 -10.2941     25.7193    137.5412   1.1040890622e+02   4.4011282816e+01     0.328775    0.1814442  47.72  0.001135326    2.017    0.504
        47  -9.5729    144.9641    225.4997   9.2480035922e+01   6.6057870676e+00    0.2115925    0.1205681  34.49  0.001025213    1.567    0.362
        48  -9.3993    111.6509    129.3850   8.2663046252e+01   3.4125836230e+01    0.3598417    0.2554444  14.23  0.001109547    1.834    0.455
        49  -8.4501    160.5298    128.0379   6.9575063046e+01   2.4418925907e+01    0.2239098    0.1343108 -65.57 0.0008096429    2.539    0.606
        50  -8.8284    134.9880    128.0170   7.5908989037e+01   2.9806296132e+01     0.256662    0.1969256  -9.63   0.00113516    1.686    0.407
        51  -9.1965     98.8599    124.9561   8.5371877969e+01   3.7554684351e+01    0.3246997    0.2510455  -6.13  0.001494384    1.645    0.392
        52  -9.8933     56.5837    123.9820   9.8496142769e+01   4.4244893197e+01    0.3085474    0.2566611 -87.93  0.001323357    1.305    0.234
        53 -10.0017    134.1140    222.9840   9.4514611691e+01   8.8131571469e+00    0.3577575    0.1584584 -40.44  0.001443974    2.841    0.648
        54  -7.9830     86.9569    120.4692   8.7972202581e+01   4.0703561493e+01    0.2171793    0.1231495  57.08 0.0008091357    2.494    0.599
        55 -10.3835     33.0523    118.7065   1.0526623154e+02   4.8116384793e+01    0.4594076    0.1438769 -61.02  0.001727042    2.519    0.603
        56  -8.4524    107.9091    118.3230   8.1049517983e+01   3.7473016804e+01    0.2127194    0.1945846  26.42 0.0003165886    1.123    0.110
        57  -8.3921    163.6046    121.4086   6.7235296055e+01   2.5168593345e+01    0.3092414    0.1315412 -54.81 0.0009576677    3.208    0.688
        58  -8.6208    231.1979    113.9296   5.2755479444e+01   1.2634470084e+01    0.2121354    0.2014271  79.55 0.0007417072    1.193    0.162
        59 -10.0187    115.3152    108.5831   7.6353004875e+01   3.8266751863e+01    0.5957137    0.1408629 -46.99  0.001568334    4.163    0.760
        60  -8.2899    205.9681    110.4741   5.6077701435e+01   1.8254731396e+01    0.2057009    0.1438964  52.58 0.0005325681    1.556    0.357
        61  -9.2529     33.3865    109.7540   1.0356130690e+02   5.0315492382e+01    0.2065473    0.1043885 -54.44 0.0008521119    1.653    0.395
        62  -9.0356    135.0000    105.4332   7.0081696126e+01   3.4816730549e+01    0.3514455   0.08815939 -44.01 0.0009367611    3.951    0.747
        63  -9.7732     41.7788    104.1094   9.9489715450e+01   5.0880994448e+01    0.3604982      0.24197  48.13  0.001683109    1.797    0.443
        64 -16.4062     11.9191    243.0936   1.2236264998e+02   2.0837952864e+01     12.01841     4.689498 -79.64   0.06370797    2.378    0.579
        65  -8.3098    124.6687     92.3361   6.9194710160e+01   3.9811770129e+01     0.157883    0.1240988 -86.61 0.0005322652    1.734    0.423
        66  -9.7636     32.5680     87.6929   9.9297852203e+01   5.5699982349e+01    0.3393696    0.1242489 -63.10  0.001305199    2.658    0.624
        67  -7.6673    118.3237     87.6491   6.9595345710e+01   4.2134485047e+01      0.15638    0.1232037 -85.15  0.000704836    1.753    0.429
        68  -7.8427     74.8374     85.1571   8.2743678940e+01   5.0921135223e+01    0.1985079    0.1608543 -14.64 0.0004026457    1.286    0.222
        69  -8.2406    158.7048     83.3275   5.8325259285e+01   3.3827954548e+01    0.1534567    0.1160648 -74.42   0.00033465    1.628    0.386
        70  -7.8794    150.8212     82.6489   5.9875776082e+01   3.5788954567e+01    0.2041657     0.140275  62.88 0.0001134596    1.577    0.366
        71  -8.8483    111.7297     81.7498   6.9724514337e+01   4.4714342795e+01    0.2691433    0.1841307  41.77  0.001245433    1.447    0.309
        72  -7.9166     69.8619     81.6559   8.3499462217e+01   5.2466665566e+01    0.1958348    0.1277282  43.12 0.0005150605    1.703    0.413
        73 -11.7153    189.4764     51.0617   4.4197263646e+01   3.1822555128e+01    0.6416537    0.5080854  16.67  0.001954337    1.825    0.452
        74  -9.6630    119.7141    245.7048   1.0071593883e+02   6.7010745600e+00    0.2147531    0.1523497 -41.40 0.0009412655    1.708    0.414
        75 -10.1056    101.2304    243.6235   1.0439954840e+02   9.7813492355e+00    0.3932347    0.1874532 -56.53  0.001596409    2.368    0.578
        76  -9.3284    124.5137    213.5044   9.5289796697e+01   1.2268994623e+01    0.1385815    0.1272493  34.99 0.0008104803    1.014    0.014
        77  -8.7263    119.6449    212.2968   9.6240265204e+01   1.3304175405e+01     0.145629    0.1007927  61.75 0.0007034325    1.695    0.410
        78  -8.6280     22.3131     34.6548   8.8122871196e+01   6.7588725422e+01    0.1045648   0.09813528  69.53 0.0003937623    1.711    0.416
        79  -9.9094     16.4194     20.3027   8.5401210100e+01   7.0531786332e+01    0.2244331    0.1695489  53.12  0.001343847    2.590    0.614
        80  -9.0219     32.5242     18.5089   7.6058182674e+01   6.9019177925e+01    0.1219847   0.09507661  -1.69 0.0002053224    1.009    0.009
        81  -8.0659     95.3486    243.2940   1.0561227836e+02   1.0682469731e+01    0.1201838   0.09714904  -0.96 0.0007031285    1.673    0.402
