#   1 NUMBER                 Running object number                                     
#   2 MAG_AUTO               Kron-like elliptical aperture magnitude                    [mag]
#   3 X_IMAGE                Object position along x                                    [pixel]
#   4 Y_IMAGE                Object position along y                                    [pixel]
#   5 X_WORLD                Barycenter position along world x axis                     [deg]
#   6 Y_WORLD                Barycenter position along world y axis                     [deg]
#   7 A_WORLD                Profile RMS along major axis (world units)                 [deg]
#   8 B_WORLD                Profile RMS along minor axis (world units)                 [deg]
#   9 THETA_WORLD            Position angle (CCW/world-x)                               [deg]
#  10 FWHM_WORLD             FWHM assuming a gaussian core                              [deg]
#  11 ELONGATION             A_IMAGE/B_IMAGE                                           
#  12 ELLIPTICITY            1 - B_IMAGE/A_IMAGE                                       
         1 -14.1163    202.5227     26.3914   3.0222009616e+01   3.1734410667e+01    0.9057583    0.7540605 -53.04  0.003870534    1.100    0.091
         2 -11.8264     58.0099      3.8705   4.9397980056e+01   6.7834411766e+01    0.3164015    0.1545105  44.52  0.001583406    1.709    0.415
         3 -12.2965    173.3067    179.0797   7.1633877253e+01   1.2468514446e+01     0.555247    0.4149394 -65.17  0.002770742    2.035    0.509
         4 -14.0099    246.5800    239.4227   6.8418033880e+01  -6.6312762803e+00     1.654659    0.5291411 -31.10  0.008132037    2.846    0.649
         5 -16.2668    119.6968    233.6051   9.2369861819e+01   1.0618183626e+01     4.964594      4.37899 -45.55   0.03307818    1.329    0.248
         6 -12.2565    154.5937    178.8024   7.5760857638e+01   1.5686106728e+01    0.6211283    0.2508378 -52.66  0.002236115    3.108    0.678
         7 -10.0830      8.8511    181.3721   1.1363427663e+02   3.4734708351e+01    0.1463231    0.1056137 -18.69 0.0008470387    1.943    0.485
         8 -13.3692    135.5310    174.6988   7.9529536443e+01   1.9787404065e+01    0.8338333    0.6237189 -69.65  0.004075089    1.783    0.439
         9 -19.0470     39.6484    142.7113   1.0129860055e+02   4.1537603320e+01     18.35704     4.623303 -71.46    0.0534969    4.400    0.773
        10  99.0000      5.1089    176.7267   1.1428236686e+02   3.6098664784e+01     0.242893    0.1176514 -60.29  0.001231218    2.027    0.507
        11 -12.1198    180.6891    173.0890   6.8879249354e+01   1.2331635568e+01    0.6026868    0.4582382 -43.57  0.002270135    1.404    0.288
        12 -12.1767    121.4989    165.8538   8.1405959834e+01   2.4123458883e+01    0.4608978    0.3392336  82.70  0.002077813    2.070    0.517
        13  -9.2001    219.6626    165.3197   5.9795414511e+01   7.3014824726e+00    0.1199177    0.1050608 -65.55 0.0007049731    1.708    0.415
        14 -10.3312      1.3336    155.5513   1.1392063424e+02   4.1417449244e+01     0.201953   0.09560281 -72.52 2.483558e-05    1.796    0.443
        15 -11.8513    133.7489    145.5749   7.4021332825e+01   2.6431758158e+01     1.206925    0.3179525 -53.62   0.00286245    5.859    0.829
        16 -10.5989    109.5277    147.5463   8.0991863167e+01   3.0412171437e+01    0.2846947    0.1938722 -56.60 0.0007673891    1.541    0.351
        17  -9.7816    109.6476    153.2539   8.2123840803e+01   2.9052056638e+01    0.2264797    0.1534013 -56.00 0.0003490984    1.541    0.351
        18 -11.2638    112.3207    150.9835   8.0923669956e+01   2.9117832144e+01    0.4347036    0.3285035  85.47   0.00111035    1.873    0.466
        19 -10.4633    121.4040    150.3307   7.8310327818e+01   2.7649841790e+01    0.2898932    0.2680737  69.02  0.001044925    1.218    0.179
        20 -10.3013    115.4932    143.7178   7.8511150899e+01   3.0242456181e+01    0.2544563    0.2287814  42.57 0.0005231934    1.129    0.115
        21 -12.2514     96.6443    139.1342   8.2953276191e+01   3.4643594890e+01    0.5411733     0.334713 -35.59  0.001180015    1.852    0.460
        22 -11.8741    109.6449    139.5308   7.9244443231e+01   3.2278140592e+01    0.4903913    0.2589218  34.94  0.001351695    1.902    0.474
        23 -10.0345    145.3450    139.0978   6.9617731290e+01   2.5602084057e+01     0.206154    0.1953095 -36.71 0.0005577174    1.083    0.077
        24 -10.1974    125.4039    138.7031   7.4679987023e+01   2.9549436797e+01    0.3248847    0.2219563  81.56  0.001232592    2.727    0.633
        25 -11.2565    119.9042    137.3537   7.5873323572e+01   3.0896300116e+01    0.4971588    0.3081866 -67.99  0.001254834    2.328    0.570
        26 -11.7425     99.9943    131.1170   8.0195259054e+01   3.5999178083e+01    0.2895247    0.2630564 -29.36 0.0002874987    1.109    0.099
        27 -13.0593    106.8020    130.9523   7.8134738079e+01   3.4816974716e+01    0.8154497    0.5189624  48.59  0.003377327    1.706    0.414
        28 -10.8004     68.7085    245.6068   1.0466024265e+02   1.5020403676e+01    0.1118971   0.08807231 -21.84   0.00070059    1.780    0.438
        29 -10.0713    136.0000    128.9501   6.9574934190e+01   2.9642464129e+01    0.2604992   0.08689743 -45.65 0.0008077049    2.979    0.664
        30 -10.4991    116.8521    125.8354   7.4014766660e+01   3.4119096299e+01    0.2429633    0.2091864  -7.29 0.0007908698    1.264    0.209
        31 -11.2842    115.5301    131.9965   7.5860120881e+01   3.2953447020e+01    0.3520971    0.2828848  66.57 0.0003955234    1.531    0.347
        32 -10.4535    105.1041    120.6862   7.6187592133e+01   3.7545889544e+01    0.2835288    0.2307311 -21.60 0.0007163997    1.348    0.258
        33  -9.9719    135.0000    119.9819   6.7604852065e+01   3.1787044943e+01    0.2581178   0.08721855 -44.70 0.0007276817    2.934    0.659
        34 -12.1726     70.9365    230.3457   1.0285447938e+02   1.7650397976e+01    0.3048196    0.2332547  57.80 0.0009476757    1.223    0.182
        35 -11.8957    118.8926    110.7782   6.9592720867e+01   3.7103947656e+01    0.5602635    0.4210866  82.51  0.002422184    2.003    0.501
        36 -10.1375    205.3713    110.1674   5.0250070601e+01   1.9076397305e+01     0.221585    0.1884312  29.39 0.0006531398    1.300    0.231
        37 -10.8167     66.4164    229.5063   1.0378448712e+02   1.8363893151e+01    0.1789395    0.1564723  82.33  0.001209788    1.196    0.164
        38  -9.9505    170.4996    195.0993   7.5236643020e+01   9.9970322632e+00    0.1958718    0.1669966  15.20 0.0006357802    1.060    0.056
        39  -9.3893     88.3262     91.2506   7.3630843340e+01   4.7443815860e+01     0.150864    0.1164543  -0.80 0.0003370833    1.544    0.352
        40 -10.9800     64.9480    249.8026   1.0577740052e+02   1.4697620196e+01     0.175916    0.1676131  -4.67  0.001320587    1.325    0.245
        41 -10.8036    164.4202    205.7221   7.8403240841e+01   9.0496061784e+00    0.4527363    0.2119585 -52.32  0.001923603    2.793    0.642
        42 -13.2668    166.3156     66.4958   4.5799141886e+01   3.4784348649e+01    0.9678628    0.5205749  40.72  0.004039856    2.220    0.550
        43 -13.8578    180.7307     53.1095   3.9727864335e+01   3.3371077980e+01      1.10391    0.9231101  23.31  0.004258146    1.479    0.324
        44 -12.1256    186.7831     46.8836   3.7217069311e+01   3.2809316340e+01    0.3659555    0.3426785   0.33 0.0008974966    1.259    0.206
        45 -10.8715      9.6546    201.5830   1.1460912416e+02   3.0103374365e+01    0.1131978   0.09726276  84.13 0.0007816282    1.110    0.099
        46 -10.4139    193.1902    195.0997   7.0533760911e+01   6.4801141685e+00    0.2928158    0.1793585 -60.24  0.001246798    3.308    0.698
        47 -10.3256     87.0725    239.6884   1.0019602430e+02   1.3854482869e+01    0.1487026    0.1429408  41.57 0.0003875309    1.154    0.133
        48 -10.5562     60.3357     21.0893   5.7395477238e+01   6.5453811475e+01    0.2259151    0.1592553  30.17 0.0004671676    1.275    0.216
