#   1 NUMBER                 Running object number                                     
#   2 MAG_AUTO               Kron-like elliptical aperture magnitude                    [mag]
#   3 X_IMAGE                Object position along x                                    [pixel]
#   4 Y_IMAGE                Object position along y                                    [pixel]
#   5 X_WORLD                Barycenter position along world x axis                     [deg]
#   6 Y_WORLD                Barycenter position along world y axis                     [deg]
#   7 A_WORLD                Profile RMS along major axis (world units)                 [deg]
#   8 B_WORLD                Profile RMS along minor axis (world units)                 [deg]
#   9 THETA_WORLD            Position angle (CCW/world-x)                               [deg]
#  10 FWHM_WORLD             FWHM assuming a gaussian core                              [deg]
#  11 ELONGATION             A_IMAGE/B_IMAGE                                           
#  12 ELLIPTICITY            1 - B_IMAGE/A_IMAGE                                       
         1 -10.7208     30.6275     22.6130   8.6471179876e+01   6.8479958675e+01    0.4938742    0.2438345 -26.16  0.001995669    1.953    0.488
         2 -11.3855    111.5861     19.1291   5.5601938812e+01   5.4526689109e+01    0.5317971    0.3742398  53.95  0.002861067    1.303    0.233
         3 -11.0617    101.4643     16.1203   5.6949545981e+01   5.7135406702e+01    0.4618902    0.3263133   4.71  0.001799432    1.518    0.341
         4 -11.0239    149.8151     18.4989   4.7626970044e+01   4.5286829660e+01    0.3345341    0.3119591 -65.55  0.000597799    1.151    0.131
         5 -10.1304    154.8609     17.5184   4.6483403824e+01   4.4114796815e+01    0.4534061     0.233525 -14.43  0.001951912    2.486    0.598
         6 -10.2960     85.4778     14.4697   6.0758635590e+01   6.0723990236e+01    0.3147053    0.2264414 -34.42  0.001787132    1.588    0.370
         7  -9.0097     57.4835      7.4865   6.7123758133e+01   6.6727760156e+01    0.2089261    0.1086309 -29.46  0.000554703    1.929    0.482
         8 -10.9003     57.2059     13.6624   7.0283005804e+01   6.6063964289e+01    0.5157315    0.3198546  24.67  0.001742147    1.497    0.332
         9 -10.5196     11.0496     14.7678   9.3171881187e+01   7.1592032931e+01    0.4216566    0.2608529 -17.62  0.002464197    1.381    0.276
        10  -9.8845     79.0619     14.0275   6.2572191957e+01   6.2059588052e+01    0.3320315    0.2661853 -17.00  0.001516729    1.269    0.212
        11  -9.6814    187.4994      9.0117   3.9625188408e+01   3.6753560780e+01    0.3274444     0.236006 -14.71  0.001333324    1.708    0.415
        12 -10.7995    181.3951     13.2799   4.1507724731e+01   3.7847866804e+01    0.4621478    0.2800837  41.68  0.001686062    1.916    0.478
        13  -9.8462    185.8503     13.6092   4.1064418910e+01   3.6701135435e+01    0.3030073    0.2183868  79.91 0.0009809898    1.274    0.215
        14 -11.5852    122.1637     11.2192   5.0232136770e+01   5.2818403177e+01    0.4947053    0.2696629  49.31  0.001131185    1.582    0.368
        15 -10.1449    210.5008      9.9487   3.7525338523e+01   3.1065584547e+01    0.3702543     0.263921 -68.87  0.002143434    1.304    0.233
        16 -10.1899     47.4239      9.2450   7.2160932518e+01   6.8146704457e+01    0.3269874    0.1987886  -3.27  0.001841616    1.659    0.397
        17  -9.7543     19.5958     10.8711   8.6631206062e+01   7.1439539608e+01    0.1828107    0.1422022   5.50  0.000391316    1.230    0.187
        18  -9.4414    156.0979      9.8327   4.3869311520e+01   4.4553366984e+01    0.4170145    0.1897325  75.39  0.001728977    2.261    0.558
        19  -8.2621    158.5363      6.5745   4.2510765160e+01   4.4235981894e+01    0.2007282    0.1730014 -42.38 9.626056e-05    1.269    0.212
        20  -8.6653     93.1667     10.3122   5.6736892760e+01   5.9528042921e+01    0.2554355    0.1528426  70.07 0.0007752533    2.218    0.549
        21  -8.9825    216.5581      8.2295   3.6563107680e+01   2.9815960069e+01    0.2341132    0.1104638 -34.85  0.001136352    2.033    0.508
        22  -9.8185     16.8460      3.2235   8.4211974424e+01   7.2807209570e+01    0.2678744    0.2145133 -24.16  0.001214046    1.326    0.246
        23 -11.0658     11.8726      6.8184   8.8922462332e+01   7.2761828432e+01    0.4178118     0.340299 -12.59  0.003170771    1.211    0.174
        24  -9.6637      7.3063      3.6398   8.9986007485e+01   7.3618347548e+01    0.1877722    0.1431659 -44.32 0.0007500758    1.641    0.391
        25 -10.7716     38.4865      5.0972   7.4030937297e+01   6.9949122643e+01    0.2471655    0.2191976 -21.55 0.0004000006    1.482    0.325
        26  -9.8976     78.9028      6.4403   5.9156536589e+01   6.2858912552e+01    0.3448284     0.191627  35.87  0.001804468    1.587    0.370
        27 -10.4443     25.4288      6.4155   8.1234312548e+01   7.1447489267e+01    0.3303127    0.1740088 -32.74   0.00120219    1.668    0.401
        28  -9.4462      1.9481      5.8247   9.4301688307e+01   7.3686808965e+01    0.2864751    0.1239268 -41.70  0.001666837    1.773    0.436
        29  -9.3577    107.8351      5.5300   5.1116885856e+01   5.6686605127e+01    0.3507949    0.1644823 -42.46  0.001520343    2.782    0.641
        30  -9.6153    103.4287      1.7959   5.0606253589e+01   5.7996545655e+01    0.2884845    0.1723073  76.27 0.0007331078    2.087    0.521
        31  -8.9113    212.9657      5.4539   3.6214481837e+01   3.0942750215e+01    0.1933101    0.1125022  79.86  0.001017565    1.571    0.364
        32  -8.9086    127.6748      4.9526   4.6878033366e+01   5.2035425485e+01    0.2342702    0.1251847  -5.84  0.001069523    2.375    0.579
        33  -9.0678    174.9830      3.3732   3.9484662155e+01   4.0396312944e+01    0.1801564    0.1665548 -52.71 0.0001563505    1.169    0.145
        34 -10.4703     89.5507      2.8947   5.4494742038e+01   6.0967362131e+01    0.3869479    0.2706722  84.42  0.001776382    2.181    0.541
        35  -8.0124     69.2994      2.3023   6.0276323717e+01   6.5114891980e+01    0.1312393   0.07824624  23.01  0.000476132    1.584    0.369
        36  -8.2502    242.2643      1.3213   3.3041502508e+01   2.4748454967e+01     0.103827   0.09165464  41.61 0.0002136493    1.557    0.358
        37  -9.0827    189.1903      1.3241   3.7396919659e+01   3.7063065061e+01    0.1874762    0.1063847  85.40 0.0005338499    1.674    0.403
        38  -9.2572     22.5215      3.4978   8.1224426496e+01   7.2165666573e+01    0.1960362    0.1298045 -22.80 0.0009101494    1.242    0.195
        39 -10.1495     49.1265    112.2311   1.0585533726e+02   4.7668601302e+01    0.3822953    0.2192192  14.32   0.00176356    2.385    0.581
        40  -8.2911      1.2426    111.6032   1.2042422604e+02   5.1714682468e+01    0.1230657   0.07577727  80.61 0.0006930376    1.673    0.402
        41  -9.1469     28.6432    109.9905   1.1189084354e+02   5.0219647148e+01    0.1902607    0.1356203 -64.67 0.0003744565    1.157    0.135
        42  -8.7933    100.4669    108.9351   8.9143414367e+01   4.0855904140e+01     0.235455    0.1451108 -49.53   0.00101818    1.553    0.356
        43  -9.9839     17.6286    108.6513   1.1510785190e+02   5.1395829689e+01    0.2478023    0.1520316  70.54  0.001113046    2.008    0.502
        44 -10.6049      6.2467    107.4054   1.1842086565e+02   5.2421569337e+01    0.3832447     0.219383  80.87  0.001251477    1.971    0.493
        45 -10.6538      8.5958    103.0750   1.1711201000e+02   5.3303176391e+01    0.2931087    0.1724707 -71.00  0.001192346    1.354    0.262
        46  -9.1599     45.0862    106.4532   1.0600588757e+02   4.9507909272e+01    0.1792444    0.1370335  19.35  0.001006988    1.546    0.353
        47 -10.6106     79.6626    103.7707   9.4230546533e+01   4.5611477972e+01    0.3537622    0.2776108 -17.35 0.0008933188    1.491    0.329
        48  -9.9573    108.4124    103.1662   8.5248808996e+01   4.0670502309e+01     0.361917    0.2404104  27.13 0.0005740632    1.759    0.431
        49  -9.2607     64.7809    104.0652   9.9089261939e+01   4.7711144420e+01     0.199816    0.1675075 -50.35 0.0003608114    1.070    0.065
        50  -9.3138     16.4997    104.4770   1.1483175889e+02   5.2467480879e+01    0.2160798    0.1270479  19.24  0.001194454    2.112    0.526
        51  -8.5544     89.5870    102.4335   9.0758540446e+01   4.4296411895e+01    0.1499322    0.1367037 -32.67 -9.313441e-06    1.064    0.060
        52  -9.9094     45.8137    101.8789   1.0483216183e+02   5.0529027916e+01    0.2160035    0.1604369 -38.16  0.001009863    1.335    0.251
        53 -10.6285     53.4909     98.9850   1.0164072290e+02   5.0351875266e+01     0.486127     0.266863 -50.04   0.00230769    1.578    0.366
        54  -9.5663      1.3309    100.6963   1.1905810465e+02   5.4257521955e+01    0.2021894   0.09162454 -74.82 0.0004542234    1.795    0.443
        55 -10.5085     69.3673     97.2577   9.5924581306e+01   4.8682793194e+01    0.3597246     0.240912 -62.80  0.001051329    1.539    0.350
        56  -8.5082     21.7130     97.6827   1.1203089998e+02   5.3705722617e+01    0.1846606   0.08930221 -65.67 0.0005121186    1.684    0.406
        57  -9.9765     16.5738     95.6394   1.1338851062e+02   5.4549317028e+01     0.386698    0.2211831  67.64  0.001899339    2.501    0.600
        58  -8.3153     12.3353    107.2918   1.1654466432e+02   5.2076871534e+01    0.1281169   0.07593453 -44.73 0.0005463557    1.638    0.390
        59  -9.6943     78.8899     95.7853   9.2405112814e+01   4.7592615711e+01    0.3406484    0.2261299 -42.78  0.001629834    1.409    0.290
        60  -8.8357    148.0426     96.2757   7.2548959084e+01   3.3554716120e+01    0.2206852    0.2009017  47.92 0.0003677671    1.111    0.100
        61  -9.0937    132.2139     93.8416   7.5896674478e+01   3.7680758351e+01     0.219227    0.1863158   5.74 0.0005590283    1.329    0.248
        62  -9.0075      1.4162     94.0204   1.1812722629e+02   5.5802033644e+01    0.1842996    0.0933486 -70.36 0.0004325043    1.531    0.347
        63  -8.4430    109.3048     93.6681   8.2296501315e+01   4.2597677739e+01    0.1534724    0.1242569 -85.63 0.0003317306    1.659    0.397
        64 -10.4541     88.3904     91.3537   8.8094770155e+01   4.7025336608e+01    0.6231353    0.3707656 -71.11  0.002304672    2.936    0.659
        65 -10.2108     37.3464     92.8891   1.0579058465e+02   5.3518628770e+01    0.2590271    0.1582607  24.82  0.001361067    1.904    0.475
        66  -9.1561      9.7124     93.3430   1.1529734366e+02   5.5516016697e+01     0.234563    0.1248821  40.32  0.001255759    2.305    0.566
        67  -9.5651     72.5762     90.6183   9.3102816787e+01   4.9745822507e+01    0.4048227    0.2319085 -68.28  0.001632829    2.454    0.592
        68  -9.1636     52.0041     91.3029   1.0033781416e+02   5.2333602147e+01    0.2813766    0.1588735 -47.22  0.001353837    1.544    0.352
        69  -9.4566     43.3861     90.9787   1.0326532748e+02   5.3364118817e+01    0.2908968    0.2090987  82.57  0.001505058    1.916    0.478
        70  -9.0575      2.1119     90.1174   1.1733419142e+02   5.6668590812e+01    0.1936734    0.1302317 -51.51  0.001224188    1.252    0.202
        71  -9.2104    153.9999     89.5295   6.9162116530e+01   3.3482266812e+01    0.2301867    0.1553835  50.91 2.268344e-05    1.493    0.330
        72  -8.3848     57.3257     89.2814   9.7980846290e+01   5.2154230946e+01    0.1414237   0.09827409 -25.80 0.0002597198    1.597    0.374
        73  -9.5870     47.7031     88.9501   1.0127171748e+02   5.3371415419e+01    0.1898045    0.1512085 -53.73 0.0002217745    1.099    0.090
        74  -8.8729     16.4418     88.7524   1.1222804570e+02   5.6166113811e+01    0.1890384    0.0883188 -56.03 0.0009496954    1.629    0.386
        75 -11.7376    132.0603     86.4564   7.3735749100e+01   3.9220621924e+01    0.3951729    0.3275605   6.53 0.0004203014    1.386    0.279
        76 -11.3955    120.8400     87.9367   7.7253571391e+01   4.1408161114e+01     0.521699    0.3554533  50.17  0.001363575    1.543    0.352
        77 -10.8759    124.8744     85.6798   7.5442772126e+01   4.0987899400e+01    0.3549584    0.3007948 -30.89  0.001143983    1.173    0.148
        78  -9.6001    109.4245     88.2329   8.0649369924e+01   4.3739647703e+01    0.2171666    0.1441272 -53.24 0.0004668814    1.629    0.386
        79  -9.7570    174.0121     84.7255   6.3361473793e+01   2.9527890122e+01    0.2177784    0.2028762  55.16 0.0004328671    1.085    0.079
        80  -9.2974     81.6773     84.8992   8.8421764880e+01   4.9591412122e+01    0.2049069    0.1733544 -42.34 0.0002543528    1.104    0.094
        81 -10.0748     75.8311     82.9123   8.9811999337e+01   5.0970681483e+01    0.2937365    0.2599628 -76.64 0.0008078717    1.363    0.266
        82  -9.7935     46.0004     83.9616   1.0064903908e+02   5.4706715333e+01    0.2062869     0.173317 -46.41 0.0003609829    1.018    0.018
        83  -9.5624     33.6411     84.0158   1.0514038696e+02   5.5925016296e+01    0.2137449    0.1754585  53.09 0.0004017319    1.517    0.341
        84  -8.4777     70.8327     83.1517   9.1603165707e+01   5.1683392719e+01    0.1989999    0.1558876 -23.72  0.001048146    1.305    0.234
        85 -10.5960      6.3376     80.3298   1.1428365895e+02   5.8695780278e+01    0.3828744    0.2263445 -46.91  0.001331919    1.411    0.291
        86  -9.8402      4.7112     76.3014   1.1415224566e+02   5.9688682245e+01    0.1816063    0.1484466 -69.77   0.00054762    1.148    0.129
        87 -11.3396    104.2617     78.9558   7.9338722055e+01   4.6708483702e+01    0.5222577    0.3922599  46.51  0.001166764    1.404    0.288
        88 -10.5269    108.6581     74.0186   7.6417124333e+01   4.6795111189e+01     0.597928    0.3580575  -4.91    0.0020301    3.360    0.702
        89  -9.9122     55.5092     80.0195   9.6158555759e+01   5.4482800981e+01    0.3278015    0.2178018 -42.74  0.001496946    1.326    0.246
        90  -9.8201     37.3068     79.5927   1.0274486018e+02   5.6592815368e+01    0.3726439    0.2292745 -85.75  0.001689768    2.614    0.617
        91 -10.3344    154.5330     79.8766   6.6182647176e+01   3.5176997702e+01    0.2585923    0.2210602  83.28  0.001137028    1.351    0.260
        92  -8.6983    143.5325     80.4686   6.8976328161e+01   3.7714998348e+01    0.1540151    0.1522212 -71.14 0.0008082924    1.057    0.054
        93 -11.0067     97.3869     77.7078   8.1084084990e+01   4.8311147960e+01    0.5694699    0.3438628 -37.19  0.001996574    1.621    0.383
        94  -9.1725     99.3114     72.3083   7.8725389504e+01   4.9023307398e+01    0.1521561    0.1475665 -29.76 0.0004231331    1.103    0.094
        95 -10.2423     97.0476     68.9754   7.8332933944e+01   5.0117881611e+01    0.3916895     0.228953 -44.96 0.0007704914    1.725    0.420
        96  -8.4976     80.9135     80.7145   8.7425966898e+01   5.0627405062e+01    0.2301607    0.1160842  15.79 0.0005404666    4.242    0.764
        97  -9.0199     43.5523     78.8484   1.0023695534e+02   5.6128741392e+01    0.2025283    0.1140872 -53.85 0.0007814078    1.516    0.340
        98 -10.2820     50.0401     77.1948   9.7384605096e+01   5.5773713312e+01    0.3229266     0.254173  -3.75  0.001278841    1.396    0.284
        99 -10.4737     57.4111     72.4058   9.3259862491e+01   5.5906225054e+01       0.5226    0.2821849 -10.68  0.001892626    3.658    0.727
       100 -11.2756     78.2366     74.9194   8.6546278165e+01   5.2300141297e+01    0.3879165    0.2780095  26.88 0.0007529775    1.488    0.328
       101  -9.7987     73.6241     75.3420   8.8286671755e+01   5.2950120021e+01    0.4401467    0.1886485 -37.11  0.001661831    2.482    0.597
       102 -10.5029    129.8352     75.5152   7.0928611886e+01   4.1856495136e+01    0.3669599    0.2467274  28.12  0.001023392    1.750    0.428
       103 -11.0220    152.3244     73.4766   6.4747968856e+01   3.6872806915e+01    0.3921601    0.3007973  48.09 0.0007227616    1.288    0.223
       104 -10.2144     45.6259     72.7936   9.7817550955e+01   5.7246489201e+01    0.2901931    0.2077054 -39.50 0.0008100343    1.210    0.173
       105  -9.4146     22.1853     80.7427   1.0860143093e+02   5.7611237352e+01    0.2745073    0.2075971 -50.95   0.00171604    1.070    0.065
       106 -11.3224    139.0295     72.3007   6.7548648732e+01   4.0297156662e+01    0.5525964    0.3359181  38.50  0.001280712    1.749    0.428
       107  -9.0534    138.1110     81.1463   7.0540639671e+01   3.8865413664e+01    0.2108134     0.186862 -76.28 0.0004863104    1.312    0.238
       108  -8.8077    124.7084     72.3331   7.1282801830e+01   4.3622838795e+01    0.1521399     0.122763 -74.05 0.0003976804    1.633    0.388
       109 -11.3544     65.6201     71.1452   8.9842110611e+01   5.5042344379e+01    0.3554605    0.2657766  43.11  0.000485781    1.561    0.359
       110  -8.6349     38.8386     71.3753   1.0003106822e+02   5.8273684667e+01    0.1674511    0.1173152  -2.92 0.0003716137    1.652    0.395
       111  -9.0824     17.7638     69.6040   1.0781237978e+02   6.0425335231e+01    0.3197338    0.1435144 -52.37  0.001616527    1.676    0.403
       112 -10.1141    166.3206     69.9509   6.0648981776e+01   3.4021465150e+01    0.2197978    0.1967056 -35.22  0.001137719    1.127    0.112
       113  -8.8659     51.8749     69.4393   9.4455296089e+01   5.7242085827e+01    0.2320144    0.1562189 -35.55  0.001233293    1.344    0.256
       114 -10.2621    162.1731     67.6771   6.0826116990e+01   3.5438545528e+01    0.2919094    0.1917257 -20.17   0.00125057    1.814    0.449
       115 -11.9770    152.9762     65.7152   6.2202590513e+01   3.8053555638e+01    0.5921111    0.5175283  59.41  0.003068807    1.144    0.126
       116  -9.1059    121.0424     68.0126   7.0870188585e+01   4.5245760442e+01    0.2554339    0.1841178   8.47  0.001130987    1.792    0.442
       117 -10.5002     89.3780     67.1902   8.0226354577e+01   5.1920704695e+01    0.3594716    0.2944853 -84.74 0.0008475503    1.829    0.453
       118 -10.7646    110.3281     63.1797   7.2287860918e+01   4.8474978192e+01    0.5174433    0.4262823  70.69  0.002614249    1.538    0.350
       119 -10.3325     44.2072     62.6899   9.5389552370e+01   5.9564048239e+01      0.50637    0.2786215 -37.61  0.002237043    1.633    0.387
       120  -8.8464     29.9986     72.5198   1.0375200594e+02   5.8842914186e+01    0.1672327    0.1261616  17.79  0.001009039    1.529    0.346
       121  -8.9039     33.2471     64.4189   1.0030817509e+02   6.0319153794e+01     0.223676    0.1251864  14.37  0.001141892    2.119    0.528
       122  -9.7268      2.4439     62.4846   1.1232495617e+02   6.2849733045e+01    0.2362999    0.1476805 -69.15 0.0005094465    1.427    0.299
       123  -9.7107      4.4639     59.5007   1.1085447624e+02   6.3398008712e+01    0.2101117    0.1573278 -38.97 0.0007473466    1.156    0.135
       124 -10.6657      7.9216     57.0164   1.0883341882e+02   6.3750982731e+01    0.2087691    0.1559133 -38.34 0.0002876373    1.133    0.117
       125 -10.6908    172.9158     62.5156   5.7143885849e+01   3.3589787439e+01    0.3786432    0.2662884 -23.24  0.001756348    1.580    0.367
       126  -9.8276     66.9337     62.9730   8.6692630361e+01   5.6522050477e+01    0.2087174    0.1803883 -21.52 0.0003459703    1.024    0.023
       127  -9.3044     71.5407     62.2219   8.4740950519e+01   5.5957752576e+01    0.2510172    0.1632537  46.47 0.0008935265    1.842    0.457
       128  -8.7518    162.6493     60.7240   5.8615275882e+01   3.6456438584e+01    0.1565896    0.1136689  28.71 0.0002922109    1.639    0.390
       129  -8.8130    120.9745     60.5255   6.8367567445e+01   4.6584430204e+01    0.2175678      0.11916  29.28 0.0008084787    2.421    0.587
       130  -8.3913     87.6638     60.3156   7.8417394695e+01   5.3544709316e+01    0.1375475    0.1178785 -85.80 0.0007047564    1.695    0.410
       131 -10.4319     59.4817     57.7784   8.7741781709e+01   5.8632346973e+01    0.3937241    0.3087412  15.58  0.002173208    1.311    0.237
       132  -9.9495     50.8801     59.4808   9.1699348886e+01   5.9433940073e+01    0.2350001    0.1690991 -42.87 0.0003300366    1.232    0.188
       133 -10.8155    150.8604     57.7701   6.0165119530e+01   3.9875161851e+01    0.2902837    0.2781622  23.42 0.0002845574    1.054    0.051
       134 -10.7884    146.7414     55.3912   6.0305542030e+01   4.1271489638e+01    0.5731047    0.3362733  19.20  0.002072327    2.925    0.658
       135 -10.7417     95.1326     57.5639   7.4979727104e+01   5.2614263298e+01    0.4755475    0.3013445 -12.80  0.002070467    2.051    0.512
       136  -9.6463    159.2926     57.1789   5.8205711195e+01   3.7858301354e+01     0.320811    0.2484217  12.81   0.00097157    1.602    0.376
       137 -10.0203    162.7542     52.6809   5.6128285362e+01   3.7671253676e+01     0.339348    0.2879883 -14.66 0.0008068164    1.300    0.231
       138  -9.7341     69.0113     56.4112   8.3634135720e+01   5.7476050623e+01    0.3771873     0.185856 -45.47  0.001664313    1.975    0.494
       139  -9.3964     34.3668     57.7376   9.7878916821e+01   6.1617951754e+01    0.2078418    0.1741171 -58.10 0.0006901007    1.303    0.233
       140 -10.2926    200.2759     56.0695   5.0699831860e+01   2.7758015401e+01     0.416172    0.2684432  23.50  0.001685048    2.466    0.594
       141 -10.8764    204.4635     52.8003   4.9215022009e+01   2.7212573822e+01    0.8275787    0.4001421 -62.73   0.00294454    3.145    0.682
       142 -10.4652    207.7043     49.9727   4.8019377246e+01   2.6829996121e+01    0.3471735    0.2542554  76.97 0.0009367058    1.393    0.282
       143  -8.8657    111.8865     56.4006   6.9472450633e+01   4.9316821116e+01    0.2758981     0.171848 -10.54 0.0009249356    2.216    0.549
       144  -9.1654    105.1432     56.0144   7.1313663436e+01   5.0835563620e+01    0.2483482    0.1948301  41.13 0.0006457049    1.255    0.203
       145  -9.6745     79.5261     54.9877   7.9302352596e+01   5.5989577815e+01    0.4061894    0.2482084  -4.93  0.001700167    2.452    0.592
       146  -9.6422     82.3243     51.3447   7.6974110992e+01   5.6137618538e+01    0.2436762    0.2226577  19.20  0.001435946    1.119    0.107
       147 -10.2051     84.3913     47.8086   7.4923762181e+01   5.6360492013e+01    0.3767372    0.2043678 -28.31  0.001680521    1.906    0.475
       148  -8.5847     26.0540     56.2390   1.0092783826e+02   6.2675898216e+01    0.1400411    0.1019251   8.55 0.0005129601    1.517    0.341
       149 -10.4337    173.9697     52.7672   5.4070505827e+01   3.4819881921e+01    0.3888875     0.202797 -22.95  0.001531305    2.327    0.570
       150 -10.8815    136.5199     53.1285   6.1902006950e+01   4.4130721612e+01    0.4267947    0.3899051   8.13  0.002323112    1.123    0.109
       151  -8.7921     85.6482     53.9520   7.6800865854e+01   5.5070514609e+01    0.2835991    0.1248138 -32.47  0.001099568    2.391    0.582
       152  -9.7879     42.8584     52.0850   9.2482814769e+01   6.1862741994e+01    0.3302487     0.219724  39.27  0.001720787    1.854    0.461
       153  -8.7454     36.0046     52.5321   9.5531934218e+01   6.2513195819e+01    0.2619707    0.1585417 -67.68  0.001258158    2.439    0.590
       154  -8.4944     29.4773     52.4523   9.8307665259e+01   6.3155692404e+01    0.1279478    0.1018544 -33.70 0.0001223101    1.013    0.012
       155 -10.4340     18.0651     51.0408   1.0286021034e+02   6.4365303190e+01    0.2642549    0.2025017  -9.20 0.0004792872    1.340    0.254
       156  -9.9220    126.5890     50.3584   6.3385208063e+01   4.6936922602e+01    0.2950257    0.2335781  20.87 0.0002332691    1.355    0.262
       157 -11.0824    107.2027     50.7126   6.8787887879e+01   5.1275815832e+01     0.476072    0.2534125  44.15 0.0005511476    1.815    0.449
       158  -8.8221     55.2849     50.3516   8.6754535300e+01   6.0636064084e+01    0.2137395    0.1187539 -37.37 0.0005947413    1.611    0.379
       159 -11.0045     58.9522     47.5470   8.4242886383e+01   6.0635486190e+01    0.3373086    0.2623229   7.43 0.0004237691    1.264    0.209
       160  -9.2829     49.1136     49.6231   8.9007895634e+01   6.1585714663e+01    0.2138321    0.1535174 -16.32 0.0004270333    1.349    0.259
       161 -10.3513     46.0334     47.0809   8.9370234555e+01   6.2447697970e+01    0.2068931    0.1722325 -34.75 0.0002987592    1.143    0.125
       162  -9.7028    121.5150     48.5078   6.4037514790e+01   4.8408519252e+01     0.289231    0.2591072 -75.26  0.001540816    1.359    0.264
       163  -9.5365     96.2421     48.1592   7.1167929681e+01   5.3989913376e+01    0.3188666     0.250378 -17.35  0.001701689    1.261    0.207
       164  -9.8533      6.0037     48.0544   1.0738770454e+02   6.5725084788e+01    0.1752159    0.1321056 -42.63  0.000326811    1.020    0.020
       165  -9.7635     33.5103     46.4423   9.4554188093e+01   6.3961390951e+01    0.2065395    0.1920858  29.53  0.001289359    1.398    0.285
       166 -10.5869    142.9685     43.4394   5.7200604964e+01   4.3976466782e+01    0.4647382     0.321411   9.41  0.001556533    1.917    0.478
       167 -10.5039    167.1191     43.6438   5.2550205831e+01   3.7858879480e+01    0.3613038    0.3189974  22.50  0.001386832    1.262    0.208
       168  -8.6622    174.6862     44.7172   5.1565191869e+01   3.5788644902e+01    0.1463268    0.1084718  33.07 0.0002319489    1.575    0.365
       169  -9.5610    109.3011     44.2890   6.5820002098e+01   5.1817284495e+01    0.2786714    0.2528395  56.07  0.001008312    1.209    0.173
       170  -9.8692     55.3413     42.0643   8.3583342322e+01   6.2126844920e+01    0.4019841    0.2814901  10.15  0.001244971    1.476    0.323
       171 -10.7304     63.2679     40.9253   7.9954909462e+01   6.1139548093e+01    0.3561807    0.2690127  28.10  0.001399124    1.325    0.245
       172  -9.7184     69.2521     36.6094   7.5895679852e+01   6.0864927963e+01    0.3405548    0.2098587 -21.03  0.001234516    1.644    0.392
       173  -9.4568     63.5735     36.6020   7.8071668083e+01   6.1799154413e+01    0.4215251    0.2022505  43.46  0.001925887    2.301    0.565
       174  -9.1087     19.4170     43.1252   9.9802594319e+01   6.5851440430e+01    0.2001821    0.1494645  36.61 0.0007058349    1.774    0.436
       175  -8.7337      8.5931     42.6925   1.0469456722e+02   6.6666575868e+01    0.1859017   0.09855059 -33.96 0.0007152939    1.598    0.374
       176  -8.8205    217.5434     42.5222   4.4851114572e+01   2.5502524970e+01    0.1399805    0.1203422 -66.92 -6.342356e-06    1.064    0.060
       177 -10.1740    204.6787     41.5131   4.6208367027e+01   2.8727658811e+01    0.3556847    0.1909185 -51.52            0    1.906    0.475
       178  -9.9646     36.7314     39.3486   9.0530561851e+01   6.4953704582e+01    0.4172233    0.1669652 -42.72  0.001481502    2.104    0.525
       179 -10.2178    149.7784     39.4186   5.4468447260e+01   4.2822220253e+01    0.5158324    0.2736236 -49.07  0.001488849    2.246    0.555
       180  -9.7848    150.3009     32.8593   5.2226575928e+01   4.3532823557e+01    0.3431955    0.2281155 -21.21  0.001094221    1.681    0.405
       181  -9.3294     75.4265     44.6741   7.6863659798e+01   5.8502048947e+01    0.2403392    0.1556157  17.78  0.001052149    1.735    0.424
       182  -8.8323     28.0557     40.9237   9.5063401596e+01   6.5542155488e+01    0.1928466    0.1147236 -26.89 0.0003906175    1.539    0.350
       183  -7.8945    112.3302     40.3161   6.3503052148e+01   5.1720901996e+01    0.1526958    0.1037855  20.95 0.0007046118    1.681    0.405
       184 -10.2607     48.6390     37.6724   8.4635772317e+01   6.3805731295e+01    0.3214208    0.2164449 -50.12  0.001768922    1.763    0.433
       185 -10.6487     33.8317     34.6962   9.0042156705e+01   6.6101504535e+01    0.3448004    0.2105611 -18.62  0.001649378    1.615    0.381
       186 -10.2060    161.5608     37.8405   5.1750955161e+01   4.0047918085e+01    0.2767005    0.2249916  58.46 0.0004323705    1.156    0.135
       187  -9.2261     74.9357     37.5359   7.4181500632e+01   5.9735735984e+01    0.2018026    0.1798207 -27.37 0.0004301648    1.223    0.183
       188  -9.7437     82.5303     35.9264   7.0858241725e+01   5.8582015458e+01     0.236735    0.2217953   1.52  0.000592335    1.151    0.131
       189 -10.8901     78.4381     31.8901   7.0593527574e+01   5.9937070873e+01    0.4415271    0.2839692 -12.07  0.001481781    1.672    0.402
       190  -9.4651     32.2652     38.6413   9.2290947850e+01   6.5555991034e+01    0.1851586    0.1708057 -46.26 0.0002483189    1.384    0.278
       191  -9.0972    249.7610     37.0057   4.0156782627e+01   1.8991009091e+01    0.1927495    0.1193911 -68.93 0.0007718899    1.628    0.386
       192 -10.1149    127.8538     36.7210   5.8273116620e+01   4.8588167500e+01    0.5109207    0.2621476  64.28  0.001910723    2.174    0.540
       193 -10.4777    192.6752     34.1525   4.5832985537e+01   3.2645733368e+01    0.5093387    0.2745316  37.75  0.002102317    2.576    0.612
       194  -8.8981     86.3410     34.3003   6.8919165817e+01   5.8081317635e+01    0.1453376   0.09671968  15.18   0.00070366    1.670    0.401
       195  -9.9880    238.9357     22.2922   3.7857156767e+01   2.3154623838e+01    0.3526279    0.2559085  69.63  0.001229885    1.407    0.289
       196 -10.8841    237.2854     31.5198   4.0094860030e+01   2.2397405001e+01    0.5012321    0.3562146 -64.95  0.002135695    1.289    0.224
       197  -9.0747    237.3213     26.6700   3.8986703796e+01   2.2987213235e+01    0.2555605    0.1430176 -54.27  0.000952674    1.627    0.385
       198  -9.7782    114.6984     32.7120   6.0028145516e+01   5.2211042984e+01    0.2468895    0.2262617  54.79 0.0005424471    1.145    0.126
       199  -9.8604    110.6876     29.3131   5.9771558938e+01   5.3559209022e+01     0.264431    0.2399837  35.83  0.000674252    1.047    0.045
       200  -8.7822     59.4786     31.5374   7.7558097841e+01   6.3238789867e+01     0.130528    0.1109125  -4.54 0.0001698527    1.046    0.044
       201  -9.8635     42.8715     29.6583   8.3821633463e+01   6.5892268810e+01    0.3226843    0.1357757 -33.53  0.001392893    2.204    0.546
       202  -9.8860     47.3306     28.7070   8.1430906402e+01   6.5455078707e+01    0.2532923    0.1879752   8.81 0.0009543417    1.249    0.199
       203  -8.6787     21.4892     31.0023   9.4487738191e+01   6.7957068855e+01    0.1737652   0.09826642 -44.85 0.0003958936    1.489    0.328
       204  -9.2633    229.8997     29.4879   4.0340731312e+01   2.4310820987e+01    0.2202258    0.1492095 -49.59  0.001226791    1.323    0.244
       205  -9.0482     65.2524     29.9277   7.4587955004e+01   6.2549144860e+01     0.253661    0.1481814 -51.80  0.001138689    2.775    0.640
       206  -9.7141    106.9489     35.0404   6.2981833487e+01   5.3657452247e+01    0.2209836    0.1981919  50.86 -0.001877172    1.173    0.148
       207 -10.1449    181.7255     27.7118   4.5539358257e+01   3.6180213504e+01    0.5894628    0.2688222  39.65  0.002192903    3.082    0.676
       208  -9.5662     54.2258     28.1974   7.8256870572e+01   6.4548787217e+01    0.3103052    0.1344057 -23.04  0.001052138    2.997    0.666
       209  -9.2479     16.3471     28.0145   9.5896149137e+01   6.8917357611e+01     0.316599    0.1297073 -32.92  0.001551445    2.196    0.545
       210  -8.9373    215.6043     28.2456   4.1517264918e+01   2.7786947853e+01    0.1746084    0.1290552 -19.81 0.0009477882    1.618    0.382
       211  -9.7226    206.3532     26.5905   4.2127190590e+01   3.0205384410e+01     0.298478    0.1615256 -29.32  0.001410007    1.941    0.485
       212  -8.4094    158.4855     28.6032   4.9393175245e+01   4.1974399144e+01      0.14164    0.1284921  67.26  0.000156125    1.023    0.023
       213 -10.3490    120.8029     25.6965   5.5910768628e+01   5.1639796397e+01    0.3987869    0.2926819  72.78  0.001521118    1.553    0.356
       214  -9.5277     81.6255     26.6184   6.7269229452e+01   6.0051836922e+01    0.2409974    0.2331943  -5.13  0.001152029    1.257    0.205
       215  -8.2172    197.3239     26.2946   4.3114267669e+01   3.2450069185e+01    0.1356988     0.100096  39.72 0.0005276082    1.619    0.383
       216 -10.7435     38.5507     17.6223   8.0341746542e+01   6.8288843246e+01    0.3771963    0.2041118  26.61 0.0006535751    1.822    0.451
       217  -9.7984    103.0139    249.0322   1.1173083199e+02   1.0000672177e+01    0.2990705    0.1369459  46.43  0.001571574    1.737    0.424
       218 -10.0732     29.5291     18.1628   8.4974798352e+01   6.9295835959e+01    0.2989562    0.1944166  -7.61  0.001348207    1.423    0.297
       219  -8.7540     14.8033     24.1257   9.5145310986e+01   6.9723251569e+01    0.1663721   0.09991625 -29.26 0.0004538531    1.336    0.252
       220  -9.2472    227.3333     23.0908   3.9088915016e+01   2.5668766969e+01    0.2529607    0.1732911  86.33 0.0009233176    1.402    0.287
       221  -9.3098    178.9748     22.5285   4.4438394953e+01   3.7470234993e+01    0.2517385    0.1983541   5.69  0.001359351    1.623    0.384
       222 -10.1885    164.2200     22.2714   4.6498260542e+01   4.1238024246e+01    0.2959033    0.2374936  42.98 0.0007527443    1.283    0.221
       223  -9.0230    218.1385     21.8625   3.9689389840e+01   2.7946436325e+01    0.1967803    0.1539858 -66.35  0.001163028    1.157    0.135
       224  -9.3598    142.1533     20.8659   4.9763811492e+01   4.6960322325e+01    0.2781795    0.2043561  -9.02  0.001460031    1.576    0.366
       225 -13.4007     73.3974    216.3521   1.1427103306e+02   2.0333737844e+01     2.166021    0.7175021  43.32  0.009149516    2.492    0.599
       226 -11.2453    131.6429    205.7015   1.0044485823e+02   1.3392746735e+01    0.6631281    0.2881411  38.91   0.00280626    2.074    0.518
       227  -9.3219     51.5941     21.1308   7.6162521193e+01   6.5971036360e+01    0.2304577    0.1844528 -21.89  0.001479093    1.208    0.172
       228  -9.3687      7.6524     22.3822   9.8228717077e+01   7.0547931417e+01    0.1938987    0.1261209   2.24 0.0006634794    1.550    0.355
       229  -9.7095      2.0860     21.5255   1.0090482948e+02   7.1042734001e+01    0.2196462     0.150151 -40.69 0.0009197771    1.128    0.114
       230  -8.9481    131.4751     20.1883   5.1591556720e+01   4.9674024326e+01    0.3295743    0.1921767 -73.02  0.001292205    3.065    0.674
       231  -8.7724     19.6776     21.4553   9.1489279284e+01   6.9765251783e+01    0.1585547   0.09618165   0.49 0.0009426934    1.676    0.403
       232  -9.1124    222.4043     20.3244   3.8903844684e+01   2.7127870034e+01    0.2238331     0.139173  61.54 0.0006161047    1.626    0.385
       233  -9.4485    156.1896    214.6160   9.6580015356e+01   7.4907760861e+00    0.1940953    0.1143352  31.05 0.0009435751    1.633    0.388
       234  -9.2711      1.3845    185.7157   1.2654371939e+02   3.4787380970e+01    0.2771545   0.08245032 -75.66  0.001279053    2.644    0.622
       235 -10.0875    119.8561     19.0876   5.3661326133e+01   5.2593807330e+01    0.2666763     0.206214  50.94  0.000502568    1.157    0.135
       236  -9.3023     63.6886     19.4847   7.0506463024e+01   6.4249428519e+01    0.2120423    0.1749516 -14.45  0.000232356    1.171    0.146
       237  -9.9616     86.8134     17.4021   6.1633122168e+01   6.0131597227e+01    0.2618172    0.2006436  14.26  0.001253264    1.221    0.181
       238 -10.9105      4.9275    168.2411   1.2465639903e+02   3.8347797165e+01    0.4318668    0.1831821  57.20  0.002212463    2.306    0.566
       239  -8.7145     23.2747    162.6362   1.2000310473e+02   3.8083129542e+01    0.1311256   0.07703923  73.71 0.0005616435    1.666    0.400
       240  -9.7323     55.4944     17.9634   7.3042013928e+01   6.5798404746e+01    0.2324936    0.1820036   6.07 0.0005699363    1.066    0.062
       241  -8.4028     26.3151    157.7213   1.1878568805e+02   3.8952458864e+01    0.1273517   0.08015083  68.67 0.0002250376    1.570    0.363
       242 -10.5578      2.6450    152.7626   1.2400500362e+02   4.2031479760e+01    0.3133989    0.2330039 -27.99  0.001836837    1.923    0.480
       243  -9.2915     10.2954    151.4527   1.2207148030e+02   4.1774596961e+01    0.1940801    0.1246973  16.10   0.00115009    2.136    0.532
       244  -9.9085     21.8186     15.4670   8.7661381044e+01   7.0523028288e+01    0.2673099    0.1942446  16.25  0.001823217    1.393    0.282
       245 -12.7314    216.0293    135.5512   6.8217008647e+01   1.0561320784e+01     1.787538     1.030545 -51.75  0.007569246    2.092    0.522
       246 -12.3088    229.0774    135.3362   6.5821527187e+01   7.9808170514e+00    0.8268839    0.7101717  87.13  0.004524347    1.600    0.375
       247 -13.5464    234.9062    128.5014   6.3260169207e+01   8.0058565240e+00     3.548818     2.118492 -51.39   0.01616349    1.951    0.487
       248  -8.5986    144.4313     14.4714   4.7213772567e+01   4.7043333322e+01    0.1383407    0.1215666  51.63 0.0001546162    1.053    0.051
       249  -8.4159    162.4350     13.3940   4.4050972346e+01   4.2614108570e+01    0.1357439    0.1200069  77.33 4.162344e-05    1.036    0.035
       250  -9.6256     35.8764    141.5616   1.1445058537e+02   4.1899205561e+01     0.250724    0.1677005  25.24  0.001058405    1.809    0.447
       251 -10.1219     21.9218    141.9325   1.1819194453e+02   4.3087760173e+01    0.2028464    0.1706589  52.42 0.0003585408    1.302    0.232
       252  -9.5604      5.8256    140.8154   1.2220568777e+02   4.4579467750e+01    0.1758576    0.1318569 -68.71 0.0004327934    1.166    0.142
       253  -9.8044     29.8148    137.9857   1.1562076175e+02   4.3341935813e+01    0.2601374    0.1955421  19.69    0.0010266    1.679    0.404
       254  -8.3775     15.6388    131.2751   1.1864852028e+02   4.6132479308e+01    0.1259645   0.08087685  66.97 0.0007005901    1.660    0.398
       255  -8.8178      4.8581    130.8707   1.2149627408e+02   4.6975535597e+01     0.162261    0.1176832  81.05 0.0003571497    1.275    0.216
       256  -8.0548     67.6297     12.6811   6.5851269709e+01   6.4371806029e+01    0.1404195   0.08241922  18.51 8.882143e-06    1.793    0.442
       257  -8.7786     12.6010    127.7679   1.1907442121e+02   4.7188969700e+01    0.2411224   0.08904715 -67.17  0.001089438    2.044    0.511
       258  -9.4538     88.8591     10.3189   5.7942136632e+01   6.0444023385e+01    0.2519422    0.1220308  57.94  0.001154613    2.093    0.522
       259  -8.9136     33.4397    127.4989   1.1317626489e+02   4.5550181492e+01    0.1321048    0.1099928 -73.17 8.755724e-05    1.009    0.009
       260  -9.8532     28.3643    125.1788   1.1430206582e+02   4.6571622117e+01    0.3224311    0.1836481 -73.73  0.001676946    1.521    0.343
       261 -10.0988     48.1338    125.6169   1.0859796279e+02   4.4508247159e+01    0.3013537    0.2366015 -14.80  0.001683112    1.644    0.392
       262  -8.9684     38.4713    125.0049   1.1133837649e+02   4.5673702498e+01     0.198907    0.1132225 -66.14 0.0003975842    1.488    0.328
       263  -8.6272     23.4653    125.4773   1.1574754416e+02   4.6912484371e+01    0.1288685    0.1054014 -75.94 7.548386e-05    1.021    0.020
       264  -8.2431     19.5150    125.4868   1.1687029372e+02   4.7223747771e+01    0.1280178    0.1029442 -70.23 0.0001599058    1.040    0.039
       265  -9.0158     12.6047    122.8336   1.1849250254e+02   4.8363476879e+01    0.2572068    0.1378465  63.96 0.0009726291    2.237    0.553
       266  -9.3766      9.0207    123.0202   1.1952079947e+02   4.8560050468e+01    0.3161244   0.09825476 -56.93 0.0007931485    2.481    0.597
       267  -9.5170     94.0333    122.6197   9.4394378370e+01   3.8758825190e+01    0.2462688     0.200657 -67.63 0.0004070957    1.259    0.206
       268  -9.0474     78.2549    122.9951   9.9130021969e+01   4.1209895704e+01    0.2014494    0.1746836 -57.50 0.0002963289    1.067    0.063
       269  -8.3318     73.6422    121.7308   1.0024018632e+02   4.2200219576e+01    0.1438346    0.1091336 -22.27 0.0006994729    1.641    0.390
       270  -9.8058     57.9492    117.5259   1.0415045632e+02   4.5337744686e+01     0.264955    0.1706055 -47.78 0.0007575914    1.456    0.313
       271  -8.6961     98.7747    117.3810   9.1767373178e+01   3.9179637254e+01     0.202543    0.1465047  24.80 0.0004691129    1.599    0.375
       272 -10.7179     25.3435    116.3960   1.1391109538e+02   4.8950006500e+01    0.4046104     0.216567  28.14  0.001802576    2.177    0.541
       273 -11.5448     11.4465    114.4837   1.1778379264e+02   5.0427967841e+01    0.2463185    0.2061644 -53.52 0.0002068961    1.194    0.162
       274  -9.6970     38.4502    114.6124   1.0962592630e+02   4.8207866810e+01    0.2533352    0.1786662  68.41 0.0008603128    1.691    0.409
       275  -8.3027      2.5134    114.4251   1.2038069192e+02   5.0983250964e+01    0.1224689   0.09359221 -66.76 5.289294e-05    1.078    0.073
