#   1 NUMBER                 Running object number                                     
#   2 MAG_AUTO               Kron-like elliptical aperture magnitude                    [mag]
#   3 X_IMAGE                Object position along x                                    [pixel]
#   4 Y_IMAGE                Object position along y                                    [pixel]
#   5 X_WORLD                Barycenter position along world x axis                     [deg]
#   6 Y_WORLD                Barycenter position along world y axis                     [deg]
#   7 A_WORLD                Profile RMS along major axis (world units)                 [deg]
#   8 B_WORLD                Profile RMS along minor axis (world units)                 [deg]
#   9 THETA_WORLD            Position angle (CCW/world-x)                               [deg]
#  10 FWHM_WORLD             FWHM assuming a gaussian core                              [deg]
#  11 ELONGATION             A_IMAGE/B_IMAGE                                           
#  12 ELLIPTICITY            1 - B_IMAGE/A_IMAGE                                       
         1 -11.6243     80.3950     23.4115   8.0648955716e+01   5.9010524923e+01    0.5279933    0.2212521  38.18 0.0005462646    2.207    0.547
         2  -9.1477     25.5015     25.5247   1.0135685734e+02   6.6953874851e+01    0.4904944    0.1707837 -27.42   0.00207179    3.581    0.721
         3  -9.4188     63.7410     14.6670   8.2463687037e+01   6.2843003297e+01    0.4589907    0.2250886  17.80  0.002132985    2.813    0.645
         4  -9.4690     70.7101      8.9702   7.8124298785e+01   6.2160179858e+01    0.5220403    0.2157287  45.63  0.002709853    1.945    0.486
         5  -9.4152     79.3690     12.7794   7.7076624959e+01   6.0245007930e+01    0.3751199    0.1924903  51.37  0.001375823    1.704    0.413
         6  -9.6192     74.4733     13.5213   7.8740771458e+01   6.1075514174e+01    0.4450136    0.2357596  24.49  0.002034524    2.068    0.516
         7  -9.2017    124.8801     10.5680   6.6100432766e+01   5.1135527318e+01    0.3030534    0.1691304  43.02  0.000817691    1.707    0.414
         8  -9.7696    134.0307     13.6261   6.5377667588e+01   4.8846609281e+01    0.2608742    0.1958135  43.91 0.0003394043    1.295    0.228
         9 -10.8122    130.4028     10.0351   6.4973997980e+01   4.9970578513e+01    0.3011363    0.2561466 -12.77 0.0003605065    1.432    0.301
        10  -8.3751     87.8287     13.0982   7.4933801533e+01   5.8608100493e+01    0.2132909    0.1462134  18.27 0.0007471407    1.518    0.341
        11  -8.4857     97.3566     12.0496   7.2235970402e+01   5.6813275162e+01    0.2661061    0.1562081  30.60  0.001005774    1.745    0.427
        12  -9.4820     31.7625     10.9131   9.2677607828e+01   6.7983637841e+01    0.4362939    0.2156189  21.74 0.0008869228    1.949    0.487
        13  -9.3205     32.0201      6.0984   9.0486402891e+01   6.8450791561e+01    0.1996427    0.1398598   6.55 0.0003360188    1.132    0.117
        14  -8.5603    109.0064     10.9858   6.9311970395e+01   5.4503244269e+01    0.1791225      0.14105 -82.68  0.000686681    1.640    0.390
        15  -9.0592    119.2800      6.8897   6.6025014952e+01   5.2659324562e+01    0.2367175     0.156687  42.11 0.0001988912    1.402    0.287
        16  -9.2523     46.7483      6.1582   8.4822824058e+01   6.6365151177e+01    0.2558286    0.1640091  28.71 0.0005562537    1.256    0.204
        17  -9.1597     41.2989      5.9442   8.6751575426e+01   6.7189256896e+01    0.3185437    0.1802308   8.72  0.001057939    1.839    0.456
        18 -10.1055      7.7144      5.5660   1.0122650317e+02   7.1250740730e+01    0.5458922     0.203757  16.78  0.002654599    3.320    0.699
        19  -9.0906     77.7965      6.7951   7.5306958059e+01   6.1054315748e+01    0.3759087    0.1080143  45.72  0.001651833    2.639    0.621
        20  -8.7019     76.0000      3.9418   7.4734694962e+01   6.1616479111e+01    0.2816637    0.1578527  -6.90 0.0008227187    2.110    0.526
        21  -8.1146    100.9020      6.5435   6.9597687401e+01   5.6552002432e+01    0.1839529    0.0971499  56.17  0.001013674    1.549    0.354
        22  -9.3834     92.5167      5.2295   7.1043323870e+01   5.8347200634e+01    0.3786772    0.1451135  53.43  0.001862683    2.028    0.507
        23  -9.6599     84.8635      5.4539   7.2974514274e+01   5.9826079205e+01    0.2308417    0.1974693  21.65  0.001672884    1.136    0.120
        24  -9.2940    110.8714      3.5556   6.6589152800e+01   5.4714165359e+01    0.2983799    0.2148668 -34.01  0.001555196    1.672    0.402
        25  -8.2924    153.2429      3.3979   5.9723100106e+01   4.5458319969e+01    0.1737898   0.09817708  79.23 0.0009465424    1.637    0.389
        26  -7.5936    134.4403      3.4216   6.2444317735e+01   4.9634341778e+01    0.1201572   0.09775393  65.97  2.84609e-05    1.015    0.014
        27  -8.4028     57.2974      3.3706   8.0055892664e+01   6.4939047248e+01    0.2418412     0.115912  41.79  0.001142502    1.678    0.404
        28  -8.2530    143.1097      2.0529   6.0774104796e+01   4.7827505736e+01     0.177502    0.1431547  65.21    0.0003358    1.039    0.038
        29  -8.5029    105.2525      1.9449   6.7187987398e+01   5.6009959676e+01    0.2401637    0.1369366  51.50  0.001080443    1.386    0.279
        30  -7.6808      2.8178      1.3604   1.0177573015e+02   7.2182431369e+01    0.1426513   0.07353269  12.15 0.0005431005    1.737    0.424
        31  -8.1027     61.0120    106.4447   1.1304515027e+02   4.7958470217e+01    0.2026923    0.1382726  28.48 0.0005997804    1.595    0.373
        32 -10.5070    231.0078    250.2031   1.0093183050e+02  -1.2376442043e+01    0.5097152    0.2101554  41.31  0.001378718    2.765    0.638
        33  -9.6074    214.3099    246.6354   1.0348901755e+02  -9.5303975440e+00    0.2199269    0.1968905  67.02  0.001095476    1.726    0.421
        34  -9.7602    205.3688    250.3058   1.0583966816e+02  -8.8141259005e+00    0.4444117    0.1358008  32.73  0.001681439    3.262    0.693
        35 -10.9496    187.4965    249.0979   1.0919237555e+02  -5.9307636540e+00    0.5210957    0.3566314  42.87  0.002940388    1.487    0.328
        36  -9.9332    198.0593    249.4459   1.0713735822e+02  -7.5949161233e+00    0.3591409    0.2100563  24.43  0.001881264    1.666    0.400
        37  -9.1440     14.5384    105.3905   1.2804123363e+02   5.2968857704e+01    0.3198628    0.1593586 -29.02  0.001532365    2.368    0.578
        38  -8.2736     67.7969    104.9289   1.1048323575e+02   4.7350852872e+01    0.3808306    0.1900675  14.04  0.001317536    3.680    0.728
        39  -7.9604     94.3519    103.3874   1.0182661394e+02   4.3364930264e+01    0.2744289    0.1349501  24.83 0.0008597492    3.095    0.677
        40  -8.0408    168.2164     98.3040   8.1724385585e+01   2.8725659598e+01    0.2342872    0.2011649 -27.82 0.0006059306    1.307    0.235
        41  -7.5515    129.5935     97.2182   9.0342941200e+01   3.7615594776e+01    0.2073972    0.1430779 -31.24 0.0004514777    1.608    0.378
        42 -10.0055     12.4883     94.3907   1.2659962152e+02   5.5560417475e+01    0.6639518     0.314443  -0.51  0.003101238    3.002    0.667
        43  -9.7440    241.2706     95.1941   6.8818441781e+01   1.3475074885e+01    0.3113162    0.2347184  25.39  0.001635524    2.243    0.554
        44  -8.2943     95.9821     90.8784   9.7878685096e+01   4.5682881897e+01    0.4933543    0.3104586  -0.61  0.001901676    2.864    0.651
        45  -8.6309     43.6346     92.2835   1.1535050597e+02   5.3225462359e+01    0.3413784    0.2232284  -7.40  0.001619025    1.870    0.465
        46  -9.1349    224.8315     90.7653   7.0153055841e+01   1.7563640130e+01    0.2622655    0.2048522 -61.55 0.0004524815    1.136    0.119
        47  -7.7288    110.0213     90.8134   9.3796543429e+01   4.2982257019e+01    0.2486237    0.1682261  15.55  0.001071831    2.060    0.514
        48  -8.4530     19.5533     85.4741   1.2220303703e+02   5.6958651708e+01    0.3162875    0.1382464 -31.04   0.00141306    2.572    0.611
        49  -8.1107    126.0711     84.0592   8.7584448826e+01   4.0921689780e+01    0.3602607    0.2200551  18.94  0.001355285    2.850    0.649
        50  -7.9215     65.9166     84.8020   1.0570089400e+02   5.1909123637e+01    0.2163152    0.1698976 -11.89 0.0006924701    1.312    0.238
        51 -10.0885     37.5786     81.0020   1.1457703475e+02   5.6240216288e+01    0.6679468    0.3398453 -13.52  0.002722346    3.236    0.691
        52  -9.6188      8.0230     77.7058   1.2462432583e+02   5.9386201773e+01    0.6730584     0.256745 -26.16  0.002776473    3.514    0.715
        53  -8.7871     88.0909     78.9248   9.6786253638e+01   4.9442442848e+01     0.541844    0.2604401  24.68  0.001940008    3.246    0.692
        54  -7.7728    184.0856     77.9769   7.3645129459e+01   2.8768903811e+01    0.2091089    0.1770844  15.81 0.0007063451    1.631    0.387
        55  -8.7099     49.7000     76.9368   1.0907799587e+02   5.5664007765e+01    0.4119155    0.2271837  -7.63  0.001717895    2.945    0.660
        56 -10.0800     24.4716     73.2814   1.1737409738e+02   5.9046341753e+01    0.9331422     0.327721 -29.48  0.003104429    4.800    0.792
        57  -8.1022     23.4681     69.4654   1.1673143923e+02   5.9880217995e+01    0.1956334    0.1702178 -64.97 0.0004845217    1.436    0.304
        58  -8.2807     74.9895     74.0847   9.9503041956e+01   5.2576482178e+01    0.2077513    0.1843339   2.18 0.0004817217    1.051    0.049
        59  -7.3829    168.5931     71.4363   7.4796967558e+01   3.3453799946e+01    0.1390842    0.1320127  80.21  0.000111481    1.054    0.051
        60  -7.4973    129.3149     69.3545   8.2565327873e+01   4.2791914073e+01    0.1473797    0.1103229  14.51 0.0007045494    1.739    0.425
        61  -8.0235    105.7296     67.1932   8.8017687312e+01   4.8153105140e+01    0.2024616    0.1743203  46.00  0.001147925    1.150    0.130
        62  -8.5850     83.3937     64.8789   9.3910165291e+01   5.2776162190e+01    0.5062046    0.2868765   4.52  0.001834641    3.709    0.730
        63  -8.1858     11.9449     61.4441   1.1906467270e+02   6.2318919431e+01    0.3252117    0.1944882 -81.01  0.001442792    4.005    0.750
        64  -8.4377     16.1213     64.5295   1.1824587931e+02   6.1426688047e+01    0.2840435    0.1216855 -34.92  0.001075485    2.118    0.528
        65  -8.6114     97.3207     58.4477   8.7654327839e+01   5.1226429725e+01    0.6251689    0.3305545  -7.67  0.001904511    5.358    0.813
        66  -9.5643     62.6956     61.2871   9.9640314775e+01   5.6756589869e+01    0.3885277    0.2171213  25.59  0.001189664    1.888    0.470
        67  -8.2362     57.8030     62.3663   1.0172150881e+02   5.7281228575e+01    0.2190405    0.1439703  33.48 0.0006836076    1.549    0.354
        68  -9.4353     37.3028     59.1677   1.0834647803e+02   6.0427344549e+01    0.4360301    0.2339905 -11.21  0.002030627    2.573    0.611
        69  -8.7896     28.1577     60.3635   1.1229338115e+02   6.1160692368e+01    0.1590862    0.1048504  31.23 0.0007211819    1.734    0.423
        70  -7.9690    111.2499     58.4587   8.3836203992e+01   4.8410772003e+01    0.3154503    0.1674686  32.50  0.001335046    2.267    0.559
        71 -10.1048     74.6302     50.4767   9.1980753375e+01   5.6581092706e+01    0.4452268    0.3030744  -6.43 0.0004963612    1.674    0.403
        72  -8.4114    118.4580     51.0673   7.9744900547e+01   4.7964189522e+01    0.2660559    0.1779221  49.53 0.0006208315    1.367    0.268
        73  -9.3701     45.3382     48.9264   1.0186502730e+02   6.1187572875e+01    0.3692556    0.2241893  -6.15  0.001376387    1.919    0.479
        74  -7.5328    107.5426     48.1614   8.1575958909e+01   5.0675881682e+01     0.168093    0.1255507  -8.26 0.0003980162    1.563    0.360
        75  -8.5279     10.5923     47.2224   1.1549201999e+02   6.4974629605e+01    0.2687144    0.1568635 -39.26  0.000759464    1.359    0.264
        76  -9.0165     13.8246     45.8153   1.1366814361e+02   6.4965615683e+01    0.3457921    0.2375492 -34.90   0.00134953    1.177    0.151
        77  -9.2516     57.0036     42.5011   9.5254440284e+01   6.0550530633e+01    0.5895349    0.3032688  -5.61  0.002275856    3.881    0.742
        78  -8.5495     92.6580     38.3542   8.2371106088e+01   5.4956091143e+01    0.4040593    0.3045983 -71.52   0.00143521    2.213    0.548
        79  -8.6650     81.3370     44.2695   8.7722238137e+01   5.6299027622e+01     0.219725    0.1866483  15.03  0.000514393    1.049    0.046
        80 -10.8788     83.1968     40.0344   8.5694292365e+01   5.6528987000e+01     0.260646    0.2269497  12.28            0    1.045    0.043
        81  -8.7999     87.5264     37.9797   8.3704931039e+01   5.5986639963e+01    0.2592577    0.2020478  13.17 0.0006403213    1.272    0.214
        82  -8.5400      2.2605     44.7387   1.1832958801e+02   6.5969928597e+01    0.2317034    0.1509906 -30.20  0.001588269    1.177    0.150
        83  -8.0094      4.0000     40.0693   1.1611927299e+02   6.6646234133e+01    0.2530379   0.07880225 -48.11  0.001235286    2.495    0.599
        84  -8.6437    221.0099     42.6953   6.0486526591e+01   2.5901042562e+01    0.2390452     0.185757 -30.42 0.0009162964    1.668    0.401
        85  -7.6228    113.5194     42.0052   7.8134325315e+01   5.0240239256e+01    0.1778854    0.1119076   4.66 0.0007605139    2.445    0.591
        86  -7.5614    124.1921     39.8247   7.5000218715e+01   4.8206211887e+01    0.1773725    0.1407074  33.07 0.0003176018    1.283    0.221
        87  -8.9176     35.6280     38.1623   1.0188456550e+02   6.4026856153e+01     0.364517    0.1383431 -39.27  0.001341642    2.447    0.591
        88  -8.6553     38.7591     35.4227   9.9613222784e+01   6.4044517364e+01    0.2823062      0.16035  20.01  0.001487125    1.717    0.417
        89  -9.5885     68.9143     36.9710   8.9132251114e+01   5.9431809779e+01     0.419221    0.2776611  21.16  0.002271947    1.469    0.319
        90  -8.4371     73.9683     34.2648   8.6516674730e+01   5.8915029967e+01    0.2325812    0.1590873  28.01 0.0006253772    1.324    0.245
        91  -9.0545     55.7550     35.7404   9.3246380410e+01   6.1675296695e+01    0.3190981    0.1807065 -18.27  0.001058651    1.932    0.482
        92  -8.2029    105.8517     36.9936   7.8425848323e+01   5.2474852745e+01    0.2640527    0.1420202  31.94  0.001043139    2.134    0.531
        93  -8.1090     18.8045     35.6540   1.0807651491e+02   6.6172273315e+01    0.1577352    0.1205242  -2.15 0.0002889817    1.128    0.113
        94  -8.4786     23.5043     35.5499   1.0600197309e+02   6.5735894792e+01    0.1956781    0.1738088 -21.75  0.001468432    1.352    0.260
        95  -9.2815     21.9132     32.1491   1.0544459695e+02   6.6398219314e+01    0.2379064    0.1669317 -18.43 0.0002723552    1.146    0.127
        96  -9.3705      6.1907     34.1507   1.1317931013e+02   6.7449497636e+01    0.3200313    0.2073516 -20.30  0.002216203    1.234    0.190
        97  -9.2947      2.1662     30.7047   1.1384353704e+02   6.8272930642e+01     0.501543    0.1980865 -49.30  0.002727692    2.343    0.573
        98  -7.1159    144.2398     27.9667   6.7625647799e+01   4.5098733166e+01    0.1456709    0.1096789 -33.43  0.000305445    1.516    0.341
        99  -8.4154     42.0088     28.0075   9.5502616879e+01   6.4629714956e+01    0.1798387    0.1404127   0.16 0.0004209924    1.029    0.028
       100  -9.1894     69.3971     26.1348   8.5004127473e+01   6.0671405366e+01    0.3335688    0.1818176  45.02  0.001680577    1.689    0.408
       101  -8.5615     62.0018     26.9705   8.7763596370e+01   6.1806229919e+01     0.216884    0.1425913   3.44 0.0005193113    1.602    0.376
       102  -9.0273     63.4968     23.0109   8.5756196628e+01   6.2013897151e+01    0.2843653    0.1637833  31.56 0.0008079924    1.539    0.350
       103  -7.5898    110.2025     26.5899   7.4034069891e+01   5.2752009392e+01    0.1886851   0.09727822  46.18 0.0005079219    1.680    0.405
       104  -9.8250    168.5098    249.0301   1.1305422448e+02  -2.9292165997e+00    0.2664615    0.1716386  48.06  0.001401884    1.617    0.382
       105  -7.7329    151.6729    245.3170   1.1599181653e+02   4.8029134537e-01    0.1341487   0.09987746  65.46 0.0007045376    1.676    0.403
       106  -8.4208     28.7910     21.4076   9.8302594047e+01   6.7118972459e+01    0.2557157    0.1713915   0.15  0.001085016    1.284    0.221
       107  -7.6330    102.0252     25.4672   7.5601915853e+01   5.4571555188e+01    0.1956843    0.1055639  50.38  0.000478702    1.577    0.366
       108  -8.9075    144.6143     23.3945   6.6304553463e+01   4.5507228313e+01    0.2211079    0.1833573  58.37 0.0002156865    1.079    0.073
       109  -8.9510     46.0932     20.9840   9.1154979380e+01   6.4924186678e+01    0.2804684    0.1542057 -32.21  0.001283649    1.873    0.466
       110  -7.8213    129.0368     22.4801   6.8835037354e+01   4.9097574054e+01    0.1954923    0.1082627  59.56 0.0008040109    1.538    0.350
       111  -9.2563     92.3492     20.4796   7.6343611034e+01   5.7027022801e+01    0.2695267    0.1839386  36.77 0.0006111344    1.278    0.218
       112  -8.3364    140.2299     20.0722   6.6130303182e+01   4.6839793007e+01    0.2045703    0.1526369  60.54 0.0004094246    1.137    0.120
       113  -8.8715      9.4575     19.8779   1.0639605833e+02   6.9286457301e+01    0.3495793    0.1608981   7.88  0.001685012    2.489    0.598
       114  -8.3611      5.3665     18.8043   1.0792337874e+02   6.9775698878e+01    0.1560425     0.122775 -13.57 0.0004028406    1.174    0.148
       115  -7.1256    146.6865     19.2677   6.4841946410e+01   4.5462617635e+01    0.1229257   0.08848169 -82.52 0.0002009611    1.547    0.354
       116  -9.1396    249.2761    240.9726   9.6029888665e+01  -1.3381500261e+01    0.2108233    0.1810397  -9.48 0.0003506955    1.183    0.155
       117 -10.0947    187.9830    234.0886   1.0659297307e+02  -3.4137830844e+00    0.3105586    0.2420956 -44.91  0.001102675    1.398    0.285
       118  -7.5682    107.8186    235.4023   1.2395452365e+02   9.6940199158e+00    0.1842903    0.1249609  30.05  0.000737453    1.599    0.374
       119  -9.5339    143.3705    228.1061   1.1510044146e+02   5.2447053877e+00    0.2401013    0.2055496  40.43 0.0002475672    1.085    0.079
       120  -8.4868    127.5802     16.8767   6.7463476713e+01   4.9970608766e+01    0.2184202    0.1485081  59.70 0.0003141359    1.238    0.192
       121  -7.2329    189.2515     15.3811   5.8177560829e+01   3.6228295221e+01    0.1111762   0.08956232  39.45 0.0006957127    1.656    0.396
       122  -8.6942     11.9858    206.9861   1.4133397637e+02   2.8998332465e+01    0.2098062    0.1153255  70.13 0.0009502897    1.722    0.419
       123  -9.1090    249.6976    179.9595   8.4660302184e+01  -3.4419448077e+00    0.3319287    0.2143549 -53.99  0.001734374    1.753    0.429
       124  -7.5301     20.6758    177.7039   1.3664816382e+02   3.5098691727e+01    0.1261582   0.08767194 -47.08 0.0005633822    1.623    0.384
       125  -7.6683    105.2017     14.5964   7.1293636559e+01   5.4979977097e+01    0.1761604   0.09136429  48.13 0.0005048678    1.587    0.370
       126  -7.0965    101.2385    176.3044   1.1621609525e+02   2.4578184897e+01    0.1441391    0.1142648 -33.37 0.0006846655    1.487    0.327
       127  -8.6410    238.1174    175.1212   8.5681698867e+01  -7.2942011462e-01    0.2235375    0.1922919  43.78 0.0006706713    1.362    0.266
       128  -8.0436     93.4043    168.0924   1.1673073761e+02   2.7964005082e+01    0.2131115    0.1727964 -62.02 0.0003982049    1.170    0.145
       129  -7.8226    159.9911    166.3455   9.9688272516e+01   1.5754993373e+01    0.2135934    0.1965302  43.55 0.0003718892    1.113    0.101
       130  -7.7735    238.7828    165.2553   8.3586447511e+01   1.0018953867e+00    0.1837914    0.1448319 -19.14 0.0004174908    1.330    0.248
       131  -7.7509    133.2143    148.2021   1.0217835827e+02   2.5462099709e+01    0.2671494    0.1765124 -11.20 0.0009521365    2.799    0.643
       132  -9.0292     67.3046    144.6383   1.1942730286e+02   3.7917495392e+01    0.4585915    0.3035725  68.92  0.002062691    2.017    0.504
       133  -7.5546    139.3683    139.2742   9.8557740703e+01   2.6300823202e+01    0.1591244    0.1267234   1.78 0.0005832498    1.675    0.403
       134  -7.4613     69.3185    133.3448   1.1656724250e+02   4.0433272888e+01    0.1539225    0.1060124 -29.58  0.000704913    1.723    0.420
       135  -7.2205    163.3368    132.7065   9.1269097228e+01   2.2660859129e+01    0.1593807     0.123369 -89.50 0.0003671767    1.645    0.392
       136  -7.1200    222.3887    126.2789   7.8205394151e+01   1.1501188502e+01    0.1382742    0.1123804   5.05 0.0001362904    1.735    0.424
       137  -7.2944    144.3307    126.3376   9.4204094187e+01   2.8203941893e+01    0.1614466    0.1268495  -4.27 0.0004277652    1.736    0.424
       138  -7.1914    180.6433    120.7210   8.4667324283e+01   2.1425273656e+01    0.1502904    0.1225421  10.09 0.0007011947    1.659    0.397
       139  -8.0526     99.9350    118.8933   1.0420425865e+02   3.8876948113e+01    0.3589339    0.2069754  14.85  0.001235726    3.214    0.689
       140  -7.4621    131.3332    113.3014   9.4171878214e+01   3.3873893720e+01    0.1561703    0.1242067   1.20 0.0006130265    1.655    0.396
       141  -7.6689    142.7356    111.4375   9.0834750502e+01   3.1805029738e+01    0.2212256    0.1465171  34.85 0.0009451197    1.717    0.418
       142  -8.5777      2.5207    109.5694   1.3258029171e+02   5.2801168113e+01    0.3996687    0.1281483 -39.65  0.001617107    3.259    0.693
       143  -8.0623    123.2783    108.0259   9.4896205729e+01   3.6711616963e+01    0.3172596    0.1973111  17.54  0.001166848    2.724    0.633
       144  -8.0736    109.1913    106.8459   9.8441986722e+01   3.9819718446e+01    0.2898056    0.1999017  10.51  0.001218784    2.122    0.529
       145  -8.2129    134.2341    105.8561   9.1483736575e+01   3.4838792320e+01    0.2907615     0.202809  18.63  0.001165357    2.039    0.510
