#   1 NUMBER                 Running object number                                     
#   2 MAG_AUTO               Kron-like elliptical aperture magnitude                    [mag]
#   3 X_IMAGE                Object position along x                                    [pixel]
#   4 Y_IMAGE                Object position along y                                    [pixel]
#   5 X_WORLD                Barycenter position along world x axis                     [deg]
#   6 Y_WORLD                Barycenter position along world y axis                     [deg]
#   7 A_WORLD                Profile RMS along major axis (world units)                 [deg]
#   8 B_WORLD                Profile RMS along minor axis (world units)                 [deg]
#   9 THETA_WORLD            Position angle (CCW/world-x)                               [deg]
#  10 FWHM_WORLD             FWHM assuming a gaussian core                              [deg]
#  11 ELONGATION             A_IMAGE/B_IMAGE                                           
#  12 ELLIPTICITY            1 - B_IMAGE/A_IMAGE                                       
         1 -12.2024    197.5325     37.6202   4.6254305778e+01   3.1307636059e+01     1.127299     0.932093  35.28  0.006269356    1.415    0.293
         2 -12.0001    208.4237     25.3323   4.1665140338e+01   3.0179566301e+01     0.820524    0.7445719  17.22  0.004581375    1.368    0.269
         3  -8.7840    237.0433      7.8455   3.4844182107e+01   2.5555885933e+01    0.1994557    0.1711072 -38.77 0.0004316759    1.266    0.210
         4  -9.4905    211.9937      7.9002   3.6938657159e+01   3.1243819296e+01    0.1982349    0.1715021 -82.36 0.0006208779    1.018    0.018
         5 -10.1676    232.5949      2.1570   3.3918290460e+01   2.7125671314e+01    0.6977258    0.2046496  72.95  0.002851092    3.124    0.680
         6  -7.4498    248.8069      2.2179   3.2809537613e+01   2.3625415152e+01    0.1384073    0.1310152 -89.72 0.0003580102    1.283    0.221
         7  -9.7828    132.0748    235.5498   1.0482953988e+02   7.9231098372e+00    0.3168761    0.2092173  13.24  0.001641048    2.215    0.548
         8 -14.7113     53.5975    245.5523   1.2077302588e+02   1.7174990760e+01      0.95575    0.7037441 -64.36  0.004414741    1.636    0.389
         9 -15.1067      3.6716    203.1651   1.2725320654e+02   3.0656216381e+01      1.41094    0.5509733 -63.85  0.005852671    2.485    0.598
        10 -16.6634     36.1632    234.5453   1.2314875039e+02   2.1229881154e+01     1.578655    0.8964114  80.86    0.0100379    1.581    0.368
        11 -15.1739     41.1480    247.5740   1.2308517886e+02   1.8276415180e+01    0.7703413    0.3258363  46.31  0.004525155    1.818    0.450
        12 -18.2829     11.4496    239.6812   1.2768567911e+02   2.2849391349e+01     2.750592     1.875918  89.35   0.02113899    1.261    0.207
        13  -7.8489    249.3139    217.6716   7.9441759606e+01  -7.7051427439e+00    0.1012554   0.09802896 -17.07  0.000704388    1.672    0.402
        14  -8.0839    218.0170    214.3260   8.4502387034e+01  -2.5909818610e+00    0.1784585    0.1383714  22.79 0.0004035972    1.130    0.115
        15  -8.1421     98.9695    213.8885   1.0892828455e+02   1.7066106724e+01    0.2242596    0.1849512  -9.12 0.0004841071    1.779    0.438
        16  -7.6516     69.6032    208.8682   1.1455267310e+02   2.2269396480e+01    0.1572517    0.1439518  54.22 0.0004480153    1.203    0.169
        17 -10.1806    237.1321    206.8174   7.9603540058e+01  -4.4727191355e+00    0.2324607    0.1983253  -9.85 0.0003968754    1.187    0.158
        18  -8.5744    205.6190    208.0262   8.5742528561e+01   3.5707424158e-01    0.2168462    0.1629422  38.05 0.0005298274    1.333    0.250
        19  -7.2490    161.4653    208.4797   9.4813408875e+01   7.8196097679e+00    0.1358351    0.1204546  29.28 -8.732668e-06    1.005    0.005
        20  -9.7547    123.9643    206.0235   1.0249319919e+02   1.4676580577e+01    0.2021854    0.1811363  67.17            0    1.116    0.104
        21  -7.5385    114.6992    207.3013   1.0469375816e+02   1.5933977801e+01    0.1349871   0.09483983  67.00 0.0002761646    1.585    0.369
        22  -7.5476     80.9740    205.7619   1.1180351827e+02   2.1361557755e+01    0.1724447    0.1438718  62.20 0.0002052817    1.044    0.042
        23  -7.4250    206.5125    203.4920   8.4736038473e+01   9.1980827861e-01     0.133938     0.115265  11.02 0.0001639766    1.035    0.034
        24  -7.6316    207.1475    198.8116   8.3735210720e+01   1.5591507345e+00    0.1882967    0.1406452   5.31 0.0003943177    1.316    0.240
        25  -8.4841    194.6577    199.3089   8.6315889660e+01   3.6255560322e+00    0.2891919    0.1826519  46.09  0.001141747    1.686    0.407
        26  -8.3886    193.1761    196.4023   8.6072125324e+01   4.3753721415e+00     0.200972    0.1678526  30.30  0.001162848    1.131    0.116
        27  -9.0334     69.0957    197.9514   1.1349619258e+02   2.4658531474e+01       0.3232    0.1896027  84.40  0.001411781    1.943    0.485
        28  -8.0118     90.1485    196.8051   1.0869988362e+02   2.1936074992e+01    0.2111728    0.1596117  69.90 0.0005600097    1.305    0.233
        29 -10.1197    174.5967    193.8387   8.9458837111e+01   8.1456239390e+00    0.3684748    0.2774725  56.95 0.0004507343    1.608    0.378
        30  -8.3226    151.9661    195.0499   9.4576820191e+01   1.1997843221e+01    0.2043874    0.1885146  33.27 0.0003263887    1.012    0.012
        31  -8.4190     74.6475    189.9582   1.1132877963e+02   2.5661625038e+01    0.1900232    0.1772933  64.81 0.0005647277    1.133    0.117
        32  -9.8077     63.2505    182.1457   1.1299495171e+02   2.8942453222e+01    0.5440415    0.3237468  55.66   0.00280778    1.645    0.392
        33  -8.7004    118.6726    183.6038   1.0019832669e+02   2.0228441074e+01    0.2856364     0.228161  12.62 0.0009993688    1.554    0.356
        34  -9.9554     39.3793    180.7157   1.1827830121e+02   3.2088519929e+01    0.3394823     0.230603  66.07  0.002030518    1.357    0.263
        35  -7.0550    171.2930    181.2793   8.7778744280e+01   1.1109575080e+01    0.1424158    0.1084618   3.46 0.0002059861    1.529    0.346
        36  -8.1862     84.8439    180.5351   1.0772294002e+02   2.6328787120e+01    0.2663856     0.162545 -46.37  0.001033688    1.897    0.473
        37  -9.7976     70.3152    179.0828   1.1096541139e+02   2.8712879203e+01    0.3836389    0.2628292 -40.08  0.001999023    1.907    0.475
        38  -9.7221     74.6574    173.6499   1.0920177626e+02   2.9375308554e+01    0.3285824    0.2364971 -54.48  0.001044581    1.433    0.302
        39  -8.6252     50.0853    181.1077   1.1590002119e+02   3.0796490351e+01    0.2089175    0.1869629 -14.36  0.001183974    1.568    0.362
        40  -8.4983    147.4634    180.1920   9.2906759677e+01   1.5793751359e+01     0.237523    0.1622108  43.11 0.0007516097    1.397    0.284
        41  -6.9259    109.3227    178.6863   1.0160156004e+02   2.2893502732e+01    0.1473252    0.1049289  71.26 0.0003785537    1.658    0.397
        42  -9.7408    175.5152    172.6051   8.5113364032e+01   1.1983588674e+01    0.3725077    0.3398188 -48.02  0.001101727    1.213    0.176
        43 -10.3298    119.4845    233.0192   1.0703098468e+02   1.0319651382e+01    0.3928756    0.2329431 -35.05  0.001968136    2.634    0.620
        44 -10.3197    113.3724    231.2326   1.0804313402e+02   1.1576299354e+01    0.2822926    0.2338351  33.61  0.001830209    1.218    0.179
        45  -7.6364    218.5394    231.0468   8.7301373643e+01  -5.0032173648e+00    0.1604194     0.112623 -26.52 0.0004405541    1.476    0.323
        46  -8.1537     37.2197    170.5106   1.1775237021e+02   3.4659381733e+01    0.2234489    0.1436499 -75.09 0.0005671892    1.341    0.255
        47  -7.3262    123.8895    169.9084   9.6556184725e+01   2.2329403239e+01    0.1931029    0.1666687  85.02 0.0003917106    1.278    0.218
        48  -7.1571    143.2917    169.7151   9.1867558552e+01   1.8780333028e+01     0.143488    0.1159496  75.68 0.0003036175    1.537    0.349
        49  -8.5884    100.5658    167.6441   1.0189792426e+02   2.6856749067e+01    0.3858712    0.2102495  61.46  0.001534883    2.481    0.597
        50  -9.5328    157.4485    230.4745   9.9057098611e+01   4.7205999069e+00     0.326324    0.1873592  19.31  0.001164792    2.284    0.562
        51  -8.5099     88.9638    165.0457   1.0437258740e+02   2.9302900348e+01    0.2094827    0.1927064 -77.67 0.0003185092    1.046    0.044
        52  -8.4867     83.2812    164.0939   1.0565340439e+02   3.0384788644e+01    0.1968162    0.1679221 -82.27 0.0004333839    1.114    0.102
        53  -7.5174     69.1758    161.3920   1.0881379850e+02   3.3021713102e+01    0.1903728    0.1158779  48.95 0.0005096911    1.666    0.400
        54  -9.7433    130.0427    229.8552   1.0450601071e+02   9.2298059728e+00    0.3592604    0.1566917  28.90  0.001465196    2.849    0.649
        55  -7.7774     79.3056    160.6274   1.0611621242e+02   3.1792332634e+01     0.149991     0.100838  75.85 0.0007031969    1.762    0.433
        56  -8.2506     37.3007    159.8265   1.1658236259e+02   3.7158547236e+01    0.1967174    0.1529328  63.99 0.0004414511    1.249    0.199
        57  -7.4897    171.9714    159.2706   8.3070296185e+01   1.5331248030e+01    0.1873427    0.1292866  41.28 0.0004704624    1.431    0.301
        58  -9.4673     88.5948    158.7112   1.0341568763e+02   3.0863049473e+01    0.3692602    0.2735108 -41.90 0.0009023714    1.508    0.337
        59  -8.9994     90.9917    155.5057   1.0223959180e+02   3.1256707903e+01    0.5305865    0.2586801  55.95  0.002016488    2.667    0.625
        60  -8.1025     50.2520    157.7522   1.1310618123e+02   3.6251358980e+01    0.1870818    0.1566522  82.57 0.0004766274    1.094    0.086
        61  -9.1082     32.8052    155.3234   1.1718580057e+02   3.8675130172e+01     0.323043    0.2349734 -19.99  0.001832011    2.064    0.516
        62 -10.4289      9.0358    155.0527   1.2290627705e+02   4.0771074350e+01    0.2238024    0.1726104  82.15            0    1.108    0.097
        63  -8.5003     98.7626    153.1025   9.9771551285e+01   3.0578963560e+01    0.2203296    0.1919891 -89.01 0.0004420372    1.176    0.150
        64  -7.9263     68.9619    152.4879   1.0751704109e+02   3.5198248569e+01    0.2681761    0.1917971 -77.42 0.0007880126    1.358    0.264
        65 -11.2787     68.4877    144.6011   1.0636470401e+02   3.7186262127e+01    0.8069612    0.5225034  74.67  0.003790389    1.936    0.483
        66  -9.6675     62.8012    136.5721   1.0657679071e+02   3.9902469061e+01    0.3305971    0.2404242 -50.37 0.0003446873    1.330    0.248
        67  -8.2216     80.9589    151.5290   1.0418699353e+02   3.3742454315e+01    0.3137527    0.2321251  -3.51  0.001103367    2.025    0.506
        68  -8.3501     57.1697    151.3534   1.1044599169e+02   3.6981078955e+01    0.2786572    0.1770148 -38.52 0.0007231336    1.985    0.496
        69  -8.3671     30.1613    151.0115   1.1736301359e+02   3.9954143661e+01    0.1902776    0.1704299  66.88 0.0004210871    1.183    0.155
        70 -10.5786    111.7843    224.4861   1.0755314178e+02   1.3060857954e+01    0.4206188    0.3084282  31.26 0.0007830315    1.392    0.282
        71  -7.4646    153.6042    150.2208   8.5313830846e+01   2.0953668169e+01    0.2127509    0.1427114 -33.72 0.0003068046    1.603    0.376
        72  -7.6327    148.5154    149.7544   8.6432865421e+01   2.2088438654e+01    0.2020933      0.14904 -59.55 0.0007729303    1.529    0.346
        73  -7.9151    126.9996    147.5045   9.1302119828e+01   2.6842796152e+01    0.2264935    0.1988632 -49.56  0.001168725    1.134    0.118
        74 -14.7628     25.5688    235.7499   1.2508905505e+02   2.2148246204e+01    0.4128758    0.2620024 -48.09  0.002592523    2.578    0.612
        75  -8.6018     86.1771    144.6406   1.0155183270e+02   3.4630160999e+01    0.4084154    0.2227779 -41.67  0.001710355    2.106    0.525
        76  -8.4431     82.2608    142.2409   1.0217574377e+02   3.5810152673e+01    0.3045198    0.2296242  55.54 0.0005092589    1.415    0.293
        77  -9.3852    242.6811    145.1523   6.5984777092e+01   4.1246967401e+00     0.353496     0.178198  40.75  0.001603598    2.165    0.538
        78  -8.4376    133.8316    144.7578   8.8958885680e+01   2.6142216460e+01    0.2871463    0.2033561 -78.11   0.00117112    2.006    0.502
        79  -7.8387    113.1132    145.1488   9.4413810977e+01   2.9982457265e+01     0.202032    0.1738631  79.99  0.001030403    1.288    0.224
        80  -8.4884    150.1358    231.1162   1.0061778826e+02   5.7971638998e+00    0.3933375   0.07584906 -46.71  0.001215635    5.984    0.833
        81  -8.5141    104.6396    140.6860   9.5745771112e+01   3.2551711991e+01    0.2662556    0.1570916  25.81 0.0008103173    2.127    0.530
        82  -9.0386     98.1831    143.1762   9.8006439427e+01   3.3056796160e+01    0.2561089    0.2036656  40.69 0.0003402428    1.299    0.230
        83  -8.4496     90.4665    143.1259   1.0009548589e+02   3.4327430678e+01    0.3614346     0.204796 -78.03  0.001393482    2.536    0.606
        84  -8.6753      7.8631    143.8344   1.2220465123e+02   4.3468225545e+01    0.1666324    0.1163023  78.01 0.0005092261    1.307    0.235
        85  -7.4295     11.6545    143.2889   1.2120877007e+02   4.3325362669e+01    0.1254766   0.07674615  67.98  0.000624374    1.655    0.396
        86  -7.8357     42.6400    140.1462   1.1272023562e+02   4.1353383618e+01    0.2905481     0.113962  43.91  0.001217645    2.730    0.634
        87  -9.1952     89.6369    220.9898   1.1169139189e+02   1.7036400225e+01    0.1715687    0.1425949  81.94 0.0005025911    1.162    0.140
        88  -8.3080     81.8281    136.9457   1.0129093640e+02   3.7170539119e+01    0.4548735    0.2392732  65.31  0.001577345    3.420    0.708
        89  -8.6637     51.3550    152.4609   1.1211870866e+02   3.7400243348e+01    0.3266675    0.1980616  62.67   0.00162532    1.837    0.456
        90  -8.3291     35.4327    136.3710   1.1416253003e+02   4.2993134809e+01    0.2983659    0.1725537 -25.58  0.001364369    2.788    0.641
        91  -8.8988     25.0096    136.9987   1.1706429700e+02   4.3776850381e+01    0.1969003    0.1649744 -86.21  0.001278038    1.063    0.059
        92  -8.4675    105.1206    134.0642   9.4192057617e+01   3.4052946345e+01     0.318812    0.2050743 -60.63  0.001120622    1.603    0.376
        93  -8.0918    142.2658    134.2003   8.4379782169e+01   2.6813771418e+01    0.3912945    0.2452401  76.07 0.0009377961    3.311    0.698
        94  -8.5373    112.3703    132.7122   9.1896797639e+01   3.3061596120e+01     0.344449    0.2383496 -62.60  0.001474697    1.552    0.356
        95  -8.8378      9.5302    132.5541   1.2067742196e+02   4.6014050381e+01    0.2684231    0.1296688  10.67  0.001323108    3.086    0.676
        96  -9.6743    120.1034    129.1749   8.8968879545e+01   3.2427807178e+01      0.46593    0.2205146 -48.78  0.001629637    2.055    0.513
        97  -8.7867     66.4263    130.1724   1.0439550276e+02   4.1010393999e+01    0.2066761    0.1279459 -73.99 0.0009518602    1.703    0.413
        98  -8.6617    250.3315    128.4763   6.1032165095e+01   5.4606974389e+00     0.252661    0.1119907 -35.10 0.0007375521    1.945    0.486
        99  -8.9359    125.3467    127.5144   8.7158003614e+01   3.1782478511e+01     0.338088    0.2484073  79.86  0.001035153    1.967    0.492
       100  -8.6498    142.9990    125.9978   8.2180078966e+01   2.8485246150e+01    0.2290552    0.2221022 -32.22  0.001197459    1.015    0.015
       101  -8.6901    199.3674    124.9148   6.9158101435e+01   1.6353856696e+01     0.247675    0.2132976  27.94 0.0003537696    1.207    0.171
       102  -7.8018     89.1404    124.4248   9.6597815450e+01   3.9089348333e+01    0.2345154    0.1956806 -89.38 0.0006004284    1.357    0.263
       103  -8.4540     12.8963    123.2016   1.1872040040e+02   4.8014543207e+01    0.4271105   0.09352653 -58.05  0.001635002    3.076    0.675
       104  -9.7092     29.9286    121.9353   1.1367519399e+02   4.7011564706e+01    0.3997561     0.160647 -66.09  0.001773751    2.002    0.501
       105  -7.6301    198.0338    120.5402   6.8335211195e+01   1.7473900720e+01    0.2091387    0.1521067  48.86 2.113919e-05    1.456    0.313
       106  -7.7548    104.1839    120.2032   9.1255946715e+01   3.7528029559e+01    0.2023063    0.1729004 -82.23  0.001012287    1.332    0.249
       107  -7.9527      5.6350    119.2061   1.2029261428e+02   4.9426878745e+01    0.1765644   0.08520415 -65.35 0.0005607462    1.569    0.362
       108  -8.1555     77.2566    116.1235   9.8291435512e+01   4.2944457259e+01    0.2113316    0.1804386 -41.74 0.0003869168    1.137    0.121
       109  -7.7942     66.2847    116.5956   1.0175285206e+02   4.4367083224e+01    0.1708883    0.1399474   9.67  0.000338466    1.463    0.316
       110  -8.1728    131.9509    121.4619   8.3893764507e+01   3.1821920950e+01    0.2260331    0.1554462  44.26 0.0003841274    1.489    0.328
       111  -7.3179    157.0904    113.7945   7.5532791933e+01   2.8032752488e+01    0.2018128    0.1275572  48.15 0.0004089758    1.628    0.386
       112  -8.7663    110.1012    112.0915   8.7516583165e+01   3.8331430165e+01    0.3318339    0.2408416  58.01  0.001038612    1.638    0.389
       113  -8.3862     42.6931    110.5906   1.0790999413e+02   4.8588123322e+01    0.2775935    0.2141918 -60.88  0.001061506    1.097    0.088
       114  -7.2472    196.4696    107.4808   6.5315342105e+01   2.0280162344e+01    0.1532139    0.1448376 -37.30 5.981663e-05    1.035    0.034
       115  -8.3043    249.7014    106.3425   5.6101139920e+01   9.1665683567e+00    0.1406398    0.0976347 -57.67  0.000703514    1.670    0.401
       116  -8.4288    136.2189    106.1492   7.8696047854e+01   3.4305274791e+01     0.356451     0.224061  44.08   0.00150237    1.625    0.384
       117  -7.8004     69.3479    103.6932   9.7896050668e+01   4.7075749948e+01    0.1435637    0.1108278  76.42 0.0007042928    1.702    0.412
       118  -8.9890     35.7168     97.8037   1.0771384198e+02   5.2341964734e+01    0.2560719    0.1994461  53.11 0.0009825877    1.553    0.356
       119  -7.6655     88.6833     96.9908   8.9963267021e+01   4.5676802724e+01    0.2043029    0.1731768 -40.71 0.0001992011    1.094    0.086
       120  -7.4721    123.0395     96.2162   7.9452067584e+01   3.9281015295e+01    0.2009012    0.1277397  42.30 0.0004134705    1.614    0.380
       121  -7.3539    112.7483     88.3291   8.0065016986e+01   4.3100671295e+01    0.1483987    0.1216619 -72.86 0.0002726017    1.551    0.355
       122  -7.2831     75.7315     88.3502   9.1801219166e+01   4.9726042056e+01    0.1401739    0.1137513 -83.47 0.0003127071    1.623    0.384
       123  -7.2030     61.9778     82.2315   9.4844301918e+01   5.3066368403e+01    0.1610673    0.1174442  27.77 0.0003059165    1.514    0.339
       124  -7.6851    104.5496     81.0288   8.0277127221e+01   4.6272814119e+01    0.2049392    0.1321819 -65.41 0.0004394239    2.369    0.578
       125  -8.0842     80.3525     78.7485   8.7407371094e+01   5.1118262887e+01    0.3209374    0.2019335  -7.24 0.0008044374    2.459    0.593
       126  -7.9995    201.8444     77.2714   5.6345300659e+01   2.4370458633e+01    0.2667157    0.1918332  -0.01  0.001193029    1.947    0.486
       127  -7.2002     60.2902     75.6742   9.3570548696e+01   5.4745116001e+01    0.1302467    0.1098103 -88.17 0.0003051854    1.614    0.381
       128  -7.9380     86.0892     70.6670   8.2877551049e+01   5.1836212812e+01    0.1971626    0.1777335  12.09  0.000486805    1.111    0.100
       129  -7.3203     52.5518     69.4374   9.4599728269e+01   5.7077344107e+01    0.1367087    0.1163401 -33.78 0.0001667554    1.004    0.004
       130  -7.5171    119.0716     65.9745   7.1070885863e+01   4.6165993628e+01    0.1788955     0.166925 -13.89 0.0003156389    1.038    0.036
       131  -8.6195     44.6801     57.7923   9.4054810262e+01   6.0438905823e+01    0.2142475    0.1907025 -15.57 0.0004093933    1.117    0.104
       132  -7.7532     25.8301     53.1569   1.0051276013e+02   6.3219181337e+01    0.1741477    0.1172676 -31.52 0.0003306512    1.284    0.221
       133 -11.4205    187.8584     44.3257   4.9510232772e+01   3.2809313589e+01    0.8114388    0.5169242  -9.02   0.00265924    2.190    0.543
       134  -7.4556    231.2602    243.0292   8.6967829046e+01  -8.3529392152e+00    0.1327713   0.09070715 -20.52 0.0003526742    1.450    0.310
       135  -9.0535    247.9025    241.6194   8.3826136417e+01  -1.0428752300e+01    0.1930628    0.1428996 -15.99 0.0004296506    1.307    0.235
       136  -8.8438     13.9054     28.5166   9.7775918962e+01   6.8932677191e+01    0.1571581    0.1066832   8.97 0.0008068146    1.552    0.356
       137  -9.9925    105.7213    236.8348   1.1020096838e+02   1.1718412286e+01    0.2901158    0.2379076  16.14  0.001868842    1.562    0.360
       138 -10.4365    100.6227    233.6596   1.1086008385e+02   1.3041787733e+01    0.4963683    0.2757619 -65.73  0.002723581    2.064    0.516
       139  -9.3474    125.8971    236.4485   1.0617014244e+02   8.7305861271e+00    0.1896506    0.1722899   6.43 0.0006928334    1.320    0.243
