#   1 NUMBER                 Running object number                                     
#   2 MAG_AUTO               Kron-like elliptical aperture magnitude                    [mag]
#   3 X_IMAGE                Object position along x                                    [pixel]
#   4 Y_IMAGE                Object position along y                                    [pixel]
#   5 X_WORLD                Barycenter position along world x axis                     [deg]
#   6 Y_WORLD                Barycenter position along world y axis                     [deg]
#   7 A_WORLD                Profile RMS along major axis (world units)                 [deg]
#   8 B_WORLD                Profile RMS along minor axis (world units)                 [deg]
#   9 THETA_WORLD            Position angle (CCW/world-x)                               [deg]
#  10 FWHM_WORLD             FWHM assuming a gaussian core                              [deg]
#  11 ELONGATION             A_IMAGE/B_IMAGE                                           
#  12 ELLIPTICITY            1 - B_IMAGE/A_IMAGE                                       
         1 -13.5618     59.7016    132.3085   7.2168797513e+01   4.1794901980e+01      3.24909     1.211356 -71.30  0.009497457    4.571    0.781
         2 -13.2009    228.1860     41.2060   1.0910589664e+01   2.4018066496e+01     1.032475    0.7950136  40.25  0.006174725    1.745    0.427
         3 -13.0668    213.4797     51.4015   1.4895407961e+01   2.5871437558e+01      1.00836    0.9248936  46.80  0.004315744    1.290    0.225
         4 -11.5782      2.4700     22.9756   6.5754736844e+01   7.0241039872e+01    0.5068567    0.1609603 -49.96  0.002451862    2.664    0.625
         5 -11.4304      2.5101      9.1236   5.9981853387e+01   7.2386219948e+01     0.681244    0.1516881 -46.41  0.002800585    4.124    0.758
         6  -9.6684    158.0750      8.9239   1.1289055731e+01   4.3763697667e+01    0.2041492     0.132588  42.63 0.0006139763    1.646    0.393
         7 -10.3746    142.1310    227.1579   6.7390438382e+01   7.5010541487e+00    0.1870062    0.1494277  55.85 0.0009206942    1.334    0.250
         8 -11.5056     72.3223    243.1647   8.3874441127e+01   1.4953893978e+01     0.610521    0.3656252  76.23  0.002005913    1.878    0.468
         9 -15.6580     26.7691    185.4851   8.8114488953e+01   3.2688909565e+01     8.915109     3.154334 -87.42   0.01590744    4.220    0.763
        10  -9.6588     43.3424    249.1170   8.9911848793e+01   1.7462659762e+01    0.2494923    0.1802861  36.59  0.001093837    1.462    0.316
        11  -9.1541    131.0473    207.6740   6.6817102754e+01   1.3124593651e+01    0.2138712    0.1875665 -75.38 0.0005637752    1.292    0.226
        12 -10.0947    129.0726    200.9487   6.6177344127e+01   1.4848672026e+01    0.2448043    0.2253637 -43.49 0.0004584685    1.164    0.141
        13 -10.7886    127.6671    196.2388   6.5719101586e+01   1.6083740452e+01    0.3113292    0.2393015 -63.31  0.000680575    1.442    0.306
        14 -14.8053      8.7400    207.0204   9.3663728663e+01   2.9622194557e+01     1.515651     1.213744  32.93  0.007654917    1.510    0.338
        15 -10.1168    134.3064    195.9553   6.4130093098e+01   1.4988948284e+01     0.305311      0.22807 -51.49 0.0009948551    1.421    0.296
        16 -14.1267      6.4734    245.3724   9.6266090782e+01   2.2118364619e+01    0.7323319    0.5102538  35.68  0.003730698    1.621    0.383
        17 -11.6385    117.9340    191.9303   6.7287363895e+01   1.8683406950e+01    0.5350768    0.3609493 -11.42  0.002286749    2.517    0.603
        18  -9.9677    190.8755    191.3874   5.0808768545e+01   5.7831953785e+00    0.5022042    0.2792905 -65.52  0.001566633    5.203    0.808
        19  -9.8118     76.3110    183.3510   7.6050236570e+01   2.7203484732e+01    0.4327556    0.2562351  67.45  0.001606129    2.125    0.529
        20 -10.6178     78.8859    179.6812   7.4877230934e+01   2.7692892088e+01    0.3314436    0.2420606 -87.97 0.0008899453    1.487    0.327
        21  -8.8782     62.4605    182.8259   7.9371530053e+01   2.9218669502e+01    0.1931128    0.1799991 -36.19 0.0009278122    1.280    0.219
        22 -10.3769     99.0218    181.0342   7.0075797635e+01   2.4282972833e+01    0.2954367    0.2858856  75.90 0.0006221642    1.026    0.026
        23  -9.4024    172.5086    177.6998   5.2007366852e+01   1.1757867242e+01    0.2609759    0.1980959 -40.79 0.0007905994    1.331    0.249
        24  -9.7610    125.2812    174.8349   6.2477210071e+01   2.1195611015e+01    0.3488718     0.173476 -48.34  0.001126435    2.048    0.512
        25  -9.7411    101.6837    170.8450   6.7664527488e+01   2.6218087845e+01    0.2387435    0.1830271 -39.33   0.00120086    1.435    0.303
        26 -11.8549     71.4566    161.6977   7.3997770047e+01   3.3051948086e+01     1.406137    0.7418292 -86.51  0.005158037    3.150    0.683
        27 -11.8701     82.7498    134.5511   6.5825698031e+01   3.7981157972e+01    0.5828094    0.3604627 -29.44  0.001716814    2.141    0.533
        28 -11.3249     72.1110    153.1485   7.2389198923e+01   3.5037774882e+01    0.4049905    0.3208849  82.60 0.0003734716    1.385    0.278
        29 -13.2597     68.6527    144.5802   7.1836926429e+01   3.7611348751e+01     1.610483    0.9374431  79.60  0.002949444    2.975    0.664
        30 -11.8071     60.9464    160.4501   7.6597249134e+01   3.4765935334e+01     0.504794    0.3781172  30.89  0.002303777    1.464    0.317
        31  -8.9093    197.6860    168.3294   4.4743620858e+01   8.8417080560e+00    0.1381433    0.1170771 -81.97 0.0003426628    1.675    0.403
        32  -8.4628    152.4827    245.4509   6.7884169311e+01   2.6546285960e+00    0.1278369    0.1071644  30.97 0.0001154246    1.004    0.004
        33  -9.8104    248.0269    166.5213   3.5160396331e+01   4.0466726803e-01    0.2233389     0.170703 -27.79 0.0005777021    1.117    0.105
        34 -10.7423    246.8549    162.6293   3.4566794913e+01   1.2258119533e+00     0.371425    0.2210807 -37.61 0.0008510553    1.477    0.323
        35 -10.2364     89.6768    166.0505   6.9923909787e+01   2.9296021557e+01    0.2879002    0.2428425  62.55  0.001331783    1.216    0.178
        36 -16.0613      8.2131    224.1303   9.4819214039e+01   2.6109928990e+01     5.669727     2.402215  26.23   0.02001583    3.023    0.669
        37  -8.7299    142.2126    161.8025   5.5728231559e+01   2.0932313730e+01    0.2158257    0.1996749  87.65 0.0006065748    1.210    0.174
        38 -10.7956    234.2365    159.5430   3.6050358549e+01   3.8408700684e+00    0.3644957    0.1551779 -28.48  0.001395049    2.744    0.636
        39  -9.7732    179.4828    167.0151   4.8272575264e+01   1.2560845968e+01    0.2263771     0.142322 -41.97 0.0005671828    1.578    0.366
        40 -11.3998     56.2882    164.8014   7.8465981292e+01   3.4300710557e+01    0.3968727    0.2973079 -18.96  0.002088463    1.862    0.463
        41 -12.1734     80.2476    147.0045   6.9020356951e+01   3.5346753908e+01     1.497632     0.508342 -47.12  0.005052804    3.037    0.671
        42  -9.4200    134.3901    148.1633   5.4719079829e+01   2.5510102267e+01     0.293704    0.1565359 -54.33  0.001112269    2.025    0.506
        43  -9.6398    133.6234    143.4145   5.3845664347e+01   2.6733375416e+01    0.4366011    0.1526243 -55.34  0.001242638    3.840    0.740
        44  -9.0502     40.4172    145.7398   7.9977357459e+01   4.0754038893e+01    0.2596738    0.1206461 -71.48  0.001074596    2.071    0.517
        45  -8.4551    100.9618    144.0303   6.2664983093e+01   3.2703909235e+01    0.1739342     0.165883 -58.09 0.0009469663    1.023    0.023
        46  -8.9441     90.9227    143.9197   6.5428176774e+01   3.4418695988e+01    0.2396335    0.1782431  77.13  0.001121665    1.720    0.419
        47  -9.3878    167.5660    225.2357   6.1723199782e+01   3.6808538051e+00    0.1794205    0.1220552 -29.37 0.0009518742    1.661    0.398
        48 -10.4381     96.5985    135.3922   6.2027668745e+01   3.5513440757e+01    0.5554637    0.3792755  -2.05  0.002319844    2.294    0.564
        49 -11.0167     73.6505    135.3528   6.8643036837e+01   3.9154390661e+01    0.3954986    0.2436855  62.01  0.001697373    2.226    0.551
        50 -10.0552    106.6003    129.2465   5.7804711250e+01   3.5186512857e+01     0.609879    0.3607024 -32.61  0.002463282    2.069    0.517
        51 -10.3070     42.8394    128.5007   7.6530290892e+01   4.4692843755e+01    0.2829038    0.1712734 -84.40   0.00131996    1.999    0.500
        52  -9.3332    164.1759    125.4638   4.2163646982e+01   2.4225278869e+01    0.3114741      0.19863 -59.67  0.001281705    1.965    0.491
        53  -9.8741     94.9884    122.4679   5.9540985259e+01   3.8841522285e+01    0.3420276    0.2519058   5.05  0.001573346    1.782    0.439
        54 -12.5404     58.5823    148.3833   7.5327455593e+01   3.8009446967e+01    0.4712331     0.402121  -0.43 0.0007790137    1.431    0.301
        55  -9.6230     40.9199    121.3384   7.5848806866e+01   4.6624159012e+01     0.235706    0.1729107 -75.36 0.0007067025    1.360    0.265
        56  -8.5699    135.0000    120.0521   4.7863308285e+01   3.1640876450e+01    0.2583799   0.08761517 -45.04 0.0007994781    2.922    0.658
        57  -9.7262     32.5497    118.4982   7.7953295333e+01   4.8125611998e+01    0.2361395    0.2071325 -86.43 0.0005793286    1.185    0.156
        58  -9.1752    105.0783    116.9361   5.5247920759e+01   3.8302242558e+01    0.2181002    0.2106202 -20.04  0.000369014    1.017    0.017
        59  -8.3425    141.5619    116.5439   4.5299133631e+01   3.0996788520e+01    0.1527576    0.1502661 -64.42 0.0001845804    1.054    0.051
        60 -13.9370     38.2055    177.9774   8.4667656845e+01   3.3249134662e+01     2.092819     1.090798 -85.53  0.008226812    2.032    0.508
        61  -9.3085    155.6782    111.7549   4.0649875853e+01   2.8896558442e+01    0.4572924    0.2688526 -66.66  0.001598199    2.959    0.662
        62 -10.5395     42.1082    112.3922   7.3776188913e+01   4.8638102014e+01    0.3279369    0.2191646 -80.67  0.001028082    1.759    0.431
        63  -9.6593    205.3895    110.4736   3.0190660256e+01   1.8157671914e+01    0.2916608    0.2477865  28.50 0.0008194745    1.331    0.249
        64  -9.5487    135.2886    107.5340   4.4519955561e+01   3.4243814149e+01     0.382099    0.2124516 -60.30  0.001133564    2.587    0.613
        65  -8.6263    142.5203    216.7288   6.5706997021e+01   9.3995103691e+00    0.1712174    0.1343683 -71.58  0.000858864    1.614    0.381
        66  -9.8333     22.8911    104.4620   7.8573586348e+01   5.2269043398e+01    0.3442508     0.199831  57.84  0.001616333    2.468    0.595
        67 -11.2119     53.5142     94.3330   6.5912157350e+01   5.1522038274e+01    0.4997306    0.2638795 -59.17  0.002263242    1.900    0.474
        68  -9.1531     37.1472     98.1681   7.2482806170e+01   5.2464388258e+01    0.2012511    0.1600544 -36.24 0.0006515071    1.167    0.143
        69  -9.6052     41.1734     87.6922   6.8632447372e+01   5.4416329663e+01    0.3122522    0.2112317  50.90  0.001393651    1.986    0.496
        70  -8.8861     83.3067     67.3411   4.7741274630e+01   5.2598467980e+01    0.1471313    0.1042664  -4.07 0.0007042398    1.685    0.407
        71 -10.9509     13.4810     60.3019   7.2407559384e+01   6.2632965000e+01    0.2947578    0.2012043 -54.69 0.0005574971    1.310    0.237
        72 -10.7279      2.3476     56.5926   7.6176439154e+01   6.4055992781e+01    0.2078774    0.1871234  82.54  0.001508337    1.522    0.343
        73  -9.5079    111.9741    243.6893   7.5928294653e+01   9.1973161289e+00    0.1884572    0.1732998 -84.62 0.0005820632    1.217    0.179
        74 -12.0395    204.2021     57.4509   1.7556616630e+01   2.7112783900e+01    0.4213587    0.4094648   1.75  0.001087538    1.227    0.185
        75 -13.6227      4.1580    236.9988   9.6250335239e+01   2.3939031616e+01    0.4688237    0.3876514 -77.34  0.002380898    1.378    0.274
        76  -8.8362     83.4345     61.5339   4.5764122721e+01   5.3615241858e+01    0.1396306    0.1249566  -0.65 9.022607e-05    1.013    0.013
        77  -9.3494     52.1652     50.7479   5.3333925054e+01   6.0476420076e+01    0.2751125    0.2045311  73.90   0.00131182    3.064    0.674
        78  -9.1419     28.5684     32.7887   5.6683856541e+01   6.6368882317e+01     0.149962    0.1052887 -43.38 0.0009316426    1.507    0.337
        79  -8.7112     33.3642     30.6881   5.3663136178e+01   6.6161866817e+01    0.1042783   0.09797416  57.40 0.0001609406    1.757    0.431
        80 -12.3978    127.4662    230.2544   7.0961641784e+01   9.2878434312e+00    0.6913089    0.3410425  44.61  0.003258332    1.826    0.452
        81 -11.6125    110.5389    229.6483   7.4490200161e+01   1.2058513394e+01    0.4098199    0.3669294  75.95  0.002635362    1.154    0.133
        82  -9.2735     60.3705     21.1345   3.8477010221e+01   6.3608898604e+01    0.2079885    0.1430472  25.68 0.0004963163    1.277    0.217
        83  -9.1295    250.5912     18.6862   4.3014978300e+00   2.2144138633e+01    0.2065255    0.1061446 -31.78  0.001134667    2.105    0.525
        84  -8.7612    189.5113     15.0101   9.0327248448e+00   3.5773279175e+01    0.1750947    0.1227201 -33.84 0.0006473902    1.557    0.358
        85 -10.6426      6.7125     14.0061   5.9828213012e+01   7.1335565791e+01    0.1624361    0.1147637 -24.36 0.0006071609    1.103    0.093
