#   1 NUMBER                 Running object number                                     
#   2 MAG_AUTO               Kron-like elliptical aperture magnitude                    [mag]
#   3 X_IMAGE                Object position along x                                    [pixel]
#   4 Y_IMAGE                Object position along y                                    [pixel]
#   5 X_WORLD                Barycenter position along world x axis                     [deg]
#   6 Y_WORLD                Barycenter position along world y axis                     [deg]
#   7 A_WORLD                Profile RMS along major axis (world units)                 [deg]
#   8 B_WORLD                Profile RMS along minor axis (world units)                 [deg]
#   9 THETA_WORLD            Position angle (CCW/world-x)                               [deg]
#  10 FWHM_WORLD             FWHM assuming a gaussian core                              [deg]
#  11 ELONGATION             A_IMAGE/B_IMAGE                                           
#  12 ELLIPTICITY            1 - B_IMAGE/A_IMAGE                                       
         1 -16.0939    178.7497     78.2085   3.8985768523e+01   3.0372955985e+01     2.261143     1.737396 -58.50  0.008443103    1.249    0.199
         2 -15.4732    249.1966     27.7756   2.1531046581e+01   2.3969202978e+01     1.565538    0.4328174 -37.00  0.007618621    3.199    0.687
         3 -15.6398    235.5949     18.0953   2.0705357305e+01   2.7324906572e+01     1.475851     1.151064   1.48  0.009623033    2.606    0.616
         4 -17.4869    217.3668     75.4887   3.3150904727e+01   2.3326381593e+01      9.46629     3.145328 -44.89   0.04195003    2.506    0.601
         5 -16.3601    230.2063     31.0572   2.3395404357e+01   2.6823216523e+01     2.972319     1.557237 -74.01   0.01799743    1.903    0.474
         6 -17.7283    241.7041     57.1403   2.7223540756e+01   2.1644489037e+01     5.582434     3.984953 -67.50   0.02205444    1.209    0.173
         7 -12.5568    134.3519     20.5960   3.1231080917e+01   4.7836408655e+01     0.550226    0.2327837 -25.46  0.002189085    2.995    0.666
         8 -10.6238    224.3552      8.1613   1.9619148928e+01   3.0347389209e+01    0.1775582    0.1502891  72.28 0.0009759486    1.462    0.316
         9  -9.6531    106.7014      4.6727   3.0953892648e+01   5.5645704430e+01    0.1262849   0.07869712  42.37 0.0002979944    1.635    0.388
        10 -10.8865    159.0976      1.7688   2.3235379983e+01   4.4040254084e+01    0.1968075    0.1668142  47.29 0.0006834318    1.464    0.317
        11 -11.6360    174.7136    242.0086   7.2370936089e+01   5.0476525541e-01    0.1789905    0.1417364 -13.84 0.0003904153    1.102    0.093
        12 -10.8966    188.6073    176.8022   5.8262606902e+01   1.0532516316e+01    0.1892861    0.1205343 -50.35 0.0006494973    1.677    0.404
        13 -12.3969    237.1968    171.9432   4.8818621816e+01   4.7559555131e+00    0.2963398    0.2061806 -61.49  0.001698632    2.171    0.539
        14 -11.3545    248.0145    221.5072   5.5491384959e+01  -4.1037102068e+00    0.2070415    0.1520383  36.08  0.001419575    2.027    0.507
        15 -12.7821    176.7049    170.6160   5.9511848475e+01   1.3555005108e+01    0.4835085    0.3256045  -6.81   0.00232333    1.840    0.456
        16 -12.2780    248.8985    210.6119   5.3592575056e+01  -2.5900543116e+00    0.2759086    0.2443447  38.84  0.001395496    1.848    0.459
        17 -12.9295      2.2398    167.5646   1.0848130555e+02   3.7852793923e+01    0.7947873    0.2762198 -78.49  0.002935847    2.673    0.626
        18 -13.7507    191.0877    153.5564   5.3222339476e+01   1.4574103161e+01    0.7979399    0.5139491 -57.90  0.003899594    1.906    0.475
        19 -14.5209     43.0492    149.0050   9.3260632822e+01   3.9418254686e+01     1.254388     0.938401  -5.02   0.00487492    1.491    0.329
        20 -10.2459    210.6149    155.2696   5.0034513779e+01   1.1225690486e+01    0.1782622    0.1057981 -34.34  0.000316329    1.496    0.332
        21 -10.7547    134.0000    148.5242   6.4954104304e+01   2.5560291822e+01    0.4965175    0.1997359 -52.59  0.001702024    2.689    0.628
        22 -11.1105    133.0000    142.9927   6.3999359248e+01   2.6991901458e+01    0.5160318    0.1371295 -49.73  0.001453212    3.854    0.741
        23 -13.2993     65.2525    143.7159   8.4777482806e+01   3.8120812148e+01     1.320519    0.6844811  38.49  0.005280407    1.949    0.487
        24 -13.9216     32.3543    153.3521   9.7488558070e+01   3.9321361998e+01    0.6672674    0.6017829 -83.44  0.001534464    1.110    0.099
        25 -11.7008    136.0000    129.9581   6.0250623348e+01   2.9317682244e+01    0.6818416    0.1757096 -47.20   0.00193501    3.845    0.740
        26 -11.9370    135.1039    120.9572   5.8339229692e+01   3.1434419794e+01    0.7350671    0.2005358 -46.91  0.002011729    3.677    0.728
        27 -13.5025    134.5300    107.9899   5.5277810433e+01   3.4254653738e+01     1.143268    0.3783892 -45.70  0.003748039    3.039    0.671
        28 -11.8921    135.6097     99.3478   5.2801924070e+01   3.5752091451e+01    0.3448113    0.2993301 -62.57 0.0007505636    1.233    0.189
        29 -12.3115    160.7674    128.5417   5.4068320925e+01   2.4845080288e+01    0.4207266     0.325538 -55.88  0.001752585    1.363    0.266
        30 -11.2216    172.0913    123.1605   5.0489779420e+01   2.3754737816e+01    0.2188098    0.1900622 -12.08  0.001089351    1.260    0.207
        31 -10.7770    177.8005    122.0775   4.9130444580e+01   2.2887015970e+01    0.2143482    0.1803076 -64.40 0.0009956753    1.289    0.224
        32 -12.1220    163.0025    118.7126   5.1343334666e+01   2.6366560158e+01    0.3315123     0.193145 -35.17   0.00128318    1.784    0.439
        33 -11.8160    169.1845    114.7830   4.9174890919e+01   2.5915211121e+01    0.3520156    0.2343962 -85.20  0.001468273    2.692    0.629
        34 -13.9557    126.7040    105.3633   5.6610844834e+01   3.6407528950e+01     1.251656    0.5332621 -45.13   0.00463177    2.370    0.578
        35 -13.5794    119.6015    103.5808   5.8055633320e+01   3.8239689952e+01    0.8000181    0.4207918 -43.77  0.003267455    1.931    0.482
        36 -10.6002    142.8932    106.8685   5.2970832297e+01   3.2752485056e+01    0.2244676    0.1997275   7.71 0.0005989297    1.257    0.205
        37 -11.6909    149.8946    103.8036   5.0614980030e+01   3.1900146165e+01    0.3185839    0.2968001   5.28 0.0006349303    1.172    0.147
        38 -13.0484    160.8662     98.9316   4.7112344123e+01   3.0540498336e+01     0.595894     0.410806  41.04  0.002990705    1.577    0.366
        39 -12.0976    247.5438    203.1668   5.2579294721e+01  -1.3370845443e+00    0.2550395    0.2436072 -14.67 0.0009127159    1.553    0.356
        40 -13.3728    123.5229     92.8842   5.4139361340e+01   3.9571771519e+01     0.515602    0.3850806  -0.06   0.00238536    1.867    0.465
        41 -12.4582    112.6393     95.7741   5.7910718904e+01   4.1280806229e+01    0.5812671    0.3633958  18.60  0.001619519    2.395    0.582
        42 -12.0345    143.8574     94.1907   4.9544972749e+01   3.4985843080e+01    0.3394115    0.3002962 -75.98 0.0009470658    1.220    0.180
        43 -12.9165    159.7242     90.3164   4.5241513701e+01   3.2321047529e+01    0.3360572    0.2849096 -33.97 0.0007670238    1.232    0.188
        44 -12.5071    130.8489     90.8285   5.1723641341e+01   3.8400174095e+01    0.3213981    0.2521082 -58.25  0.001201048    1.395    0.283
        45 -13.0089    192.5486    194.7803   6.0807848258e+01   6.6165635409e+00    0.9960948    0.5163035 -62.38  0.003185862    5.612    0.822
        46 -14.9899    232.8112     69.6247   3.0348893113e+01   2.1460718067e+01    0.7892659    0.5417013  77.83  0.002948881    1.610    0.379
        47 -12.1225    139.0274     63.1326   4.2325324947e+01   4.1337126000e+01    0.2856524    0.2245646 -84.97  0.001548515    1.437    0.304
        48 -11.1677    194.9132     56.4985   3.1853221680e+01   3.0286892975e+01    0.2290118    0.1634897 -44.31 0.0005140766    1.324    0.245
        49 -11.7444    153.0552     56.0669   3.7799060076e+01   3.9238634482e+01    0.2919441     0.190155 -39.66 0.0006124303    1.588    0.370
        50 -13.8835    199.3493     83.1125   3.7021299248e+01   2.5517312105e+01     1.485754     0.487779  42.50  0.004333865    6.861    0.854
        51 -11.9327    191.4564     43.4685   2.9418542186e+01   3.2698643423e+01     0.381948    0.1735619 -46.48 0.0007781591    1.988    0.497
        52 -12.6203    235.0098    197.5052   5.3619453450e+01   8.8789181948e-01    0.4225073     0.247996  22.50  0.002037742    1.895    0.472
        53 -11.3349    118.5327     40.3639   4.0015418526e+01   4.9214983518e+01    0.5117968    0.1253931 -34.12  0.001698696    4.334    0.769
        54 -12.2772    175.5962     51.2810   3.3153496903e+01   3.4983259615e+01    0.4994784    0.1959716 -41.36  0.002089414    2.391    0.582
        55 -11.5185    124.5026     38.0071   3.8057187893e+01   4.8140863964e+01    0.1887343    0.1326647 -33.69 0.0008178396    1.603    0.376
        56 -11.1461    189.9312     35.8381   2.7918907001e+01   3.3949385818e+01    0.2369395    0.1625031 -37.76  0.001475321    1.526    0.345
        57 -10.9083    159.7867     25.9760   2.9106911598e+01   4.1522775393e+01    0.3090991    0.1673096 -40.70  0.001620959    1.874    0.466
        58 -12.0809    230.9944    195.5010   5.3935906755e+01   1.6655306476e+00    0.2908523     0.242138 -28.12  0.001242189    1.195    0.163
        59 -11.0359    143.7952     20.9087   2.9925455672e+01   4.5649616304e+01    0.2726932    0.1515638 -23.79  0.001009561    2.306    0.566
        60 -12.0002    227.3262    193.6816   5.4233637554e+01   2.3897193145e+00    0.3210902    0.2333668 -39.56  0.001309228    1.308    0.236
        61 -13.5727    216.0452    186.4950   5.4906022441e+01   4.9852520466e+00    0.5802714    0.4325778  12.96  0.003612638    1.399    0.285
