#   1 NUMBER                 Running object number                                     
#   2 MAG_AUTO               Kron-like elliptical aperture magnitude                    [mag]
#   3 X_IMAGE                Object position along x                                    [pixel]
#   4 Y_IMAGE                Object position along y                                    [pixel]
#   5 X_WORLD                Barycenter position along world x axis                     [deg]
#   6 Y_WORLD                Barycenter position along world y axis                     [deg]
#   7 A_WORLD                Profile RMS along major axis (world units)                 [deg]
#   8 B_WORLD                Profile RMS along minor axis (world units)                 [deg]
#   9 THETA_WORLD            Position angle (CCW/world-x)                               [deg]
#  10 FWHM_WORLD             FWHM assuming a gaussian core                              [deg]
#  11 ELONGATION             A_IMAGE/B_IMAGE                                           
#  12 ELLIPTICITY            1 - B_IMAGE/A_IMAGE                                       
         1 -13.4252    204.7422     34.6928   5.4251130495e+01   2.9031489170e+01     1.261168    0.9443664 -30.88  0.005663225    1.311    0.237
         2 -13.5613      5.2181     10.3451   1.0544504380e+02   7.2958820174e+01     1.633864    0.4816113 -51.93   0.00787339    2.366    0.577
         3 -13.9398    224.4941     16.3095   4.6850559972e+01   2.6138797459e+01     1.150493    0.9392568  31.39  0.001680726    1.455    0.313
         4 -12.1476    149.9411    246.9767   1.0940239739e+02   7.2787101395e+00    0.3798137    0.2391935  47.03  0.002613026    1.207    0.171
         5 -12.5760    124.9452    240.5211   1.1297582150e+02   1.1846237740e+01    0.5261394    0.4236349  13.20  0.003797986    1.796    0.443
         6 -12.4453    119.3469    237.5325   1.1364587145e+02   1.3090204898e+01    0.5655202    0.4378253   4.10  0.003269991    2.241    0.554
         7 -13.0756    123.2090    249.0063   1.1408254879e+02   1.0935867661e+01      1.40816    0.2029942  42.19  0.004907147    4.789    0.791
         8 -11.6245    116.9489    249.8322   1.1520024674e+02   1.1716170730e+01    0.4777492     0.277457  42.72  0.002162946    1.315    0.240
         9 -11.3410    110.3341    247.7331   1.1611710022e+02   1.2936939078e+01    0.4332676    0.2172806  36.70   0.00262138    1.838    0.456
        10 -11.4850    100.0062    247.9714   1.1785597893e+02   1.4332627308e+01    0.3710434    0.2888706  59.71  0.002973308    1.106    0.096
        11 -12.6790    103.0565    238.1169   1.1650768868e+02   1.5341886525e+01    0.5227477    0.4761443  38.48  0.002327919    1.402    0.287
        12 -12.2964    100.5260    230.6743   1.1628097404e+02   1.6824654352e+01    0.9073354    0.2746823  36.04  0.003701317    3.722    0.731
        13 -10.3781     81.3688    248.1986   1.2094477490e+02   1.6778072238e+01    0.2560752    0.1498491 -76.86  0.001458219    1.989    0.497
        14 -11.5104     87.1545    248.0653   1.1998636584e+02   1.6042959879e+01     0.457987    0.2487316  48.97  0.001773775    1.322    0.243
        15 -10.2559     84.1588    230.0804   1.1909753919e+02   1.9175078156e+01     0.195294    0.1564105 -61.62  0.001370691    1.646    0.392
        16 -12.1428     88.9500    239.0784   1.1899688869e+02   1.7137031038e+01     0.686478    0.3538406  74.65  0.003976553    2.415    0.586
        17 -11.3588     82.7771    240.0313   1.2011419239e+02   1.7813281361e+01    0.4360556    0.1840296  57.43   0.00151419    2.059    0.514
        18 -11.1846     68.1791    245.4810   1.2291427462e+02   1.8852136744e+01    0.2702968    0.1578095  62.75   0.00107998    1.343    0.255
        19 -11.4220     58.8222    246.6200   1.2449826551e+02   1.9818405533e+01    0.4751855      0.30179  59.00  0.003689553    1.104    0.094
        20 -11.7582     34.5335    228.0399   1.2743300981e+02   2.5533600568e+01    0.4629119    0.3227897  48.42  0.001780999    1.319    0.242
        21 -12.5377     37.1919    206.5640   1.2575633504e+02   2.8946075129e+01    0.7665539    0.4740972  45.22   0.00540273    1.444    0.307
        22 -14.0241      8.6065    211.4139   1.3099984859e+02   3.0962267997e+01     2.092352    0.8384137 -88.80   0.01293211    2.176    0.541
        23 -10.8265    197.9084    245.7847   1.0131136932e+02   2.1166486332e-01    0.1772355    0.1161671  27.84  0.001232911    1.257    0.205
        24 -11.3241    180.6507    243.6486   1.0388245044e+02   3.0425162423e+00    0.3051811    0.1049104  40.70  0.001524477    2.166    0.538
        25 -12.3135    135.3428    241.1762   1.1126198565e+02   1.0216331247e+01    0.4211113    0.2129037  57.76  0.002379823    2.078    0.519
        26 -10.6795     97.1421    239.3475   1.1762542522e+02   1.5981625790e+01    0.2712796    0.1757737  69.89  0.001196043    1.494    0.331
        27 -10.0340    244.6663    242.6667   9.3488845356e+01  -6.2237116004e+00    0.1132307   0.06121392  17.36 0.0007052238    1.733    0.423
        28  -9.7046     53.6658    241.0281   1.2500410093e+02   2.1287212179e+01    0.1526869    0.1289808  42.60 0.0009029059    1.523    0.344
        29  -9.8561    145.5196    240.5108   1.0945025247e+02   8.7752722720e+00    0.1137849   0.08446889  46.61 3.807761e-05    1.035    0.034
        30 -10.3526     73.8991    236.9724   1.2138597117e+02   1.9435857062e+01    0.2246302    0.1608006 -76.57 0.0007459224    1.576    0.366
        31 -11.0730     69.2982    237.3248   1.2218521063e+02   1.9964320088e+01    0.3100944    0.2430753  -9.34  0.001484772    3.064    0.674
        32 -14.6312     23.7516    219.8917   1.2882700817e+02   2.8032123457e+01    0.9764959    0.8060901  36.38  0.008171775    1.651    0.394
        33  -9.5497     54.9828    235.5163   1.2445893737e+02   2.1999148534e+01    0.2053045   0.09729981  62.14  0.001050799    1.726    0.421
        34 -11.5660    135.8094    235.8683   1.1062067339e+02   1.0873200578e+01    0.2507559    0.2046762   1.37   0.00177657    1.821    0.451
        35 -10.0223     77.1025    232.7309   1.2052772757e+02   1.9688043201e+01    0.2424547      0.12048  80.83  0.001356926    2.562    0.610
        36 -10.6466    113.5394    230.2012   1.1394088193e+02   1.5020317355e+01    0.2083753    0.1596282 -58.19  0.001508022    1.669    0.401
        37 -10.0603    153.8728    229.9783   1.0679096032e+02   8.8918070630e+00      0.17051    0.1350291  44.25 0.0003628517    1.036    0.034
        38  -9.3578    123.2303    229.6391   1.1216736809e+02   1.3664303708e+01    0.1492421    0.1205843  59.25 0.0005309545    1.116    0.104
        39 -10.7403     56.6229    228.3479   1.2373010194e+02   2.2961640772e+01    0.2075117    0.1405047  71.82 0.0002288961    1.198    0.165
        40 -10.8583     78.8436    225.6199   1.1966921452e+02   2.0601089660e+01    0.2785867    0.2471433 -74.55  0.002233124    1.452    0.311
        41 -11.5646     90.3053    223.7863   1.1747544325e+02   1.9345940975e+01    0.4304419    0.3290456 -65.32  0.003156038    1.591    0.372
        42  -9.1733     65.3468    223.4234   1.2187812964e+02   2.2704217812e+01    0.3166186   0.08946671 -53.10  0.001168295    6.925    0.856
        43  -8.4848     45.6968    225.2968   1.2540393488e+02   2.4747986278e+01    0.1100631   0.05550992  63.19 0.0004808153    1.581    0.368
        44  -9.1743    132.2805    224.6528   1.1000684676e+02   1.3020229156e+01    0.1147741   0.07684404  66.45  0.000701212    1.641    0.391
        45 -10.6581    100.0782    223.7024   1.1571259054e+02   1.7982217593e+01    0.2545205     0.157149  35.20  0.001583311    1.667    0.400
        46 -10.4742     71.3916    219.5426   1.2051005490e+02   2.2584263829e+01     0.349287    0.2193318  68.07  0.002367019    1.371    0.271
        47 -10.6835     60.3246    220.2203   1.2253207343e+02   2.3866333966e+01    0.1861173    0.1370837  59.18 0.0003275887    1.064    0.060
        48 -10.2924     50.7759    218.6094   1.2410557589e+02   2.5289364956e+01    0.2867922     0.136201  69.70 0.0007422489    1.991    0.498
        49  -9.9650     45.9553    214.2005   1.2466997590e+02   2.6611495898e+01    0.2961502   0.07503697  47.95  0.001427741    2.742    0.635
        50 -10.0884    107.4639    216.6906   1.1366714035e+02   1.8033518656e+01    0.2915629    0.1400286  54.28 0.0006666679    1.836    0.455
        51  -9.4767    116.1995    216.0984   1.1198716881e+02   1.6813254137e+01    0.2243676    0.1409637  21.48  0.001178738    2.577    0.612
        52 -10.0502     88.1040    212.2467   1.1681971483e+02   2.1572562023e+01    0.2889831     0.150934 -66.99  0.001358831    2.144    0.534
        53 -10.5737     62.6371    209.1202   1.2128075772e+02   2.5501873889e+01    0.2740497    0.2154593  42.76  0.001273616    1.381    0.276
        54  -9.2991     58.5135    212.5289   1.2229722039e+02   2.5413083964e+01    0.1850459    0.1066329  52.75 0.0007236042    1.346    0.257
        55 -10.2643     55.8927    208.9418   1.2250985743e+02   2.6365106748e+01    0.3657192     0.145957 -72.68  0.001986787    2.563    0.610
        56  -9.9451    111.0023    211.3619   1.1243555559e+02   1.8375012322e+01     0.189595    0.1545278  79.66 0.0004295395    1.247    0.198
        57  -9.4744     99.2519    209.9357   1.1449848011e+02   2.0368607846e+01    0.2533076     0.108048  59.05  0.001095814    2.606    0.616
        58  -9.4725    113.9112    204.4280   1.1109164597e+02   1.9087940466e+01    0.1849525    0.1477093  82.23 0.0005421337    1.307    0.235
        59  -9.5011     65.0116    204.9474   1.2049991736e+02   2.5946518253e+01    0.2742749    0.1204613  43.13  0.001111992    1.885    0.470
        60  -9.5479    106.8316    203.4250   1.1234225843e+02   2.0349900922e+01    0.1864355    0.1447521  88.63 0.0005485052    1.363    0.266
        61  -8.6766     72.5247    203.4400   1.1894606846e+02   2.5242702685e+01    0.1179672   0.08724661  64.28 0.0001448706    1.068    0.064
        62  -9.9071    250.5072    200.5055   8.5934232541e+01  -3.0227710668e+00     0.186165   0.09809528 -13.13 0.0008369697    2.099    0.524
        63 -10.6666     44.8297    199.5262   1.2388036261e+02   2.9374073642e+01    0.3322929    0.2576678  29.46   0.00238895    1.730    0.422
        64 -11.0224     74.0229    244.0789   1.2186350797e+02   1.8331076370e+01    0.2707605    0.2103832  86.47   0.00222168    1.337    0.252
        65  -9.4712     99.0217    197.4150   1.1318669522e+02   2.2587394895e+01    0.3551648     0.149304  62.21  0.001425268    3.423    0.708
        66 -14.8612     14.8821    242.3828   1.3118384783e+02   2.5254744333e+01     2.521156    0.8659511  43.35   0.01632887    2.088    0.521
        67 -10.2210    250.2460    194.2148   8.4877693465e+01  -2.3144325713e+00    0.2057031    0.1319874 -15.87  0.001284571    1.521    0.342
        68 -12.0740     51.0074    191.8985   1.2211924961e+02   3.0083013718e+01     0.371796    0.3025929  88.60  0.001393852    1.186    0.157
        69  -9.9394     30.9064    193.2853   1.2608255972e+02   3.2059303693e+01    0.1983918    0.1239247  85.02 0.0005990749    1.336    0.251
        70 -10.5361     34.7486    192.0260   1.2527057728e+02   3.1890825218e+01    0.3636796    0.1516118  36.79  0.002027764    2.310    0.567
        71  -9.6905     25.8317    192.7086   1.2700205246e+02   3.2688343069e+01    0.1870648    0.1149929  57.39  0.001307655    1.285    0.222
        72  -9.1912     21.6997    193.3010   1.2780806954e+02   3.2988285738e+01    0.1948418    0.1261055  67.95 0.0002482691    1.161    0.139
        73 -10.3596     19.0716    188.4303   1.2802462716e+02   3.4160347706e+01    0.2560857     0.123597 -85.75 3.784731e-05    1.787    0.440
        74  -9.2364    191.5777    191.6909   9.4454209545e+01   7.8682279451e+00     0.142486    0.1238442 -44.22 0.0004725971    1.427    0.299
        75 -10.3155      9.8865    187.2779   1.2968533077e+02   3.5227763608e+01    0.2367626    0.1263981  87.78  0.001439371    1.515    0.340
        76 -10.0487     70.7036    187.0624   1.1775798804e+02   2.8531637927e+01    0.2483301    0.1459288  40.38  0.001457373    1.619    0.382
        77 -11.9845     57.5158    184.6692   1.2020675846e+02   3.0685445847e+01     0.338607    0.2069349  49.66 0.0005822003    1.404    0.288
        78  -9.1181     24.9924    184.4865   1.2665556822e+02   3.4337852584e+01    0.1579569   0.08970121  43.88  0.001034023    1.608    0.378
        79  -8.7266     30.2987    183.6685   1.2556615437e+02   3.3959529167e+01    0.1186573    0.0618149  67.21 0.0003017442    1.645    0.392
        80  -9.7019     36.8628    180.5182   1.2403522836e+02   3.3884060124e+01    0.2425612    0.1382381 -68.13 0.0007603909    1.728    0.421
        81  -8.8824    110.6702    178.2172   1.0839457143e+02   2.4306773269e+01    0.1912855   0.09681404  33.25 0.0008675753    2.268    0.559
        82 -11.4275    248.4558    172.5706   8.1172650036e+01   4.2277994256e-01    0.4220462    0.2789677  13.41  0.002475143    1.457    0.314
        83 -10.8875     69.7220    172.7896   1.1646497400e+02   3.1473593653e+01    0.2224613      0.18879 -88.83 0.0004321691    1.135    0.119
        84 -11.0620     54.0784    171.7119   1.1970656491e+02   3.3682292824e+01    0.3117355    0.2036206  53.16  0.001040834    1.341    0.255
        85 -12.4821     12.0498    153.4967   1.2727379544e+02   4.1748515895e+01    0.5197034    0.2408141 -58.53  0.002934385    2.304    0.566
        86 -11.4867     12.4833    167.4730   1.2808598411e+02   3.8856835436e+01    0.3790131    0.2133939  21.85  0.002310974    2.574    0.612
        87 -12.3381      8.6991    164.8645   1.2870395574e+02   3.9704145014e+01    0.5909927    0.2958443 -50.55  0.003316811    2.896    0.655
        88  -9.3177     13.3637    173.3085   1.2825819025e+02   3.7617311093e+01    0.1656737     0.142834  59.86  0.001334247    1.306    0.234
        89 -10.2072     10.9949    170.5022   1.2856780504e+02   3.8381423236e+01    0.2037855    0.1222995  67.70 0.0006834205    1.323    0.244
        90 -11.1592      2.3951    171.6893   1.3033844646e+02   3.8867303116e+01    0.4172071    0.1567717  81.75  0.001644698    2.409    0.585
        91 -10.0704     27.4821    171.3448   1.2526535465e+02   3.6680730530e+01    0.2546022    0.2031277 -49.54 0.0008643502    1.758    0.431
        92  -9.4593     17.9532    172.2074   1.2726994807e+02   3.7420009454e+01     0.177762    0.1115171  66.89 0.0009594752    1.275    0.216
        93  -9.3167     91.3025    168.4258   1.1123161472e+02   2.9274522680e+01    0.1791875     0.104357  51.47 0.0008026097    1.551    0.355
        94 -10.4695     39.5481    167.8300   1.2245261290e+02   3.6141069072e+01    0.2284156     0.184485  19.93  0.001124143    1.780    0.438
        95 -10.3721     20.1651    168.0423   1.2654424422e+02   3.8050238315e+01    0.1955638    0.1435277 -52.28  0.001014746    1.824    0.452
        96 -12.1437     77.8976    164.7618   1.1372644133e+02   3.1987253300e+01    0.4948682    0.4143291  69.51  0.002644953    1.025    0.025
        97  -9.7332     68.0919    166.3233   1.1609109394e+02   3.3009521227e+01    0.1679397    0.1350917  66.65 0.0003602285    1.064    0.061
        98 -11.1810    245.1500    162.2878   7.9688289143e+01   2.2361874047e+00    0.2583096    0.2132907 -20.81  0.001577657    1.242    0.195
        99 -10.9722    249.3625    161.4696   7.8853920348e+01   1.6061391268e+00    0.2771995    0.2179823 -34.40   0.00173106    1.469    0.319
       100 -11.2944    246.1612    156.4563   7.8350859456e+01   2.7890212475e+00    0.6007406    0.3324017  63.28  0.002484558    3.681    0.728
       101  -9.3779     37.1755    162.2063   1.2247316354e+02   3.7555668736e+01    0.1637753    0.1083444  72.36 0.0005311521    1.293    0.227
       102 -10.3694     23.9447    161.9799   1.2531557260e+02   3.8931157274e+01    0.1674353    0.1314825  81.00 0.0004157124    1.042    0.040
       103  -8.9036     64.6167    166.8185   1.1691287250e+02   3.3363736653e+01    0.1630279    0.1015977 -87.11 0.0004300992    1.585    0.369
       104  -8.8687     42.9671    161.0119   1.2109099572e+02   3.7176792432e+01    0.1868366    0.1097826  68.91 0.0004236474    1.578    0.366
       105 -11.0387     26.1524    155.0594   1.2428938386e+02   4.0160283724e+01    0.2360969    0.1598703  42.90 0.0008924506    1.511    0.338
       106  -8.5603    228.4514    155.4946   8.1071244704e+01   6.1425456222e+00    0.1313818    0.1157374  10.91 0.0001398813    1.040    0.038
       107 -10.2791     32.0390    153.7280   1.2285797174e+02   3.9864508126e+01    0.1964547    0.1404179 -83.03 0.0004935628    1.186    0.157
       108 -10.9628    249.6261    150.9330   7.6668644215e+01   2.8712962349e+00    0.3386132    0.2359897 -25.00  0.001976806    1.363    0.266
       109 -11.6028    243.9988    121.3375   7.1105802859e+01   7.8407405069e+00    0.4259647    0.2383739 -47.87  0.001927112    2.291    0.564
       110 -12.1375    247.9448    142.3855   7.5135826255e+01   4.2710129081e+00    0.5732967     0.457363  15.99   0.00350226    1.146    0.128
       111 -12.8033    248.3601    133.8918   7.3237249332e+01   5.3079619687e+00     1.262721    0.4976659 -21.68   0.00482364    3.029    0.670
       112 -10.9924     92.3213    149.9034   1.0832386682e+02   3.2947081990e+01    0.3003362    0.2817101  71.49  0.001005477    1.112    0.101
       113 -10.9997     23.9503    149.9675   1.2436034174e+02   4.1442322756e+01    0.2288017    0.1440493  69.17   0.00116598    1.385    0.278
       114 -10.7332      4.6470    150.8671   1.2871197012e+02   4.2887908265e+01    0.1584484    0.1464225  66.72 0.0008452333    1.345    0.257
       115 -10.5004     80.7479    148.4625   1.1085471855e+02   3.5009922774e+01    0.2300121    0.2020863  84.38 0.0003671005    1.027    0.026
       116  -9.6683     38.6825    148.9548   1.2088106668e+02   4.0198635882e+01    0.1791814    0.1260229 -64.62 0.0004360275    1.413    0.293
       117 -11.8613     68.2811    143.7105   1.1318098608e+02   3.7791591437e+01    0.6900258    0.3665426  72.55  0.002525519    2.491    0.598
       118 -11.3702      3.1459    132.8058   1.2784376928e+02   4.6803592764e+01    0.5346107    0.2399424  86.02  0.002930149    1.962    0.490
       119 -13.6323      4.0487    121.9571   1.2679157179e+02   4.9084612654e+01    0.8811596    0.5316983  60.94  0.005714862    1.575    0.365
       120  -9.1577    133.4097    141.1869   9.7129252557e+01   2.7526051000e+01    0.1960851    0.1347819 -63.12 0.0009504748    1.661    0.398
       121  -9.6728     44.8619    139.8591   1.1841399439e+02   4.1509183816e+01    0.1732105    0.1501876 -76.49 0.0003377375    1.168    0.144
       122  -9.1755    235.9910    146.0036   7.7824287528e+01   6.0163332984e+00    0.1606941    0.1391008   7.39 0.0004408075    1.001    0.001
       123 -10.0036    106.5666    135.5923   1.0242739946e+02   3.3640817555e+01    0.3666332    0.2633872  -2.81  0.001327189    2.585    0.613
       124  -8.6576     92.7585    133.3193   1.0544370426e+02   3.6452822600e+01    0.1341831   0.09832121  84.45 0.0001940174    1.517    0.341
       125 -12.5542      9.1129    143.0655   1.2719551949e+02   4.4174730806e+01     0.550567    0.1911048 -72.46  0.002804824    2.282    0.562
       126  -9.2950     44.3727    130.1426   1.1734612155e+02   4.3719253696e+01    0.1747535    0.1011405 -84.03 0.0004446033    1.654    0.396
       127  -9.4256     58.9053    127.6980   1.1323378442e+02   4.2566352072e+01    0.1750676     0.149995  78.21 0.0004167724    1.074    0.069
       128  -9.5175    234.2982    125.3174   7.3543422470e+01   9.2217714995e+00    0.1415307    0.0987507  11.12 0.0002776604    1.613    0.380
       129 -11.2832    239.3622    120.4179   7.1614677440e+01   8.8924797841e+00    0.4774087     0.226152 -15.72  0.001820822    2.894    0.654
       130 -12.4236      4.1245    142.9669   1.2831975305e+02   4.4576259847e+01    0.4888744     0.325574 -63.70  0.003026082    1.531    0.347
       131 -13.0074    248.4129    102.0930   6.5973990407e+01   9.5919937450e+00     1.078619    0.5406971 -25.50  0.004856246    1.896    0.472
       132 -12.1282    247.9505    112.8050   6.8549929388e+01   8.2234243871e+00    0.5776569     0.423862  40.04  0.003223717    1.402    0.287
       133  -9.2396     96.1690    145.8845   1.0676486708e+02   3.3188113041e+01    0.2003704    0.1647679  77.34 0.0003978641    1.173    0.148
       134 -13.2902      1.5859     86.7279   1.2404590993e+02   5.7020610264e+01     1.614191          nan -70.66  0.004198844    7.613    0.869
       135 -13.1438      8.6382    132.5322   1.2651155253e+02   4.6463313527e+01    0.6696244    0.2798361 -62.60  0.003637484    2.116    0.527
       136 -10.6051    232.1341    116.6168   7.1879148022e+01   1.0911251378e+01    0.2403409    0.1813651 -36.07 0.0007147539    1.325    0.245
       137 -11.8876     15.3790    102.0877   1.2174031022e+02   5.2698547918e+01    0.2966795    0.1784823 -89.62  0.001313468    1.504    0.335
       138 -10.1046    249.7673    117.5877   6.9380100744e+01   7.2167770779e+00    0.2327346    0.1874192  36.92 0.0006424058    1.273    0.214
       139 -12.8896      3.3635     96.9933   1.2465326124e+02   5.4634925414e+01    0.6803249    0.3149329  73.84  0.003452513    2.459    0.593
       140  -9.6856    161.5031     79.5086   7.5285801415e+01   3.3355939809e+01    0.1519846    0.1513983  15.82 3.437214e-05    1.010    0.010
       141 -10.7818    184.9550    248.5154   1.0376751680e+02   1.8494919338e+00     0.237813    0.1433632  14.96  0.001433585    2.225    0.551
       142 -12.0626    171.2184    248.2297   1.0599562984e+02   3.9381693306e+00    0.3920756    0.2323578  36.42  0.002614346    1.297    0.229
