#   1 NUMBER                 Running object number                                     
#   2 MAG_AUTO               Kron-like elliptical aperture magnitude                    [mag]
#   3 X_IMAGE                Object position along x                                    [pixel]
#   4 Y_IMAGE                Object position along y                                    [pixel]
#   5 X_WORLD                Barycenter position along world x axis                     [deg]
#   6 Y_WORLD                Barycenter position along world y axis                     [deg]
#   7 A_WORLD                Profile RMS along major axis (world units)                 [deg]
#   8 B_WORLD                Profile RMS along minor axis (world units)                 [deg]
#   9 THETA_WORLD            Position angle (CCW/world-x)                               [deg]
#  10 FWHM_WORLD             FWHM assuming a gaussian core                              [deg]
#  11 ELONGATION             A_IMAGE/B_IMAGE                                           
#  12 ELLIPTICITY            1 - B_IMAGE/A_IMAGE                                       
         1 -15.0916     14.5874    153.8858   1.4207695175e+02   4.1683092907e+01     11.63937     4.833141  81.43   0.04615231    3.605    0.723
         2 -12.0493      3.0350     38.6573   1.2496751248e+02   6.6772296484e+01    0.5079431    0.2000349 -59.68  0.002596166    2.638    0.621
         3 -13.4263    197.3754     29.8746   6.7531495098e+01   3.2614967814e+01     1.343358     1.296586  48.92  0.006896827    1.252    0.201
         4 -13.5313    213.4538     10.1510   6.0970632535e+01   3.1060552802e+01     1.054092    0.8902614  45.08  0.005982302    1.514    0.339
         5 -11.3734      3.1291      4.1969   1.1245610380e+02   7.2059750004e+01    0.3745743     0.212503 -25.58  0.002698543    1.332    0.249
         6 -12.0389      2.4842     15.4060   1.1736215103e+02   7.0541980111e+01    0.5281449    0.1523715 -46.07  0.002702521    2.696    0.629
         7 -10.7249     17.3479      3.3221   1.0520528204e+02   7.0955040961e+01    0.2172247    0.1146668 -37.74  0.001407987    1.881    0.468
         8  -9.5687     22.4893    245.5444   1.4797119537e+02   2.1352685449e+01    0.1118782   0.07781911  75.00 0.0001774764    1.006    0.006
         9 -12.5129    247.5752    247.6646   1.0696631912e+02  -1.3876357317e+01    0.7069432    0.4484078  31.76  0.004473882    1.378    0.274
        10 -11.2195    123.7655    249.9246   1.3040306954e+02   6.0562531064e+00    0.4520172    0.1466504  40.79  0.001827941    2.715    0.632
        11  -9.8677     66.3673    250.0575   1.4089887837e+02   1.4915526947e+01    0.1844686    0.1399445  54.49 0.0004590818    1.240    0.194
        12 -10.5188     29.0162    248.7592   1.4711317253e+02   1.9989887322e+01    0.3262558    0.1928225 -66.47  0.001255611    1.861    0.463
        13 -11.5288     35.5476    244.7370   1.4577014827e+02   1.9969509032e+01    0.4899904    0.2894803 -50.97  0.002827601    2.815    0.645
        14  -9.4584     30.8393    242.1049   1.4637825861e+02   2.1040140576e+01    0.2441314    0.1398019  72.70  0.001142949    1.376    0.273
        15 -10.9894      3.7826    249.8601   1.5114098458e+02   2.2574436552e+01     0.378446    0.1729639  59.95  0.002471443    1.632    0.387
        16 -11.2149     10.7359    248.6947   1.5001375632e+02   2.2058841277e+01    0.2685768    0.1652909  44.09  0.001911722    1.726    0.421
        17 -10.9391     98.6484    248.5183   1.3493688922e+02   1.0385716700e+01    0.2815698    0.1439606  53.01  0.001492501    1.617    0.382
        18 -11.5481     12.2072    240.7885   1.4934654815e+02   2.3390485246e+01    0.3154343    0.1919291  80.84  0.002000665    1.198    0.166
        19 -10.4673     18.2115    241.6635   1.4842952398e+02   2.2571070962e+01     0.194466    0.1161828  69.88 0.0005786087    1.239    0.193
        20 -10.8289      5.7906    240.9652   1.5037546111e+02   2.4029076796e+01    0.1715433    0.1314681  61.53 0.0004586421    1.330    0.248
        21 -11.5501    183.9791    238.7340   1.1725443294e+02  -2.4514802540e+00    0.3808863     0.184259  47.58  0.001470661    1.935    0.483
        22 -10.6861    119.8268    237.9439   1.2969268977e+02   8.8884553691e+00    0.3008576    0.1632933 -86.82  0.001253743    3.222    0.690
        23 -11.2527    229.4218    230.1216   1.0721461965e+02  -8.7920487863e+00    0.5577417    0.2983484 -58.77  0.001983738    5.538    0.819
        24 -10.9698     50.3970    235.0694   1.4246827611e+02   1.9981900017e+01    0.3397968    0.2077341  83.05  0.001729304    1.418    0.295
        25 -11.5584    139.9859    249.6119   1.2729163323e+02   3.3779968651e+00    0.4120324    0.2716569  54.27  0.002379754    1.326    0.246
        26 -11.6124     58.9460    198.0137   1.3723003651e+02   2.6689808941e+01    0.2987542     0.222763 -69.17 0.0004982576    1.297    0.229
        27 -10.4701    215.2536    249.2997   1.1303329471e+02  -9.2182288778e+00    0.2571532     0.131665  26.64  0.001287649    1.994    0.499
        28 -11.2267    137.5497    231.3851   1.2531720732e+02   7.0448121711e+00    0.6777896    0.1171778  41.09  0.001838191    5.312    0.812
        29 -10.2018     78.8874    218.5935   1.3547309569e+02   1.9358010045e+01    0.2606729    0.1486994  89.66  0.001265192    1.946    0.486
        30 -12.6250      9.5333    207.2287   1.4770396678e+02   3.0388232797e+01      0.65135    0.5243998  28.24  0.004240686    1.852    0.460
        31  -9.8921    191.8337    193.0550   1.0767087898e+02   4.0644091479e+00    0.4932716    0.2568559 -65.74  0.001489617    4.977    0.799
        32 -11.2509     11.4806    194.8603   1.4644611140e+02   3.2827007357e+01    0.2507844    0.1710812  66.20 0.0002760256    1.279    0.218
        33 -11.9482     65.4795    189.6823   1.3484747463e+02   2.7678096867e+01    0.2885144    0.2404046 -64.67 0.0004916374    1.285    0.222
        34 -11.2731      2.0516    182.8641   1.4735270292e+02   3.6270144363e+01    0.3836151    0.1597573 -79.08  0.002057946    1.865    0.464
        35  -8.7555    152.4824    212.9623   1.1945839579e+02   7.8333596967e+00    0.1830891    0.1393607 -54.89 0.0003517989    1.449    0.310
        36 -10.8541     75.9219    177.0100   1.3078938888e+02   2.9111694438e+01     0.248142    0.2110594 -76.48 0.0003455362    1.096    0.087
        37 -13.2586     62.5720    174.8737   1.3357232256e+02   3.1513258401e+01     0.528837    0.2793173 -46.68  0.001759466    2.353    0.575
        38  -9.9730     96.0306    172.7213   1.2539323457e+02   2.6933990248e+01    0.2683719    0.2179364  64.56 0.0005122759    1.183    0.154
        39 -11.7536     83.4761    167.9119   1.2760800676e+02   3.0112013095e+01     0.639196    0.5350962 -56.74  0.003627094    1.244    0.196
        40  -9.2358     55.1705    229.9420   1.4116292211e+02   2.0379941240e+01    0.2018218    0.1269083  71.36 0.0009851651    1.340    0.254
        41  -9.9816     96.6204    152.1115   1.2156373007e+02   3.1746210209e+01    0.3076503    0.2605672 -51.42 0.0008206301    1.211    0.174
        42  -9.1133     99.7994    147.8706   1.1992298166e+02   3.2213572422e+01    0.2131941    0.1922644 -42.33 0.0003706018    1.220    0.180
        43 -12.0484     85.1233    151.1142   1.2430832068e+02   3.3879935956e+01    0.3054141    0.2466534 -48.00 0.0005734288    1.304    0.233
        44 -12.2264     67.4672    143.6593   1.2753682198e+02   3.8293276578e+01    0.6848817    0.4457255  67.59  0.002762451    1.841    0.457
        45  -9.7162    108.9454    137.0023   1.1526890922e+02   3.3153076266e+01    0.4236834    0.2754249 -15.68  0.001552963    3.096    0.677
        46 -10.5111     95.8329    134.3205   1.1816403272e+02   3.6140926708e+01    0.2530777    0.2203461 -41.90 0.0003972476    1.208    0.172
        47 -12.7967     31.6913    231.6689   1.4550560569e+02   2.2985635369e+01    0.2824794    0.2295645 -83.55 0.0007523543    1.320    0.242
        48 -10.0482     11.4930    232.6039   1.4898729445e+02   2.5048045523e+01    0.2159164    0.1053344  32.44  0.001232343    2.781    0.640
        49  -9.5317     76.4616    129.4446   1.2241603934e+02   4.0408942183e+01    0.2952917    0.1904691  75.74 0.0008316357    2.225    0.551
        50 -11.9935     22.6206    126.7232   1.3668326376e+02   4.7252956261e+01    0.7616851    0.2592981  48.94  0.002851907    4.118    0.757
        51 -10.4502     82.8831    125.4500   1.1979321813e+02   4.0375578216e+01    0.3180493    0.2199882  63.92  0.001070851    1.777    0.437
        52  -9.1515    106.2047    123.7825   1.1298607089e+02   3.6767578914e+01    0.1894779    0.1706014 -21.89 0.0002539924    1.254    0.202
        53 -13.8634     36.9038    224.6921   1.4405405139e+02   2.3774624133e+01    0.7529268    0.5507356  76.62  0.002374432    1.023    0.022
        54 -10.5389    167.8110    112.9295   9.4828123093e+01   2.5887247370e+01    0.3362526    0.2815086 -84.17 0.0005110027    1.344    0.256
        55  -8.9752    203.4640    111.5105   8.7146629020e+01   1.7729548841e+01    0.1516764    0.1464911 -55.87 0.0002624085    1.043    0.041
        56 -10.4801     42.5207     97.0214   1.2552643889e+02   5.2148191771e+01    0.4570917    0.2306567  51.58    0.0020377    2.981    0.665
        57 -10.5819    242.2009     93.2078   7.6405788440e+01   1.2293472709e+01    0.2262207    0.1564287  13.30 0.0009538466    2.822    0.646
        58  -8.3990     65.5084     81.5947   1.1427108179e+02   5.2689535674e+01    0.1302296    0.1200915 -37.55  0.000150855    1.069    0.065
        59  -9.1888    158.2496     77.0161   8.7209318088e+01   3.5192141149e+01    0.1969028    0.1303448 -38.32 0.0005500471    1.552    0.356
        60 -10.0431     47.7299     69.9572   1.1699545295e+02   5.7244789440e+01    0.2478023    0.1854304  49.92 0.0008908574    1.800    0.444
        61 -12.3408      7.0955     51.9290   1.2703433041e+02   6.4155893835e+01     0.532589    0.3762603  55.24 0.0008508179    2.363    0.577
        62  -9.6268    189.3090    249.3315   1.1787032934e+02  -4.9880687181e+00     0.125468   0.08929595  11.49 0.0006901183    1.668    0.400
        63 -12.0140    172.2652    247.7575   1.2087155408e+02  -1.8558222428e+00    0.5004612    0.3470638   8.85  0.002680957    2.073    0.518
        64 -11.0742    198.9060    246.8913   1.1568871398e+02  -6.2289890922e+00    0.3030597    0.2083534 -15.18  0.001732188    1.835    0.455
        65 -10.1185    105.5086    246.8842   1.3348421128e+02   9.5940892972e+00    0.1697154    0.1184312 -69.84 0.0009920525    1.567    0.362
        66 -10.8864     46.4016    248.2174   1.4419145029e+02   1.7948654439e+01    0.3334309    0.1734591  81.11  0.001724379    1.790    0.441
