#   1 NUMBER                 Running object number                                     
#   2 MAG_AUTO               Kron-like elliptical aperture magnitude                    [mag]
#   3 X_IMAGE                Object position along x                                    [pixel]
#   4 Y_IMAGE                Object position along y                                    [pixel]
#   5 X_WORLD                Barycenter position along world x axis                     [deg]
#   6 Y_WORLD                Barycenter position along world y axis                     [deg]
#   7 A_WORLD                Profile RMS along major axis (world units)                 [deg]
#   8 B_WORLD                Profile RMS along minor axis (world units)                 [deg]
#   9 THETA_WORLD            Position angle (CCW/world-x)                               [deg]
#  10 FWHM_WORLD             FWHM assuming a gaussian core                              [deg]
#  11 ELONGATION             A_IMAGE/B_IMAGE                                           
#  12 ELLIPTICITY            1 - B_IMAGE/A_IMAGE                                       
         1 -15.2600     31.9528    100.2236   1.1863776860e+02   5.1663002903e+01     2.481427    0.6841201 -61.99    0.0103858    2.712    0.631
         2 -15.5498     97.0394     65.8993   9.0261018172e+01   5.0533155553e+01     1.970902     1.058108  36.62  0.008489341    2.093    0.522
         3 -15.7355    214.0112    226.6232   9.7815391370e+01   5.6658028540e-01     0.902654    0.4537514 -45.17  0.005021656    3.090    0.676
         4 -15.2822    208.8736    223.8834   9.8270141415e+01   1.6612328652e+00    0.5160264    0.3308165  43.89  0.003137808    1.365    0.267
         5 -13.8894    225.4514    222.3881   9.5332715409e+01  -7.5460851213e-01    0.3904081    0.1914143  43.68  0.002253102    1.747    0.428
         6 -14.2349    137.8417    218.5311   1.0993595182e+02   1.3699265815e+01     0.529911    0.2027617  37.62  0.002492359    2.393    0.582
         7 -13.1648    238.0882    216.2646   9.2366043574e+01  -2.0670141741e+00    0.3618597       0.1227 -38.01    0.0016822    3.914    0.745
         8 -12.5447    169.2104    214.1423   1.0374403623e+02   9.2613367638e+00    0.2332009    0.1332399  58.50  0.001243816    2.106    0.525
         9 -12.3238    227.5894    210.7606   9.3196198330e+01   1.3229003961e-01    0.1401935    0.1077782 -34.80 0.0009574406    1.694    0.410
        10 -12.0994    161.6976    211.3367   1.0471645624e+02   1.0886613565e+01    0.1165079   0.08420795  66.07 0.0004784654    1.665    0.399
        11 -16.3683     43.5196    186.2729   1.2463428169e+02   3.2287809888e+01    0.8279797    0.4802565  49.18  0.005453985    1.450    0.310
        12 -16.7708     30.1263    198.5066   1.2793279818e+02   3.1454450703e+01       1.0772    0.6768875  81.98  0.007876609    1.293    0.226
        13 -16.4227     27.0583    178.1096   1.2728808554e+02   3.5562029419e+01     1.459359    0.6743808 -84.46  0.008654371    1.917    0.478
        14 -16.1965     33.8434    174.2221   1.2567664744e+02   3.5637345932e+01    0.7534584    0.4317518  62.66  0.003975505    1.447    0.309
        15 -15.7221     35.8670    165.4802   1.2460166557e+02   3.7164821839e+01     1.167521    0.4365997  51.02  0.006045288    2.300    0.565
        16 -15.6734     58.2098    168.8849   1.2017252902e+02   3.3972267102e+01    0.9736507    0.8745955 -34.83  0.006925012    1.656    0.396
        17 -14.5186     49.9574    165.4846   1.2161074413e+02   3.5631626169e+01    0.4593755     0.430074 -51.37  0.003264417    1.488    0.328
        18 -14.7773    206.7113    204.6414   9.5741343656e+01   4.2314559194e+00    0.5003957    0.2865999  47.93  0.002586594    1.661    0.398
        19 -13.3634    142.0876    203.1043   1.0724763263e+02   1.5344937569e+01    0.2594672    0.1892412 -45.97  0.001652087    1.716    0.417
        20 -14.5072    198.0108    197.8948   9.6190003240e+01   6.5540913764e+00    0.4250637    0.2662183 -13.95  0.002324404    2.175    0.540
        21 -13.6410    219.1272    197.8241   9.2508320114e+01   2.9703005355e+00     0.412972    0.1502067  44.03  0.001880732    2.347    0.574
        22 -13.4004    191.9638    195.0045   9.6807258215e+01   7.9848134834e+00    0.1981273    0.1626265  35.42  0.000931398    1.038    0.036
        23 -13.2925    209.8221    192.8856   9.3284710032e+01   5.1570515068e+00    0.2854762    0.1671795 -38.62   0.00159614    2.042    0.510
        24 -12.1950    156.6353    192.3093   1.0297224429e+02   1.4562268969e+01    0.1287894   0.08930356  66.43 0.0007038732    1.751    0.429
        25 -16.1785     64.1832    185.1085   1.2046662973e+02   3.0069077911e+01    0.8679348    0.6176265  39.66  0.003908176    1.471    0.320
        26 -14.5128     67.6598    176.4366   1.1893287548e+02   3.1294561915e+01    0.4143327    0.3179798  69.73  0.001970769    1.067    0.063
        27 -15.4863     77.9553    178.1559   1.1697392498e+02   2.9594414557e+01     1.233538    0.6069933 -63.23  0.006659654    2.092    0.522
        28 -13.9349    101.2287    171.3350   1.1124545157e+02   2.7514859294e+01    0.3960692    0.2624949  36.32  0.001554461    1.573    0.364
        29 -15.1744    145.2112    186.3607   1.0431300967e+02   1.7502822149e+01    0.5168385    0.3810479  79.30  0.002801562    1.739    0.425
        30 -14.4487    194.1791    187.7777   9.5214987785e+01   8.5789247075e+00    0.3039607    0.2488484  36.49  0.001246245    1.057    0.054
        31 -14.8769    236.0310    183.8445   8.7241952866e+01   1.7664250674e+00    0.9101084    0.5006469  50.46   0.00478968    2.058    0.514
        32 -15.5903    129.2615    174.4646   1.0577086005e+02   2.2324187472e+01    0.9782067    0.6612799  29.73  0.005154905    1.702    0.412
        33 -15.8819    117.7655    170.4696   1.0759610764e+02   2.5011898137e+01     1.143039    0.8056228 -65.91  0.006234445    1.561    0.359
        34 -14.9470    247.2930    173.7858   8.3546697846e+01   1.0295056087e+00    0.8979839     0.485106 -20.36  0.004829566    1.904    0.475
        35 -14.2641    248.6155    157.7559   8.0207852047e+01   2.6962111534e+00    0.8767866    0.4034429 -34.10  0.004236501    2.229    0.551
        36 -13.9113    191.7840    178.8679   9.4121986723e+01   1.0268817731e+01    0.4357747    0.2308003  39.70  0.001712708    1.633    0.387
        37 -13.0517    185.2506    177.3956   9.5088108892e+01   1.1689920089e+01    0.4164219    0.2730376 -52.93  0.002219782    2.028    0.507
        38 -14.5339    148.7775    178.3557   1.0237842084e+02   1.8212900808e+01    0.4097682    0.3016499  52.33  0.002053136    1.224    0.183
        39 -14.6442    141.2971    177.7221   1.0379199074e+02   1.9649558566e+01    0.4701037    0.3518981  66.47  0.001961778    1.428    0.300
        40 -15.4776    202.8634    162.8867   8.9106735716e+01   1.0505732622e+01     1.093029    0.5245977 -34.65  0.005020111    2.280    0.561
        41 -12.5375    223.1266    167.1444   8.6306262740e+01   6.1077646385e+00    0.3176225    0.1682216  25.35  0.001471647    2.151    0.535
        42 -16.3386     97.0152    167.1963   1.1160164245e+02   2.8971561390e+01     1.435263     1.085526  12.16  0.007990768    2.120    0.528
        43 -11.8790    187.5009    161.5009   9.1739397375e+01   1.3688334546e+01    0.2866274    0.1208604  45.00  0.001198081    2.121    0.528
        44 -13.2297    212.9937    159.5208   8.6599253036e+01   9.0456968791e+00     0.297909    0.2198597  -3.25  0.001661815    1.469    0.319
        45 -13.2221    127.0035    158.9516   1.0380200902e+02   2.5607573118e+01    0.3640124    0.1760033  40.82  0.001640163    1.943    0.485
        46 -13.5631    160.7113    180.7752   1.0039349328e+02   1.5666726860e+01    0.4513995    0.2250056  33.00  0.001873464    2.190    0.543
        47 -12.3744     88.7554    155.6334   1.1186198872e+02   3.2549151700e+01    0.2261279     0.145166  88.85  0.001190959    1.775    0.437
        48 -13.6554    143.6926    129.7608   9.4488645118e+01   2.8119852336e+01    0.7138165    0.4116101  30.57  0.002990616    2.197    0.545
        49 -14.5250    145.1286    150.4184   9.8326090159e+01   2.3872027939e+01     1.158479    0.5299464  35.68  0.004618905    2.462    0.594
        50 -15.2503    147.1819    139.0974   9.5656596411e+01   2.5611214660e+01     1.208319    0.9359137  36.15  0.006437005    1.294    0.227
        51 -15.6818    214.4281    145.9752   8.3559156041e+01   1.0708302341e+01     1.525986    0.8869814  20.24  0.006767968    2.238    0.553
        52 -13.3365    114.1312    143.4715   1.0406513698e+02   3.0949153948e+01     0.508877    0.1893996  47.13  0.001973277    2.562    0.610
        53 -13.7160    111.3598    139.7473   1.0405645607e+02   3.2199879765e+01    0.2983076     0.255538  32.96  0.001734783    1.299    0.230
        54 -12.1347    199.7701    152.6991   8.7655439095e+01   1.2629337740e+01    0.2495988     0.155356  40.62  0.001250075    1.460    0.315
        55 -14.0974     99.0556    141.1998   1.0724887924e+02   3.3959778090e+01    0.4073154    0.3224168   1.37  0.002182181    1.984    0.496
        56 -14.2100    104.5902    152.5685   1.0779003357e+02   3.0701908222e+01    0.4650822    0.2795389 -39.70  0.002232685    2.317    0.568
        57 -15.4542    204.7169    131.1501   8.2090304491e+01   1.4947859963e+01     1.411003     1.214458 -61.63  0.007817775    1.471    0.320
        58 -13.6930     88.3739    129.7883   1.0794438833e+02   3.8098695829e+01    0.5703025    0.2655773  39.10  0.002547898    2.180    0.541
        59 -13.5323    162.7426    123.7271   8.8870198602e+01   2.5280990752e+01    0.5408504    0.2773561 -38.27  0.002236443    2.092    0.522
        60 -13.7684    165.4945    116.8328   8.6643544263e+01   2.5958426277e+01    0.5801933    0.4272029  16.79  0.002713331    1.734    0.423
        61 -13.4854     46.4435    119.4330   1.1727144398e+02   4.5902205736e+01    0.3838764     0.222611 -67.71  0.002134833    1.495    0.331
        62 -14.4348    223.8108    113.7501   7.4625878099e+01   1.3503403997e+01     1.447472     0.700799  39.01  0.006012223    2.180    0.541
        63 -15.4235    197.2531    115.6570   7.9866037331e+01   1.9060895035e+01     1.760625    0.6230054  53.87  0.005927511    3.043    0.671
        64 -13.5410     66.5747    117.2335   1.1151757743e+02   4.3997375768e+01    0.5546405    0.4137411  30.35  0.003224482    1.583    0.368
        65 -13.3119     73.9189    114.8794   1.0911142247e+02   4.3532374814e+01    0.6815637    0.2486383 -51.46  0.002717938    2.684    0.627
        66 -13.5605     91.1007    136.5675   1.0841066703e+02   3.6208354588e+01    0.3282314    0.2723257 -78.16  0.001912135    1.150    0.131
        67 -12.6869    156.9624    118.0098   8.8810724775e+01   2.7605881869e+01    0.4046978    0.2212237  48.32   0.00171673    1.767    0.434
        68 -14.0584     54.4648    115.5477   1.1454232570e+02   4.5876444826e+01    0.3988686    0.3293887  64.03  0.002561575    1.199    0.166
        69 -12.8660    187.6322    246.3476   1.0472250016e+02   2.4810758617e+00    0.2184448    0.1517877  29.46   0.00159675    1.209    0.173
        70 -12.8740    139.1085    103.1154   8.9317657094e+01   3.4383707730e+01    0.5501236    0.3498638  10.54  0.001959256    3.271    0.694
        71 -15.2807    141.9824     85.7022   8.3897182408e+01   3.7184608793e+01      1.86521    0.8825642 -49.52   0.00691706    2.348    0.574
        72 -14.6838     97.6233    101.0333   9.9678348036e+01   4.2924157678e+01     1.228168     0.610957 -53.59  0.005293597    1.937    0.484
        73 -15.3055     84.5728     92.2326   1.0135210842e+02   4.7030838049e+01     1.478974     1.095438  83.53  0.007606066    1.682    0.405
        74 -14.3701    155.7377     81.3405   7.9383059179e+01   3.4796723260e+01     1.449098    0.7159503  59.91  0.005325753    2.371    0.578
        75 -15.7596    189.2606    125.3171   8.3719720830e+01   1.9223431281e+01     1.893208     1.337593  56.45   0.00929103    1.503    0.335
        76 -13.3301    131.2167    108.0514   9.2495332950e+01   3.5040625600e+01    0.4737723    0.4537781  55.83  0.002546646    1.031    0.030
        77 -12.7280    105.8025     94.3516   9.5769032016e+01   4.2915280017e+01    0.4775299    0.2266903 -54.73  0.001908548    2.176    0.541
        78 -15.2134     65.0742     91.0194   1.0697321568e+02   5.0130464951e+01     0.880922    0.5974809  75.19  0.004520274    1.880    0.468
        79 -12.2371    197.8070     94.3978   7.4362747868e+01   2.2412995002e+01    0.2243649     0.132782  42.73 0.0009575425    1.712    0.416
        80 -13.0239    182.7367     86.5817   7.5135599030e+01   2.7334894870e+01     0.578396    0.3261074  51.61   0.00241563    1.746    0.427
        81 -13.9146    126.3539     84.8976   8.7631364838e+01   4.0789502716e+01    0.8716052    0.6083725  38.32  0.004100547    1.517    0.341
        82 -14.4858    182.1584    104.8448   8.0139528985e+01   2.4332297122e+01    0.7379386    0.5819089  27.57  0.003671933    1.351    0.260
        83 -14.2076     60.8039    107.6845   1.1148317368e+02   4.6892713236e+01    0.5004964     0.353456   8.30  0.002661817    2.178    0.541
        84 -13.0753    120.9046     76.4393   8.6610101917e+01   4.3644123948e+01    0.6201698    0.2812887 -39.49  0.002353271    2.228    0.551
