#   1 NUMBER                 Running object number                                     
#   2 MAG_AUTO               Kron-like elliptical aperture magnitude                    [mag]
#   3 X_IMAGE                Object position along x                                    [pixel]
#   4 Y_IMAGE                Object position along y                                    [pixel]
#   5 X_WORLD                Barycenter position along world x axis                     [deg]
#   6 Y_WORLD                Barycenter position along world y axis                     [deg]
#   7 A_WORLD                Profile RMS along major axis (world units)                 [deg]
#   8 B_WORLD                Profile RMS along minor axis (world units)                 [deg]
#   9 THETA_WORLD            Position angle (CCW/world-x)                               [deg]
#  10 FWHM_WORLD             FWHM assuming a gaussian core                              [deg]
#  11 ELONGATION             A_IMAGE/B_IMAGE                                           
#  12 ELLIPTICITY            1 - B_IMAGE/A_IMAGE                                       
         1 -14.4821    159.7335     54.0805   7.8619660844e+01   3.8203039454e+01     1.624297     1.278554  38.10  0.005043318    1.341    0.254
         2 -14.4511    172.5271     38.7882   7.1982037699e+01   3.7143637502e+01     1.018575    0.9283668  44.77  0.003757517    1.182    0.154
         3 -14.0633    188.0757      9.8507   6.2253650578e+01   3.6636492256e+01     0.955972    0.5571433  87.95  0.003259443    1.696    0.410
         4 -14.0682    191.0959      3.7189   6.0428383400e+01   3.6513980117e+01    0.9781833    0.6091673  83.27  0.005038266    1.406    0.289
         5 -12.3329    216.8484      2.2185   5.7507737311e+01   3.0595283682e+01    0.4682589    0.1218851  73.99  0.001710117    3.480    0.713
         6  -9.0832     32.8890    206.5172   1.4271370433e+02   2.7891770642e+01    0.1776448    0.1209277  23.73  0.001041038    2.162    0.537
         7 -10.4829    150.5082    250.5847   1.2420281306e+02   1.0749977148e+00    0.2527139    0.1057616  41.80 5.479405e-05    1.959    0.490
         8 -18.7960     71.0576    238.2294   1.3826479331e+02   1.6290910995e+01     8.370562     6.281876 -88.10   0.04394166    1.240    0.194
         9 -11.0221    169.9540    183.3116   1.0876442683e+02   1.0112857669e+01    0.2253605    0.1863103  41.05  0.001150484    1.150    0.131
        10 -10.9228    163.7381    202.9804   1.1389219947e+02   7.3644779389e+00    0.2808572    0.1982636  51.08 0.0007502856    1.382    0.277
        11 -10.7717     26.8343    179.9536   1.4146364940e+02   3.4454983096e+01    0.1615438     0.140971 -70.03 0.0006069142    1.255    0.203
        12 -10.2558     17.6163    180.7169   1.4350689986e+02   3.5189243682e+01    0.1128728   0.08262742 -47.12 0.0007008676    1.732    0.423
        13 -11.3829    207.1285    178.0478   9.9728810344e+01   3.5958768264e+00    0.5093505    0.2863121  27.53  0.002088042    2.200    0.545
        14 -10.6385    203.5224    175.0166   9.9828796361e+01   4.8966271435e+00    0.3643501    0.2030569 -56.32   0.00144115    2.435    0.589
        15 -10.9241    203.4996    170.5677   9.8886854531e+01   5.7613497817e+00    0.5189564    0.2592771  35.34  0.002037038    2.207    0.547
        16 -11.1852     34.7552    178.0184   1.3952089365e+02   3.4061337491e+01    0.2885874    0.1855666  17.83  0.000382189    2.350    0.575
        17 -12.7419    195.4701    168.9816   1.0021786764e+02   7.7323139515e+00    0.5072206      0.45614 -58.70 0.0005325927    1.223    0.183
        18 -11.3769    164.1239    170.2623   1.0740317616e+02   1.4087022383e+01    0.3060789    0.2113502 -78.08  0.001252765    2.190    0.543
        19 -19.1507     50.6691     98.8234   1.2236470776e+02   5.0794387285e+01     17.19666    0.9321465 -56.75   0.02648431   16.728    0.940
        20 -11.9580    230.1878    166.8882   9.2862825398e+01   1.1563109759e+00    0.3123471    0.1880266 -48.83  0.001433495    1.803    0.445
        21 -11.3338    121.9550    165.0457   1.1643894747e+02   2.3906828735e+01    0.2833335    0.2308007  66.68 0.0003039638    1.275    0.215
        22 -10.6300    118.7072    162.6989   1.1678446513e+02   2.5083707545e+01    0.2199361     0.194379 -70.66 0.0002993925    1.124    0.111
        23 -11.5976    192.6181    163.7875   9.9693601783e+01   9.3758804648e+00     0.420972    0.3422064  21.56  0.001554568    1.340    0.254
        24 -10.1975     25.6232    165.4842   1.4020433537e+02   3.7893120226e+01    0.2158603     0.123665  30.10  0.001191362    2.106    0.525
        25 -10.5437    141.3962    164.2367   1.1149997142e+02   2.0193074333e+01    0.2091242    0.1481212 -62.43 0.0003202892    1.552    0.356
        26 -13.0838    154.0799    187.5295   1.1317139121e+02   1.2456831361e+01     0.599277    0.2982066 -58.33  0.002281008    2.504    0.601
        27 -11.4838    113.5146    160.0927   1.1757683147e+02   2.6685262005e+01    0.3859568    0.2602225 -72.99  0.001089458    1.730    0.422
        28  -9.3282     23.3053    161.2640   1.4026977791e+02   3.9088778982e+01    0.1145435    0.0839788 -48.83 0.0002254757    1.526    0.345
        29 -10.7946    188.6084    158.3966   9.9360710928e+01   1.1336266592e+01    0.3070292    0.2213623   3.78  0.001063461    1.993    0.498
        30 -11.8448    207.3327    194.2034   1.0298398254e+02   5.6801183242e-01    0.2536972    0.2091287  -1.86 0.0007826872    1.260    0.206
        31 -10.1950    170.2869    158.6517   1.0348159540e+02   1.5268117938e+01    0.1579842    0.1245143 -86.49 0.0006631583    1.657    0.396
        32 -12.9663    133.9922    145.9662   1.0937112296e+02   2.5936588613e+01     1.403988     0.355463 -54.41   0.00322827    5.697    0.824
        33 -11.7077    174.3038    148.3742   1.0024318792e+02   1.6592301261e+01    0.4419649    0.3085584 -63.44  0.001532003    1.744    0.427
        34 -12.5591    144.4317    146.3955   1.0685739625e+02   2.3621538125e+01    0.5483943    0.3341314 -68.74  0.002056395    2.354    0.575
        35 -13.3665    157.3203    200.7522   1.1489944953e+02   9.0645865329e+00    0.8202531    0.5247183  84.22  0.003129624    3.072    0.674
        36 -12.8201    135.7214    127.2907   1.0451746606e+02   2.9847566815e+01      1.59427    0.2606367 -50.11  0.002925932    8.602    0.884
        37 -12.6781    104.0126    137.4888   1.1535156144e+02   3.3833045545e+01    0.3130468    0.2815765  37.21 0.0004989754    1.170    0.145
        38 -10.2396    168.1437    134.6913   9.8417060873e+01   2.0931961335e+01    0.2542469    0.1989244  70.29 0.0007448196    1.479    0.324
        39 -12.3613    106.0792    130.8034   1.1328139709e+02   3.5032681026e+01    0.4337056    0.3726029 -77.42  0.001192985    1.241    0.194
        40 -11.4630    107.6540    124.7353   1.1142032553e+02   3.6154349750e+01    0.3064905      0.25618 -33.67 0.0006105029    1.265    0.209
        41 -12.5912    119.1500    128.9853   1.0929690121e+02   3.2924508403e+01    0.5706144    0.4190047  15.48  0.001755793    1.831    0.454
        42 -12.0800    121.8259    123.8116   1.0731760538e+02   3.3569749373e+01    0.4209603      0.30972 -32.16  0.001921317    1.524    0.344
        43 -11.7757    160.4667    127.6611   9.8487843047e+01   2.4215760535e+01    0.4735493     0.328678 -61.49  0.001512384    1.678    0.404
        44 -11.9740    153.5021    194.5414   1.1461793552e+02   1.1094318800e+01    0.2877246    0.2013026  44.04  0.000837115    1.328    0.247
        45 -10.9392    113.4120    118.4183   1.0827207219e+02   3.6491026708e+01    0.2581983    0.2541176 -69.25 0.0001337649    1.017    0.017
        46 -11.0485    168.2746    113.2909   9.3038991702e+01   2.5429702868e+01    0.4087693    0.3043714  86.77   0.00130196    1.787    0.440
        47 -12.1206    135.0000    112.0739   1.0082104479e+02   3.3374673986e+01     0.531471    0.1700533 -46.28   0.00160358    3.165    0.684
        48 -11.4930    134.6796    105.6647   9.9194340680e+01   3.4817302108e+01    0.6098439    0.1831998 -42.45  0.001791973    3.398    0.706
        49 -11.0572    205.2563    110.4082   8.4667624189e+01   1.7217548974e+01    0.3540983    0.2811632  34.63  0.001013352    1.445    0.308
        50 -12.0293    175.1521    186.2357   1.0819768195e+02   8.4520234426e+00    0.5623232    0.2154314 -46.85  0.001987202    2.774    0.640
        51 -12.9058    165.1788    188.7006   1.1089388746e+02   9.9708814652e+00    0.5291792    0.3981437  14.63  0.002513325    1.665    0.399
        52 -10.4575    147.8249     80.1689   8.8761797696e+01   3.6804965773e+01    0.2105172    0.1812647  15.99 0.0005269219    1.318    0.242
        53 -13.1671    144.5476    188.5601   1.1554682368e+02   1.4139642794e+01    0.5278123    0.3704323  67.82  0.002304754    1.718    0.418
        54 -12.3760     38.0209    183.6295   1.3941073534e+02   3.2411048506e+01    0.2304847    0.1913037  87.97 0.0006308828    1.039    0.038
        55 -12.1909    167.4578    231.9663   1.1802976341e+02   1.2588900278e+00    0.3570221    0.2902089   2.33 0.0009128188    1.478    0.323
        56 -13.2046    176.4166     31.6969   6.9441442151e+01   3.7069104452e+01    0.4725752    0.3842361  44.55  0.001169924    1.319    0.242
        57 -10.8250     13.4945     59.4128   1.2574596155e+02   6.2235011523e+01    0.2188768     0.163185 -41.51 0.0006304162    1.043    0.041
        58 -10.8463    155.6284     38.1732   7.4817942959e+01   4.1406893583e+01    0.2415504    0.1773226  70.16 0.0005657438    1.310    0.236
        59 -11.0524    187.8388     31.2536   6.7626276801e+01   3.4293772327e+01    0.2421597    0.1764217  22.45 0.0009573118    2.011    0.503
        60 -10.3149    126.9094     27.1826   7.7307521160e+01   4.9564784642e+01    0.3289147    0.1729699  75.14  0.001305585    2.896    0.655
        61 -10.0923    227.9972    232.0069   1.0602825252e+02  -9.1866264616e+00    0.1657317    0.1582537  71.32 0.0004436971    1.557    0.358
        62 -11.6436     10.2070    215.4605   1.4767207266e+02   2.8411616912e+01    0.2092613   0.08384757 -52.12 0.0009352575    3.921    0.745
