#   1 NUMBER                 Running object number                                     
#   2 MAG_AUTO               Kron-like elliptical aperture magnitude                    [mag]
#   3 X_IMAGE                Object position along x                                    [pixel]
#   4 Y_IMAGE                Object position along y                                    [pixel]
#   5 X_WORLD                Barycenter position along world x axis                     [deg]
#   6 Y_WORLD                Barycenter position along world y axis                     [deg]
#   7 A_WORLD                Profile RMS along major axis (world units)                 [deg]
#   8 B_WORLD                Profile RMS along minor axis (world units)                 [deg]
#   9 THETA_WORLD            Position angle (CCW/world-x)                               [deg]
#  10 FWHM_WORLD             FWHM assuming a gaussian core                              [deg]
#  11 ELONGATION             A_IMAGE/B_IMAGE                                           
#  12 ELLIPTICITY            1 - B_IMAGE/A_IMAGE                                       
         1 -12.7174    195.3978     41.7715   4.3603274842e+01   3.1359300464e+01     1.279957    0.9610685  30.01  0.005341548    1.815    0.449
         2 -11.1690     40.3283     17.7846   7.4271319045e+01   6.7923668622e+01    0.3684393    0.1377691 -30.49  0.001653995    2.656    0.623
         3 -12.1844    223.0411     10.5660   3.3302604263e+01   2.8803204937e+01    0.8093671    0.6744425 -69.62  0.004710225    1.053    0.050
         4 -10.1499     40.3421      3.1866   6.6959372392e+01   6.9677598996e+01    0.2852282     0.133185 -19.26  0.001479196    2.209    0.547
         5 -10.2552     59.3374      2.8583   5.9205314195e+01   6.6545107663e+01    0.2079675    0.1572305  47.59  0.001339271    1.374    0.272
         6 -10.9597    111.3903    203.6378   9.9972068025e+01   1.6656844347e+01    0.3157814    0.2275891  48.11 0.0006218706    1.298    0.230
         7 -10.9423    139.7807    249.0247   1.0011087622e+02   3.5089262731e+00    0.4055956    0.2449027  40.66  0.002287419    1.387    0.279
         8 -11.0590    114.1776    196.2200   9.8192806935e+01   1.7811099014e+01    0.4158973    0.2374172 -41.55  0.001849535    2.094    0.522
         9 -11.1562    122.7117    199.5250   9.6720554504e+01   1.5665893732e+01    0.5192923    0.3344008 -79.73  0.001747733    2.251    0.556
        10 -11.5892     63.6437    197.8295   1.1028473218e+02   2.5035210006e+01    0.7209657    0.5189816 -53.24  0.004060534    1.542    0.352
        11 -12.0952     78.1842    167.2596   1.0256481201e+02   3.0285044712e+01     1.159092    0.6594145 -30.94  0.004497079    2.967    0.663
        12  -9.8385     87.2769    157.0352   9.8411230453e+01   3.1422442218e+01    0.2886859    0.2467055 -46.31 0.0004460444    1.212    0.175
        13 -12.1168     53.0099    194.4773   1.1236919347e+02   2.7160994660e+01    0.6655698    0.4897074 -49.34  0.001616035    1.600    0.375
        14 -12.6232     63.9054    182.3214   1.0834600892e+02   2.8625349847e+01    0.9104605    0.8347404   4.87  0.005388238    1.379    0.275
        15 -12.0734     75.6681    151.9554   1.0069553526e+02   3.4446249037e+01    0.6055152    0.4403976 -51.76 0.0007887413    1.340    0.254
        16 -13.8859     68.8569    144.1800   1.0124222965e+02   3.7366503588e+01     2.531241      1.38629 -86.81  0.003209124    2.871    0.652
        17  -9.3494    148.9917    191.5198   8.9287787877e+01   1.2767663983e+01    0.3009319    0.1877436 -69.64  0.001255985    2.467    0.595
        18  -8.4227    190.6579    190.3478   7.9975035554e+01   5.5523950220e+00    0.1355445    0.1147742  84.29 0.0007045037    1.796    0.443
        19 -10.0047    118.8212    191.2783   9.6297862798e+01   1.8119019593e+01     0.250441    0.1965411 -74.07  0.001304656    1.430    0.301
        20  -9.0903    115.0000    184.4657   9.6078759734e+01   2.0297861689e+01    0.3162306   0.08232769 -55.18 0.0009379201    3.960    0.748
        21  -8.4260     91.1424    183.1046   1.0172650619e+02   2.4514901291e+01    0.1956042    0.1568258  79.45 0.0005215924    1.302    0.232
        22  -9.7838     99.1979    180.9222   9.9383900581e+01   2.3749327655e+01    0.2913912    0.2045607  31.70 0.0007447271    1.495    0.331
        23  -9.9497     75.3553    248.0288   1.1285996854e+02   1.3017196424e+01    0.5391675    0.1680733 -58.81  0.002362935    3.463    0.711
        24 -12.0174     50.7713    171.7731   1.1028239832e+02   3.2827800995e+01    0.7693759    0.5127143 -36.72  0.001311865    2.000    0.500
        25  -9.1619    186.3028    173.9069   7.7587874641e+01   9.4515252250e+00    0.2678602    0.2519337  49.33  0.001216533    1.215    0.177
        26 -10.9532     41.1352    199.4822   1.1555696511e+02   2.7422850545e+01    0.6263753    0.3123357  31.60   0.00183747    2.142    0.533
        27 -10.6941     40.6544    194.2566   1.1517269065e+02   2.8669907389e+01    0.4939386    0.2513811  33.84  0.002258176    2.022    0.506
        28 -10.5335     58.2902    158.8251   1.0656058153e+02   3.5095697191e+01    0.4007406    0.1818733 -44.09  0.001564169    2.712    0.631
        29 -10.4394     93.8259    150.8428   9.5464781726e+01   3.1896035826e+01    0.5961412    0.4656529   6.71  0.002893835    1.659    0.397
        30 -10.4114    133.4705    142.4266   8.3036638292e+01   2.6622299549e+01    0.6658313    0.2491869 -56.99  0.001924481    3.689    0.729
        31  -9.7787    106.0488    136.9294   8.9162953582e+01   3.3188467039e+01    0.4647236    0.2915041 -27.19  0.001840659    2.236    0.553
        32  -9.8326    105.9838    131.0211   8.7837750967e+01   3.4630877228e+01    0.3588911    0.3423841 -53.04  0.001120308    1.014    0.013
        33 -10.5915     93.7120    136.5575   9.2582668289e+01   3.5443364465e+01    0.2906495    0.2542396 -34.52 0.0003662102    1.200    0.166
        34  -9.3803    193.6009    195.7964   8.0418509790e+01   4.0557295698e+00    0.1925798    0.1291588 -49.12 0.0009616285    1.723    0.419
        35 -10.3067    114.0228    128.6473   8.5015384378e+01   3.3687720841e+01    0.3143241    0.2747863  -5.65 0.0009248894    1.302    0.232
        36  -9.0238     82.8244    194.8543   1.0542265801e+02   2.3044201562e+01    0.1985665    0.1920763 -46.13  0.001206616    1.211    0.174
        37  -9.2898    101.0620    124.4954   8.7719144358e+01   3.7102591781e+01    0.2850163    0.2099824 -40.07 0.0006490397    1.367    0.269
        38  -8.8569    109.3222    118.0542   8.3737393221e+01   3.7094344723e+01    0.2174299    0.1923873 -47.03 0.0003177177    1.093    0.085
        39  -8.7369    231.0714    113.9722   5.5897053895e+01   1.2000416585e+01    0.2165329    0.1899692 -39.42 0.0007635418    1.003    0.003
        40  -8.6075    134.5973    112.1793   7.5244254009e+01   3.3256890726e+01    0.2333481    0.1462985 -33.58 0.0009507758    1.735    0.424
        41 -10.2448     57.4929    111.9682   9.8382184782e+01   4.6923899211e+01    0.2135303    0.1991872  19.58 0.0008721905    1.187    0.158
        42  -8.0564    205.6932    110.3339   5.9260093209e+01   1.7855851319e+01    0.1509236    0.1111666 -67.89 0.0007040453    1.669    0.401
        43 -11.0663    116.0108    108.4890   7.9317896280e+01   3.7975936148e+01    0.7094597    0.4419583  21.58  0.002778491    2.244    0.554
        44 -10.3303     71.9642    244.3147   1.1319339154e+02   1.4168598539e+01    0.4275305    0.2212822 -71.30  0.002331804    2.109    0.526
        45  -9.5544     88.9413    210.4639   1.0602665042e+02   1.8669034009e+01    0.2387436    0.1903084 -73.84  0.000572369    1.289    0.224
        46 -10.4788    104.0142    208.5262   1.0236014366e+02   1.6785951493e+01    0.2603185     0.186682 -43.65   0.00138134    1.637    0.389
        47 -11.3832    179.8233     54.6911   4.9323924083e+01   3.3271430113e+01    0.4314869    0.4192901  26.48 0.0008825167    1.162    0.140
        48  -8.3441     83.4833    244.4654   1.1092659729e+02   1.2578788679e+01    0.1223579      0.10092  55.36 0.0003619966    1.017    0.017
        49 -11.5593    200.7362     36.1718   4.1511650621e+01   3.0837655419e+01    0.5149803    0.4339703 -44.45  0.001136902    1.196    0.164
        50 -19.4618      9.0427    147.5535   1.1831529127e+02   4.2780492651e+01     19.74625     3.027716 -75.49   0.05049793    6.710    0.851
        51 -10.4118     95.5168    243.2036   1.0838229150e+02   1.1119915614e+01    0.2479417    0.1557726  40.56  0.001427865    1.356    0.262
        52  -9.6985     73.9780     12.9901   5.8941111969e+01   6.2820664355e+01    0.2595428    0.1796374  77.53  0.001307702    2.565    0.610
        53  -7.2732     77.2840    240.3031   1.1176767307e+02   1.4221392515e+01    0.1055863   0.09595515 -14.71 0.0002383134    1.557    0.358
