#   1 NUMBER                 Running object number                                     
#   2 MAG_AUTO               Kron-like elliptical aperture magnitude                    [mag]
#   3 X_IMAGE                Object position along x                                    [pixel]
#   4 Y_IMAGE                Object position along y                                    [pixel]
#   5 X_WORLD                Barycenter position along world x axis                     [deg]
#   6 Y_WORLD                Barycenter position along world y axis                     [deg]
#   7 A_WORLD                Profile RMS along major axis (world units)                 [deg]
#   8 B_WORLD                Profile RMS along minor axis (world units)                 [deg]
#   9 THETA_WORLD            Position angle (CCW/world-x)                               [deg]
#  10 FWHM_WORLD             FWHM assuming a gaussian core                              [deg]
#  11 ELONGATION             A_IMAGE/B_IMAGE                                           
#  12 ELLIPTICITY            1 - B_IMAGE/A_IMAGE                                       
         1 -14.0793    208.6773     69.4401   8.3975016909e+01   2.3830893895e+01     2.471351     2.034025  32.73   0.01070585    1.263    0.208
         2 -13.4983    179.2744     29.4011   7.6468939473e+01   3.6318984529e+01     1.217969     1.049977 -16.15  0.006577401    1.185    0.156
         3 -13.2852    185.7982     17.3076   7.1709029608e+01   3.5964002581e+01    0.8777381    0.7327568   9.86  0.001388093    1.331    0.248
         4 -12.5542     30.2900      3.5556   1.1017914578e+02   7.3198853124e+01     1.212969    0.5589617  25.60   0.00572048    2.616    0.618
         5 -13.4859      5.0913     26.7624   1.3558840527e+02   7.0663189465e+01     1.528373    0.6854988 -50.45  0.006528635    1.734    0.423
         6 -13.0855      9.1095      6.8392   1.2603581872e+02   7.4658485869e+01     1.231367    0.8980474  -3.73   0.00691934    1.481    0.325
         7 -10.3777    250.0808      9.2040   6.3630786579e+01   2.1310065198e+01    0.4809308    0.1832713 -28.44  0.002171836    2.143    0.533
         8 -12.0292    245.0861      3.7848   6.2614665576e+01   2.2889193422e+01    0.8449076    0.5443025  63.34  0.002798859    1.691    0.409
         9 -11.5324    230.4408      1.9140   6.3102664663e+01   2.6362489287e+01    0.6880096    0.3301842  77.95  0.003230828    2.186    0.543
        10 -11.6531    222.3969      2.0661   6.3714498722e+01   2.8240543401e+01     0.620176    0.3549559  89.13  0.002506568    1.877    0.467
        11 -11.8292    140.9761      4.3584   7.3360086273e+01   4.9191439334e+01     1.072031     0.539861  74.11  0.004402351    2.067    0.516
        12  -8.5358    137.0414     44.9493   8.9681410285e+01   4.5125400368e+01    0.1756416    0.1718913   1.80            0    1.011    0.011
        13 -12.7910    150.1298    247.5011   1.2842172297e+02   8.9139254821e+00     2.140974    0.5182309  32.17  0.006781999    6.466    0.845
        14 -12.5584    180.3326    246.0245   1.2319139723e+02   5.0185934783e+00    0.5456238    0.2833597  37.28  0.003624453    1.394    0.283
        15 -12.7241    192.8927    242.9182   1.2075641048e+02   3.6512473166e+00    0.7130045     0.215953  33.02  0.003392095    2.784    0.641
        16 -15.0789     29.7964    182.5978   1.4596269545e+02   3.4125905186e+01     4.935191     2.056229  71.33    0.0169071    2.453    0.592
        17 -15.8713     81.0360    221.7969   1.3847081953e+02   2.1518871721e+01     5.572294     1.290109  44.14    0.0163667    2.939    0.660
        18 -15.1552     24.4741    242.4204   1.4962880198e+02   2.4499658644e+01     1.744979    0.7775056  23.88   0.00996622    3.314    0.698
        19 -15.9843     40.8017    240.4411   1.4681029534e+02   2.3188800976e+01     2.651454     1.417796 -63.39   0.01846481    2.438    0.590
        20  -8.5580    102.6921    186.2370   1.3068279949e+02   2.4561908375e+01    0.1204871   0.07745191  56.94 0.0002435498    1.491    0.329
        21 -11.3039     86.6375    184.6104   1.3393612767e+02   2.7110423967e+01    0.3052253    0.3004772  53.12   0.00169176    1.255    0.203
        22 -11.1247     89.8038    179.0085   1.3262493425e+02   2.7709035544e+01    0.2642124    0.2312018 -36.15 0.0006175631    1.499    0.333
        23 -11.3170    100.3938    161.1925   1.2794352098e+02   2.9566537184e+01    0.4862791    0.3382869 -35.99  0.002654387    1.945    0.486
        24  -8.8844    130.0618    206.7037   1.2756306425e+02   1.7182006463e+01    0.1621094    0.1243358  39.26 0.0004245187    1.048    0.046
        25  -9.5038     89.7884    203.3245   1.3517531527e+02   2.3400115059e+01    0.3389624    0.1097933  47.78  0.001536181    2.602    0.616
        26 -12.7635    235.9749    141.2168   9.6813333114e+01   8.6778049962e+00    0.8502384    0.6055841   4.95  0.005061199    1.324    0.245
        27  -9.7295    133.2205    143.3839   1.1731275448e+02   2.7514710467e+01    0.5964988    0.1867712 -57.67  0.001506854    7.154    0.860
        28  -9.9157    110.4807    144.0338   1.2284550406e+02   3.1361972133e+01    0.4543028    0.2206077 -39.41  0.001866083    2.839    0.648
        29 -11.4513     99.2051    145.0207   1.2578390844e+02   3.2994944368e+01    0.2507757    0.2242343  45.08 0.0003751518    1.085    0.078
        30 -13.7190     83.8253    163.6384   1.3214462393e+02   3.1505730178e+01     1.783072    0.6960863  46.75  0.007298763    2.297    0.565
        31 -14.1910     68.1457    144.7590   1.3358686657e+02   3.7535061324e+01     2.708529     1.522644 -66.72   0.00906728    1.771    0.435
        32  -9.2378    135.4458    135.9272   1.1534250518e+02   2.8522396341e+01    0.2025996    0.1733788  41.40 3.520217e-05    1.089    0.082
        33 -11.6610    221.8519    129.2431   9.6548157515e+01   1.2767720225e+01    0.7915761    0.3827154 -17.49  0.003362054    2.520    0.603
        34  -9.4860    116.6926    133.4525   1.1938773753e+02   3.2433126797e+01    0.2527191    0.2195892 -24.05 0.0007055214    1.352    0.260
        35 -11.4901     44.9534    130.7952   1.3800488419e+02   4.3367559408e+01     0.345256    0.2021498  56.25  0.001877454    1.658    0.397
        36 -10.0915    104.7134    130.1119   1.2179207856e+02   3.5199368488e+01    0.2445689    0.2230336 -35.28 0.0006135703    1.235    0.190
        37 -12.6819     14.8549    228.1389   1.5078113140e+02   2.7586619544e+01     1.251887    0.4256599  40.76  0.003267986    1.985    0.496
        38  -9.0592    111.4690    121.8658   1.1840762007e+02   3.5756192933e+01    0.2040179    0.1801306  47.06 0.0005236979    1.089    0.082
        39  -8.4923    132.2424    120.9856   1.1295927698e+02   3.2039976586e+01    0.1705655    0.1220061 -46.89 0.0002130712    1.464    0.317
        40 -10.4599    245.4245    115.1439   8.9782266010e+01   1.0213516374e+01    0.2192538     0.190708  16.05 0.0002311005    1.122    0.109
        41 -13.6116     67.2120    245.4217   1.4255038222e+02   1.9611978823e+01     1.025627    0.7109049  34.38  0.006307185    1.398    0.285
        42 -10.1842     32.2881    107.8379   1.3891127970e+02   4.9888589509e+01    0.2869704    0.1741683  -5.16  0.001405896    2.780    0.640
        43  -9.1652    121.4292    248.6313   1.3343940799e+02   1.2559460897e+01     0.138074    0.1037328 -70.67   0.00073865    1.862    0.463
        44 -10.5557    160.3967     59.8122   8.9628825414e+01   3.6953691884e+01    0.3779287    0.2437002 -44.80 0.0008532175    1.620    0.383
        45 -12.0745      9.0284     54.0701   1.3951754518e+02   6.4242069049e+01    0.4184393     0.281307 -26.78   0.00254084    1.716    0.417
        46 -12.0172      2.3875     48.4631   1.4156366353e+02   6.5863636917e+01    0.7143862    0.2384692 -79.33  0.002989819    2.843    0.648
        47 -13.0083    240.9770     63.0660   7.7981351492e+01   1.7500696515e+01     1.317931     1.040391  64.96  0.007111704    1.456    0.313
        48 -10.5016    197.2013     53.9609   8.1353921228e+01   2.8657212563e+01    0.2423328    0.2103221  59.19 0.0003893655    1.196    0.164
        49 -12.9158    169.4046     38.2449   8.0919092640e+01   3.7783151286e+01    0.9945974    0.6104534 -18.51  0.002622015    1.758    0.431
        50 -11.0705     91.6972    248.2102   1.3852355464e+02   1.6349060864e+01    0.2030224    0.1479483  54.83 0.0003732056    1.151    0.131
        51 -10.6109    192.4415    194.5925   1.1411081368e+02   9.2102927805e+00    0.6306925    0.3538775 -59.69  0.002499675    5.468    0.817
        52  -9.8245    205.5059     40.4540   7.6264664044e+01   2.8342665528e+01    0.2419418    0.2307301 -22.09 0.0005775327    1.024    0.024
        53 -10.4628    187.5173     37.4591   7.7826847822e+01   3.3212860787e+01    0.2703204    0.2377523  29.06   0.00146485    1.201    0.168
        54 -12.6827    165.5417    249.4431   1.2602998812e+02   6.6340681391e+00     1.630612    0.2003703  36.88  0.004573391    7.838    0.872
        55 -10.3023    106.2479    242.4575   1.3555315932e+02   1.5319023606e+01    0.1878306    0.1367968  54.33 0.0002854466    1.202    0.168
        56 -10.1316    190.8866    188.4672   1.1340914707e+02   1.0245559364e+01    0.2320397    0.1832809  -6.42 -3.290366e-05    1.308    0.236
        57  -9.5089    199.4187     34.5490   7.5314777578e+01   3.0555275826e+01    0.2335627    0.2231367 -12.79 0.0002942967    1.054    0.051
        58  -8.8907    213.9885     32.5318   7.2972558023e+01   2.7203279101e+01    0.1956531    0.1341084  62.55 0.0005433605    1.513    0.339
        59  -9.6716    207.3505     26.1729   7.1895170065e+01   2.9531094474e+01    0.2500579     0.200082  32.33 0.0005889558    1.396    0.283
        60 -10.3236    145.9460     20.7841   7.8871601948e+01   4.6136743002e+01    0.2367995    0.2062809 -27.13 0.0002696812    1.166    0.142
        61  -8.8994      3.5973    230.1311   1.5274384780e+02   2.8254234824e+01    0.1486145    0.1138102  18.18 0.0009215758    1.926    0.481
        62  -8.3904     22.6503    215.7491   1.4896300830e+02   2.8886742656e+01   0.08122899   0.07582763  20.26 0.0002483274    1.590    0.371
        63  -9.2211    166.9710    212.2619   1.2131120519e+02   1.0871490436e+01    0.1764919    0.1485988  61.55 0.0006372793    1.537    0.349
        64 -10.0069     21.5199    209.6486   1.4892496097e+02   3.0023233658e+01    0.2024439    0.1175177  60.03 0.0002053512    1.283    0.221
        65 -13.0896     11.3524    206.9527   1.5071019703e+02   3.1399369769e+01    0.5106819    0.3028401  28.25  0.002518457    1.861    0.463
