#   1 NUMBER                 Running object number                                     
#   2 MAG_AUTO               Kron-like elliptical aperture magnitude                    [mag]
#   3 X_IMAGE                Object position along x                                    [pixel]
#   4 Y_IMAGE                Object position along y                                    [pixel]
#   5 X_WORLD                Barycenter position along world x axis                     [deg]
#   6 Y_WORLD                Barycenter position along world y axis                     [deg]
#   7 A_WORLD                Profile RMS along major axis (world units)                 [deg]
#   8 B_WORLD                Profile RMS along minor axis (world units)                 [deg]
#   9 THETA_WORLD            Position angle (CCW/world-x)                               [deg]
#  10 FWHM_WORLD             FWHM assuming a gaussian core                              [deg]
#  11 ELONGATION             A_IMAGE/B_IMAGE                                           
#  12 ELLIPTICITY            1 - B_IMAGE/A_IMAGE                                       
         1 -11.0784    201.1527     38.2144   6.1571690162e+01   2.9872458128e+01     1.320998    0.5431767  -7.77  0.003542061    5.596    0.821
         2 -10.8055    220.5105     15.4465   5.2965433829e+01   2.7594243009e+01     1.040739    0.5105796  75.41  0.004703048    2.117    0.528
         3 -10.0051    240.0193      2.3409   4.8041070837e+01   2.4298584990e+01    0.3631549    0.2326493 -60.22  0.001018112    1.498    0.332
         4  -9.9680    231.7870      2.7802   4.8743925472e+01   2.6134250775e+01     0.363235     0.202721 -73.92 0.0009307425    1.962    0.490
         5 -11.3221    224.9814     22.8487   5.4488272765e+01   2.5768064596e+01    0.9214329     0.492045  65.09  0.004418531    1.867    0.464
         6 -10.7275    250.0488     19.3176   5.1358077631e+01   2.0447366570e+01    0.6749198    0.2088839 -24.71  0.002626237    3.037    0.671
         7 -11.0140    246.2838     13.4120   5.0242703807e+01   2.1859102475e+01    0.9056265    0.2131583  63.62  0.003362426    3.757    0.734
         8 -11.2514    248.8835      5.5988   4.8202160422e+01   2.2040548195e+01    0.6863962    0.3522502 -21.23  0.003486979    1.982    0.495
         9 -10.4445    233.0866     10.6837   5.0620729994e+01   2.5096400090e+01    0.4034693     0.268675  17.89 0.0007240148    2.060    0.515
        10 -10.7921    238.0014      8.0953   4.9588656975e+01   2.4220033075e+01    0.5752712    0.2907243 -55.32   0.00278395    1.998    0.499
        11 -10.9127    244.2199     22.2669   5.2554274545e+01   2.1418760187e+01     0.466711    0.3551481   4.74  0.002699196    1.602    0.376
        12 -11.4943    239.2675     17.5589   5.1819968912e+01   2.3007678088e+01    0.5996168    0.4979974  89.07  0.003737157    1.226    0.184
        13  -9.8563    174.2074     26.9434   6.2073819553e+01   3.8149164310e+01    0.3826938    0.1636755 -35.41  0.001440689    2.298    0.565
        14 -11.6351    248.7393     32.2546   5.4583165731e+01   1.9363782070e+01     0.920267    0.4502048 -40.26   0.00447274    1.796    0.443
        15 -10.1573    198.1614     10.1716   5.3760361568e+01   3.3649926344e+01    0.7801393    0.3836006  17.15  0.002790718    3.665    0.727
        16  -9.9814    199.7539     15.1890   5.5042918283e+01   3.2760480452e+01     0.290513    0.2526867 -89.46 0.0008608947    1.135    0.119
        17  -9.2860    201.7408     11.9818   5.3900200684e+01   3.2569295463e+01    0.2310651    0.2172829  -1.62 0.0007751203    1.153    0.132
        18  -8.8768    172.9799     14.5074   5.8198245873e+01   3.9790085629e+01    0.2199453    0.1327226  64.62 0.0008125123    1.541    0.351
        19 -10.2501     67.8571     11.3361   8.2715778797e+01   6.5509957648e+01    0.4346742    0.2510832  -5.37  0.002011985    2.069    0.517
        20  -9.0487     58.3974     12.2194   8.7234999310e+01   6.7050271694e+01    0.1780719    0.1143856 -37.76 0.0006999234    1.633    0.388
        21 -10.6826    213.0589      8.4983   5.1799040463e+01   3.0076728079e+01    0.4939085    0.3609933 -19.32  0.002733934    1.443    0.307
        22  -9.4447    192.8819     11.1338   5.4626833962e+01   3.4911862300e+01    0.2087604    0.1781899 -68.84 0.0003864583    1.185    0.156
        23  -9.6292    187.0564     10.1139   5.4993769546e+01   3.6515625364e+01    0.3874435    0.2351486 -55.26  0.001808334    1.822    0.451
        24 -10.5782    154.9971      8.9934   5.8986089437e+01   4.5084241268e+01    0.5785018    0.2256657 -28.32  0.002230432    2.542    0.607
        25  -9.1809     84.4760     10.4479   7.6083512162e+01   6.2320785707e+01    0.2669953    0.1297754 -24.12   0.00110658    2.049    0.512
        26 -10.0440    223.4159      6.2468   5.0287394279e+01   2.7781272937e+01    0.4602309    0.2300895  58.80  0.001666574    1.984    0.496
        27  -9.1101    220.4985      3.0050   4.9684194215e+01   2.8772906068e+01    0.3204473    0.1269139 -21.08  0.001075262    2.617    0.618
        28  -9.4713    206.4125      7.0213   5.2022109402e+01   3.1859743607e+01    0.2766203    0.1283446 -22.47  0.001102391    2.204    0.546
        29  -9.6846    116.5950      6.7482   6.5374886671e+01   5.5251783601e+01    0.1872901     0.129566 -30.56 0.0004552563    1.561    0.359
        30  -9.1913    102.8468      7.3391   6.9041792832e+01   5.8534249967e+01    0.1963887    0.1814564 -10.97  0.001157904    1.171    0.146
        31  -9.6116    171.3524      5.6488   5.5518015407e+01   4.1042547137e+01    0.2219731    0.1528799 -60.68 0.0008046824    1.633    0.388
        32  -9.4299    111.1279      5.6245   6.6160507019e+01   5.6707877896e+01    0.1881163     0.176962 -20.31 0.0005228692    1.193    0.161
        33  -9.0341     60.4147      5.2509   8.2552242057e+01   6.7653808232e+01    0.1740482    0.1140717 -32.41 0.0007570909    1.567    0.362
        34  -9.0750    183.2709      2.3975   5.3059085375e+01   3.8188134779e+01    0.2450696    0.1416252 -43.40  0.001151583    1.785    0.440
        35 -10.2343     63.8521      2.2719   7.9424269828e+01   6.7393288460e+01    0.2580032    0.2184148  15.30 0.0007610581    1.080    0.074
        36  -8.7761    194.6486      2.3243   5.1837378781e+01   3.5252727213e+01    0.1495511   0.09206832 -60.73 0.0007048129    1.756    0.431
        37  -9.3072    190.1547      2.1667   5.2249739666e+01   3.6421161873e+01    0.2099013    0.1780566  45.63 0.0008484549    1.215    0.177
        38  -8.8762     86.1454    208.7227   1.2494150427e+02   2.2209081956e+01    0.2065403   0.09577291  62.32 0.0009512827    2.780    0.640
        39  -8.7915    209.4792    250.4643   1.0658267506e+02  -1.3934539717e+00    0.1141658   0.07761234  22.38 0.0008086525    1.054    0.051
        40  -9.6725    235.7048    204.2110   9.4927386746e+01  -1.7812734211e-01    0.1926327    0.1633859  10.21 0.0008336038    1.279    0.218
        41  -9.0111    187.6023    203.7817   1.0366587046e+02   7.4427739324e+00     0.151385    0.1211913 -46.78  0.000835014    1.713    0.416
        42  -9.4722    193.7646    202.9902   1.0235167925e+02   6.5479878188e+00     0.173462    0.1519273 -88.64  0.001070231    2.026    0.506
        43  -9.0638     64.5328    203.4921   1.2888112163e+02   2.5868361390e+01    0.1134869   0.09404724  58.67 0.0006783028    1.036    0.035
        44  -9.8287    249.8507    200.8016   9.1940023311e+01  -1.8787820921e+00     0.394529     0.154495 -25.21  0.001863901    2.567    0.610
        45 -10.6140    248.0090    193.9805   9.1024336081e+01  -8.5753568316e-01    0.3602212    0.2840206  46.77  0.002324261    1.889    0.471
        46  -8.9969     16.1906    201.7747   1.3831490515e+02   3.1158751671e+01    0.1261539    0.1124205 -86.59 0.0006866631    1.329    0.248
        47  -9.3744    241.2996    200.0951   9.3249506965e+01  -5.4736086975e-01    0.3034165    0.1683569  23.42  0.001300219    1.532    0.347
        48 -10.1758    231.0896    194.6643   9.4044877280e+01   1.6380761917e+00    0.2834947    0.1940068 -12.06  0.001236686    1.375    0.273
        49  -9.3250    164.8401    201.2876   1.0777190328e+02   1.1540324829e+01    0.2093618    0.1435242  46.98  0.001197723    1.441    0.306
        50  -8.6667    203.5094    197.9707   9.9654406967e+01   5.6324405690e+00    0.1699136    0.0973499  -4.95 0.0008073277    2.362    0.577
        51  -8.3653    173.2837    203.6684   1.0645238727e+02   9.7995570930e+00    0.1158338   0.09556987  60.49 0.0007008501    1.613    0.380
        52  -9.4495    184.5161    197.0387   1.0315758439e+02   8.9017315447e+00    0.1754988     0.125318 -32.38  0.001032804    1.591    0.371
        53 -11.2336    237.8472    190.7734   9.2162454810e+01   1.0522654067e+00    0.5692565    0.2849959 -33.50  0.002938417    2.159    0.537
        54  -8.6968    215.8946    192.2996   9.6349916853e+01   4.3541190351e+00    0.1967579   0.09552105  54.53 0.0006990421    4.552    0.780
        55  -8.9940    193.9810    188.4909   9.9823846765e+01   8.5309712705e+00    0.2007856    0.1113419  38.17  0.001020345    1.558    0.358
        56  -9.8856    249.6915    184.8358   8.9056998431e+01  -7.0328198907e-02    0.2742236    0.2093253 -33.25  0.001759505    1.695    0.410
        57  -9.9328    224.7714    184.6267   9.3327647292e+01   3.8907376905e+00    0.2825552    0.1961093 -32.86  0.000931807    1.637    0.389
        58 -10.5791    227.2131    179.6414   9.1946845198e+01   4.1293051947e+00    0.3906403    0.2679867  41.86  0.001928064    1.561    0.359
        59  -8.6326    218.2828    183.9334   9.4378027560e+01   5.0519228684e+00    0.1792444   0.09553718 -51.13 0.0007016367    4.113    0.757
        60  -9.0565    106.0004    184.4747   1.1790705586e+02   2.3872668929e+01    0.1939815   0.08681114  53.63 0.0005592008    2.571    0.611
        61 -10.9492    242.9431    179.6724   8.9210733083e+01   1.5830478706e+00    0.4689149    0.3183799   0.24  0.002832304    1.298    0.229
        62 -10.3785    157.3235    179.1422   1.0571481077e+02   1.6382903448e+01    0.3289886    0.2423018  -9.09  0.001229495    1.677    0.404
        63  -9.5072    236.0548    180.8292   9.0614382388e+01   2.5384322030e+00    0.2715293    0.1444768 -39.31  0.001371218    2.345    0.574
        64  -9.6218    219.4986    178.8420   9.3192315710e+01   5.5233316686e+00    0.2822066     0.161512  50.80  0.001294861    2.309    0.567
        65  -8.9116    152.2381    178.3788   1.0668579398e+02   1.7405345137e+01    0.1877119    0.1130245  45.10 0.0003810958    1.542    0.352
        66  -9.6969    198.0000    177.0138   9.6926870979e+01   9.4989720047e+00    0.2003256   0.07435381 -36.64 0.0007186399    2.918    0.657
        67 -10.3600    233.3488    174.5859   8.9882858119e+01   3.7639841775e+00    0.3196935    0.2198064 -30.90  0.001453415    1.566    0.362
        68  -9.9962    225.5105    172.4661   9.0861334328e+01   5.3538669862e+00    0.3418557    0.2391994 -16.70  0.001631827    1.358    0.264
        69  -8.6899    203.6473    174.6773   9.5379679275e+01   8.8423278901e+00    0.1442328   0.09108695  11.13 0.0007047527    1.755    0.430
        70  -9.2319    193.4614    173.5169   9.7158038042e+01   1.0828492601e+01    0.1382111    0.1141115  16.59 8.214919e-05    1.028    0.027
        71 -10.8332    212.4545    169.3008   9.2643602921e+01   8.0547094517e+00    0.4194543    0.2293711 -36.51  0.001691349    1.978    0.494
        72  -8.5697    183.7100    171.3137   9.8711626516e+01   1.2934001641e+01     0.123136    0.1095844  71.28 0.0003731594    1.589    0.371
        73  -9.2548    237.4868    170.0753   8.8274772060e+01   3.6549709436e+00    0.1844262    0.1141711 -25.91  0.001018102    1.558    0.358
        74  -9.2644    169.8895    169.3125   1.0123117553e+02   1.5788706209e+01    0.2226506     0.192324 -48.34  0.001112649    1.410    0.291
        75 -10.0769    147.2766    168.1367   1.0598772591e+02   2.0104059922e+01    0.2398028    0.2318957  76.56 0.0004971956    1.205    0.170
        76  -8.9877    249.3624    167.6380   8.5785155383e+01   2.0234699904e+00    0.1615593    0.1527576 -36.56  0.001081493    1.650    0.394
        77 -10.1886    193.0816    166.5132   9.5866381192e+01   1.1970041948e+01    0.2582846     0.228273 -12.06 0.0009799945    1.171    0.146
        78  -9.4266    234.2559    164.6286   8.7743494861e+01   4.9011111842e+00    0.2254317    0.1948587 -34.39   0.00100961    1.510    0.338
        79  -9.2851    240.6360    162.9236   8.6298042961e+01   4.0446525367e+00    0.2836304    0.1174972 -23.05  0.001210562    2.550    0.608
        80 -10.9248    246.5701    158.8038   8.4459779862e+01   3.5784815981e+00    0.5606745    0.2818113  35.17  0.002820678    1.879    0.468
        81  -8.7042     46.6956    162.3159   1.2910786138e+02   3.6095375566e+01    0.1270484   0.07698178  65.23 0.0003048418    1.623    0.384
        82  -8.5779     51.6695    159.3353   1.2761079831e+02   3.6199402833e+01    0.1329851   0.07886362  64.99 0.0007052135    1.730    0.422
        83  -9.9690    229.6568    147.9339   8.5059224743e+01   7.9691414700e+00     0.266456     0.203515 -33.68 0.0008174867    1.435    0.303
        84  -9.8254    234.8594    148.0651   8.4182034752e+01   7.0119900388e+00    0.2542231    0.2137595 -16.04  0.001554285    1.179    0.152
        85  -9.7226    226.8682    156.8558   8.7449275806e+01   7.2341109303e+00    0.3705667    0.2132425   9.66  0.001250567    2.147    0.534
        86  -9.6793    232.9331    152.6978   8.5503140805e+01   6.7249420160e+00     0.337153    0.2350044  -9.49  0.001351596    1.336    0.251
        87  -9.6187    229.4666    152.5358   8.6077106898e+01   7.3657174516e+00    0.2653741    0.1924644  -7.22 0.0007718037    1.271    0.213
        88  -8.8310     41.3605    157.7827   1.2995341376e+02   3.7616317360e+01    0.1642015   0.09689815 -64.90 0.0005794255    1.620    0.383
        89 -11.7458    243.8699    149.8455   8.3038983399e+01   5.1893925870e+00    0.8341233    0.3787358 -22.78  0.003499797    2.190    0.543
        90 -10.3990    249.8185    151.2626   8.2362373615e+01   3.9921025576e+00    0.4754803    0.2235337 -34.67  0.001971306    2.115    0.527
        91  -9.7168    250.2018    140.1858   7.9941712238e+01   5.3511044126e+00    0.2863012    0.1861236 -15.94 0.0009696734    1.378    0.274
        92 -10.6273    249.2268    135.2891   7.9029833147e+01   6.1617189584e+00    0.4011895    0.2395215 -32.91   0.00118815    1.613    0.380
        93 -10.4345    248.7765    130.6082   7.8067491185e+01   6.8593605655e+00    0.3403414     0.270942  79.69  0.001612544    2.270    0.559
        94  -9.8156    221.7029    153.2044   8.7613229587e+01   8.6785584278e+00    0.2796223    0.2208678 -49.12  0.001264881    1.782    0.439
        95  -8.9328    206.3859    152.8036   9.0407783785e+01   1.1589813437e+01    0.1909371    0.1226759 -18.14 0.0009377105    1.630    0.387
        96  -8.7708    118.5219    153.5062   1.1014438741e+02   2.8003406602e+01    0.1391217    0.1283734  49.29 8.052174e-07    1.040    0.038
        97 -10.6001    197.2689    149.7526   9.1549724781e+01   1.3810544116e+01    0.3061153     0.197042 -37.23  0.001515878    1.652    0.395
        98 -10.6785    224.1779    146.3914   8.5699840495e+01   9.1940098488e+00    0.3469638    0.2832682   6.58  0.001363006    1.052    0.049
        99 -10.4256    205.2265    148.0645   8.9611967245e+01   1.2536334545e+01    0.4952878     0.265552  18.87  0.001976425    2.583    0.613
       100  -8.1111    174.5285    148.4822   9.6030294590e+01   1.8478319515e+01    0.1449435    0.1303292  19.95 0.0008095959    1.026    0.025
       101  -9.2063    111.9305    147.6793   1.1074344078e+02   3.0332789998e+01    0.2030546    0.1711444  44.14 0.0006614947    1.122    0.109
       102  -8.9264     16.7668    147.0042   1.3500654052e+02   4.2120840669e+01    0.1510592   0.08142268 -79.80 0.0008438074    1.590    0.371
       103  -8.4434    186.7132    145.3517   9.2752140808e+01   1.6600060008e+01     0.133764    0.1176912 -79.73 0.0007022749    1.664    0.399
       104 -10.8544    230.4594    141.2191   8.3454581634e+01   8.7608071064e+00    0.3716435    0.2394447 -26.73  0.001024797    1.464    0.317
       105 -10.5365    224.9568    138.0979   8.3729649249e+01   1.0238902184e+01     0.498678    0.2102356 -28.72  0.002050254    2.339    0.572
       106  -9.0467      9.3431    141.6949   1.3644179983e+02   4.3810315256e+01    0.1215671   0.06724588  62.81 0.0007041458    1.686    0.407
       107 -10.2144    219.1104    138.6875   8.4915748888e+01   1.1272951535e+01    0.2931504    0.2515295  79.33  0.001402333    1.842    0.457
       108  -9.6806    209.6776    138.0092   8.6521747544e+01   1.3216887771e+01    0.2062509    0.1740443  -9.79  0.001162663    1.101    0.092
       109 -11.2392    241.6573    133.5350   7.9859508804e+01   7.7581951957e+00    0.5166751    0.4327829 -21.49  0.002359774    1.191    0.161
       110 -10.4387    233.3934    135.3021   8.1634044045e+01   9.0440259991e+00     0.313526    0.2459748   0.40  0.001804183    1.138    0.121
       111  -8.7035    234.1474    130.1750   8.0349779568e+01   9.6208051139e+00    0.2278853    0.1672154 -18.22 0.0008961274    1.235    0.190
       112  -9.4230     52.9177    135.8804   1.2452981256e+02   4.1270528461e+01    0.1899836    0.1642754 -43.37 0.0006025163    1.311    0.237
       113  -9.7075    169.8233    134.5322   9.3975812697e+01   2.1907487761e+01    0.2465472    0.2033098 -25.34 0.0005015697    1.238    0.192
       114  -9.5300    140.0451    135.0000   1.0110986565e+02   2.7825394851e+01    0.2446045   0.08029697  41.56 0.0004819653    2.890    0.654
       115 -10.4942    222.4497    130.0459   8.2346484646e+01   1.1897978878e+01    0.4941551    0.2822822  58.90  0.002132842    2.530    0.605
       116 -10.0871     86.6507    129.9039   1.1422950850e+02   3.8262504636e+01    0.3769559    0.2236242  85.24  0.001482558    2.974    0.664
       117  -9.2798     62.1650    129.5996   1.2107123326e+02   4.1642609658e+01    0.1649065    0.1276332  11.83 0.0002735581    1.607    0.378
       118 -10.2488    192.8328    127.9767   8.7510905223e+01   1.8253665192e+01    0.2639797     0.249282  41.51  0.001321667    1.207    0.172
       119  -9.4322    189.0630    123.1332   8.7120197293e+01   1.9863467886e+01    0.3837236    0.2462803 -33.56  0.001785704    1.564    0.361
       120 -10.1951    229.1186    125.5863   8.0150604083e+01   1.1240581447e+01    0.3639477    0.2549715   0.45  0.001882028    1.476    0.322
       121 -10.0259    206.2890    126.7933   8.4570528537e+01   1.5648533325e+01    0.2559944    0.2239745  14.67 0.0006550472    1.041    0.039
       122 -10.1947    212.4358    124.5247   8.2874157033e+01   1.4739147489e+01    0.4730992    0.3268643  -4.22  0.002314338    1.577    0.366
       123  -9.5312    200.3807    126.8911   8.5740647447e+01   1.6856176761e+01    0.2528988     0.203444  49.80  0.001328947    1.373    0.272
       124  -8.8255    113.9854    126.9670   1.0610590475e+02   3.4408937229e+01     0.172989    0.1674641  34.10 0.0003972554    1.008    0.008
       125 -10.9886    241.3715    124.4962   7.7867378389e+01   9.0444891984e+00    0.3852478    0.3629805 -63.68  0.002320213    1.484    0.326
       126 -11.6176    229.3668     94.2741   7.2548852030e+01   1.5690080648e+01    0.8522919    0.3798036  49.92  0.002208413    2.304    0.566
       127  -9.9927    236.4309     60.0804   6.2870415598e+01   1.8774534333e+01    0.9281651    0.3541318  64.76  0.003538875    3.100    0.677
       128  -9.5266    244.2685    119.6097   7.6288767755e+01   9.1660869766e+00    0.2774707    0.2309412 -70.13  0.001551026    1.888    0.470
       129 -10.3869    225.7563     86.7352   7.1205841573e+01   1.7538135685e+01     0.512722    0.3271699   6.24  0.002289728    2.051    0.513
       130 -10.7668    249.8298     67.0727   6.2964098239e+01   1.5020993685e+01      1.10669    0.2892143 -34.36  0.003953448    3.037    0.671
       131 -11.3681    236.8300     99.4680   7.2674653978e+01   1.3405120544e+01    0.6853462    0.4611444 -27.88  0.003570629    1.349    0.259
       132 -10.6304    241.7166    104.7043   7.3191784642e+01   1.1698095667e+01    0.5299408    0.2982656 -29.44  0.002350322    1.598    0.374
       133 -10.5985    237.1872     89.8203   7.0254034212e+01   1.4665289933e+01    0.4344926    0.3576646 -82.25  0.001737906    1.687    0.407
       134 -10.2171    231.9107     83.2410   6.9385032152e+01   1.6690481511e+01    0.5035006    0.3252845 -44.71  0.002471412    1.641    0.391
       135 -12.6013    247.3903    107.0964   7.2907212312e+01   1.0264482136e+01     1.643698    0.5472584 -28.24  0.006178105    2.763    0.638
       136 -12.2610    245.6616     81.4659   6.7009110356e+01   1.4031472560e+01     1.900008     0.559306 -40.00  0.006611629    3.280    0.695
       137 -11.2581    235.9203     73.7604   6.6414671450e+01   1.7107779542e+01     1.101488    0.4764958 -28.68  0.004582555    2.103    0.524
       138 -10.7116    242.7844     92.5177   7.0101238004e+01   1.3145147364e+01    0.4762014    0.2897882 -27.80  0.001728106    1.472    0.320
       139  -9.5188    161.4641    124.3429   9.3486865781e+01   2.5534767074e+01    0.2540481    0.2259178  41.13 0.0004766539    1.127    0.113
       140  -8.7322    177.3350    124.6675   8.9984822009e+01   2.2101034346e+01    0.1461386    0.1228829 -84.83 0.0007052205    1.734    0.423
       141  -9.5535    186.8087    128.7972   8.8950526734e+01   1.9378216658e+01    0.1938931    0.1839271 -75.75  0.001073875    1.357    0.263
       142  -9.8434    221.7256    121.1815   8.0401060962e+01   1.3353548583e+01    0.3018872    0.2427661   6.88  0.001164393    1.174    0.148
       143  -9.1097    124.9848    119.9835   1.0157644260e+02   3.3853636620e+01    0.2179716    0.2088933  41.27 0.0003359698    1.050    0.048
       144  -8.6006    114.6721    120.7043   1.0453738325e+02   3.5641822661e+01    0.1481284    0.1154236  -4.45 0.0003448621    1.630    0.387
       145 -11.1196    230.4188    116.0756   7.7698643722e+01   1.2351075205e+01    0.5226084    0.3773476  58.78  0.002583194    1.751    0.429
       146 -10.6790    235.3777    115.2505   7.6688704461e+01   1.1484106445e+01    0.5406216    0.2480067 -42.50  0.002223371    2.488    0.598
       147 -11.7311    213.3342    115.6690   8.0575966386e+01   1.5915392679e+01    0.6944119    0.4236997  12.42  0.002501708    2.196    0.545
       148 -10.7016    217.3237    115.3386   7.9777394044e+01   1.5132030683e+01    0.5557742    0.2153076  49.66  0.002097972    2.668    0.625
       149  -8.8104    203.7089    115.9267   8.2434725964e+01   1.7915704919e+01    0.2112328     0.174237 -20.60 0.0005557874    1.160    0.138
       150  -9.1298     52.1582    113.4097   1.2144876993e+02   4.6565491066e+01    0.2197642    0.1427583 -71.96 0.0007367599    1.460    0.315
       151 -10.0571    104.4599    111.8966   1.0538931186e+02   3.9414958506e+01    0.2659727    0.2096475  27.91 0.0004747779    1.328    0.247
       152  -9.6367     15.0475    111.9868   1.3243036521e+02   5.0100899191e+01    0.1809914    0.1495866 -85.21 0.0004572927    1.028    0.027
       153 -10.9280    215.4119    107.8644   7.8277176555e+01   1.6667923739e+01    0.3552985    0.2989974  86.31  0.001408383    1.705    0.413
       154  -9.5637    183.4846    107.9973   8.4474750849e+01   2.3671006373e+01    0.2330494    0.1463901 -33.76 0.0007857371    1.587    0.370
       155  -8.8806     73.5098    108.5060   1.1394953964e+02   4.5077910108e+01    0.1370593    0.1295142 -74.94 0.0008103095    1.037    0.035
       156 -10.0308    237.7553     84.1518   6.8765863441e+01   1.5319461127e+01    0.3816365    0.2766558 -61.24  0.001943348    1.836    0.455
       157  -8.7993    196.1506    103.3532   8.0702209208e+01   2.1603138389e+01    0.2056701    0.1419327  59.77 0.0006631177    1.713    0.416
       158  -8.0791    150.3205    103.3164   9.0794780411e+01   3.1968320178e+01    0.1608081    0.1191787   7.85 0.0007041153    1.660    0.397
       159 -10.0512    221.4378    100.6446   7.5431954876e+01   1.6459494292e+01    0.2632709    0.1944344 -42.52  0.001112523    1.456    0.313
       160 -10.1903    235.7557    107.9400   7.4889022717e+01   1.2437682765e+01    0.3428685    0.2080642  59.15  0.001472856    2.092    0.522
       161  -9.6006    216.8118     99.9719   7.6047513456e+01   1.7557365705e+01     0.219631    0.1506743  25.31  0.001048561    1.589    0.371
       162  -9.1456    167.7841    100.3758   8.5864068841e+01   2.8577666348e+01    0.2312199    0.1365687  38.24 0.0009557767    1.709    0.415
       163  -9.3568    196.2254     97.7894   7.9224052880e+01   2.2488244830e+01     0.241171    0.1613878 -69.26 0.0009422395    2.709    0.631
       164  -9.9509    130.3834     97.9404   9.4494961975e+01   3.7360402027e+01    0.2762727     0.218987  30.25 0.0005832448    1.275    0.216
       165  -8.5559    207.6702     95.2936   7.6443689585e+01   2.0288942669e+01    0.1428081    0.1169825 -67.48 0.0003528487    1.630    0.387
       166  -9.1268    201.3211     92.3448   7.6814934173e+01   2.2188428382e+01      0.15959    0.1107636  13.77  0.000675632    1.730    0.422
       167 -10.0591    218.7897     90.3917   7.3260379799e+01   1.8543383479e+01    0.2148951    0.1446888  52.97 0.0008949619    1.578    0.366
       168  -9.7031    216.3082     88.0192   7.3053655854e+01   1.9443791773e+01    0.4038642    0.2435748   4.65  0.001632276    2.418    0.586
       169  -9.4331    176.0415     87.0657   8.0341339812e+01   2.8977135093e+01    0.2448495    0.1930626 -71.36  0.001126341    1.746    0.427
       170  -8.7908    205.7948     83.5818   7.3657432976e+01   2.2502522223e+01    0.1935762    0.1460518  70.00 0.0006664775    1.625    0.385
       171  -8.6746    134.5986     83.4883   8.9177050646e+01   3.9319074167e+01    0.1530685    0.1476905  -8.83 0.0002615223    1.043    0.041
       172  -8.9624     88.1541     82.2138   1.0279384071e+02   4.8832430490e+01    0.1928725    0.1733269 -87.34 0.0005277694    1.332    0.249
       173  -8.7912    196.3344     79.6704   7.4264160305e+01   2.5323280089e+01    0.1536112    0.1173008 -65.36 0.0004592793    1.725    0.420
       174  -8.6961    194.5703     76.5043   7.3695345618e+01   2.6230709046e+01    0.2299431    0.1319686 -38.55 0.0001127031    1.733    0.423
       175  -9.5907    175.4183     77.3958   7.7667970625e+01   3.0737861558e+01    0.2672381    0.2468415 -49.09 0.0008619695    1.184    0.156
       176  -9.6476    119.1849     78.6013   9.1984733666e+01   4.3645733121e+01    0.2231977    0.1409486  33.08 0.0009502542    1.685    0.406
       177 -10.5845    214.8598     75.6978   7.0026242689e+01   2.1558946827e+01    0.4254682     0.256544  41.77  0.001941859    1.739    0.425
       178 -10.3299    226.3424     74.3462   6.7920564758e+01   1.9137401134e+01    0.4345897    0.3528921  20.29  0.001793078    1.310    0.237
       179  -9.1117    230.4712     71.9985   6.6720983398e+01   1.8536931858e+01    0.2145421    0.1285276 -27.84 0.0006540028    1.541    0.351
       180  -8.9741    126.4818     76.5053   8.9243199999e+01   4.2474612236e+01    0.1544983    0.1474386   4.00 0.0002013509    1.015    0.014
       181  -9.7510    227.0401     60.9533   6.4319084949e+01   2.0771396710e+01    0.3812324     0.147832 -39.98  0.001380502    2.446    0.591
       182 -11.1146    225.8829     66.5755   6.5955428237e+01   2.0292864996e+01    0.5397584    0.4316994  89.88  0.002395387    1.559    0.358
       183  -9.3139    221.1800     61.1799   6.5185509019e+01   2.2091009529e+01    0.3114781    0.1833999 -33.82 0.0008575028    1.578    0.366
       184  -8.6350    153.6722     66.3050   7.9010796746e+01   3.7915256637e+01    0.1550717    0.1248369 -73.87 0.0004601804    1.650    0.394
       185  -8.7746    197.9809     63.9897   6.9530899769e+01   2.7253990877e+01    0.1814318    0.1707755 -13.16 0.0005403174    1.029    0.028
       186 -10.0575    206.9684     60.3387   6.7047702450e+01   2.5576166076e+01    0.4224893    0.1739864 -39.52  0.001589704    2.365    0.577
       187  -8.5825    136.4375     62.5220   8.1981844897e+01   4.2741043886e+01    0.1535538    0.1479618   6.73    0.0002903    1.042    0.040
       188 -10.3624    171.6152     59.2362   7.2911747700e+01   3.4542760054e+01    0.3718571    0.2647128  46.40  0.001523617    1.369    0.270
       189 -11.4444    199.4201     47.2091   6.4441635582e+01   2.9183026753e+01    0.8534234    0.3221579 -15.98  0.002516516    4.223    0.763
       190 -10.8390    198.7010     55.3362   6.6915960890e+01   2.8284210315e+01    0.3220796    0.1948632 -38.73  0.001421785    1.631    0.387
       191 -10.6913    201.4784     53.4929   6.5948923007e+01   2.7845282035e+01    0.2543282    0.2233241  -8.94 0.0009706781    1.154    0.133
       192  -9.0829     43.8149     62.5883   1.1368204838e+02   5.9295271659e+01    0.1660957    0.1217273  39.08 0.0004320543    1.594    0.373
       193  -9.9084    213.9195     57.6020   6.5249105128e+01   2.4274928034e+01    0.4041509    0.2336826  50.72  0.001843316    1.752    0.429
       194  -9.9066    126.6265     58.3735   8.3171118176e+01   4.5770634031e+01     0.220796    0.1855235 -73.11 0.0007779282    1.571    0.364
       195  -9.8793    250.3056     54.8725   5.9933995365e+01   1.6423104787e+01    0.3194417    0.1656158 -27.56  0.001133586    1.723    0.420
       196 -10.1018    242.0247     34.0531   5.5666100081e+01   2.0636860383e+01    0.3395171     0.244599 -42.76  0.001280646    1.273    0.214
       197 -10.3626    238.5828     38.2790   5.7076658933e+01   2.0928140341e+01    0.3363107    0.2758732  65.02  0.001475216    1.300    0.231
       198 -10.4409    237.2206     53.6847   6.1143094450e+01   1.9399837908e+01    0.5925058    0.3186187  77.76  0.002579638    2.547    0.607
       199 -10.9448    228.8547     52.2725   6.1803487484e+01   2.1463781221e+01    0.5263934    0.4732139 -66.19  0.002448577    1.186    0.157
       200 -10.8109    244.5117     51.3942   5.9722386277e+01   1.8079482363e+01    0.4485345    0.3238126 -67.02  0.001605891    1.638    0.390
       201 -10.4862    249.8517     46.8797   5.8033574134e+01   1.7468315097e+01     0.698799    0.2124821 -28.46  0.002643808    2.823    0.646
       202  -9.0147    207.5642     53.9110   6.5150125499e+01   2.6295969226e+01    0.2140207     0.136765 -27.94 0.0004780421    1.512    0.339
       203 -10.0709    163.3282     53.2677   7.2673115845e+01   3.7540696183e+01    0.3344805    0.1813816 -36.54  0.001221481    1.855    0.461
       204 -10.2809    219.3869     42.7714   6.0454673866e+01   2.4848722400e+01    0.5887361     0.444871  20.82  0.002479709    1.558    0.358
       205 -10.2214    216.2580     41.0237   6.0370362937e+01   2.5810375885e+01    0.6481197    0.3461817  -3.83  0.002520516    2.810    0.644
       206  -9.3539    238.4531     45.2927   5.8867027459e+01   2.0140461469e+01    0.2178358    0.2058286 -35.88   0.00100678    1.026    0.025
       207  -9.9110    233.3787     44.3456   5.9197544095e+01   2.1396361543e+01    0.4077471    0.3244115  21.81  0.002283853    1.450    0.310
       208 -11.1315    244.2327     42.1254   5.7449701400e+01   1.9234041359e+01    0.4654045    0.3349359 -25.64  0.001547397    1.294    0.227
       209 -10.7012    190.3032     42.1433   6.4328183329e+01   3.2137172548e+01    0.5130549    0.3739951  -0.78  0.002471042    1.594    0.373
       210 -10.6608    185.5191     37.5031   6.3653084342e+01   3.3946723784e+01    0.6088573    0.3039604 -26.38  0.002503328    2.012    0.503
       211  -8.7415     76.7596     44.0191   9.4072382712e+01   5.8627710289e+01    0.1850242    0.1121937 -39.21 0.0007248514    1.560    0.359
       212  -9.3272    177.9194     42.4994   6.6459721659e+01   3.5278802115e+01    0.3213853    0.2194073 -68.67  0.001408007    1.948    0.487
       213  -9.3834    209.1078     39.6027   6.0896080948e+01   2.7725102873e+01    0.2441429    0.1802177 -38.20  0.000681965    1.314    0.239
       214  -9.3852    233.5558    247.6727   1.0215155109e+02  -4.3602777464e+00    0.2105795    0.1465864  51.20  0.001326065    2.644    0.622
       215 -10.6367    201.6010     27.3847   5.8364515889e+01   3.1013060145e+01    0.6169693    0.3291734   9.25  0.002277586    3.205    0.688
       216 -10.2979    172.4871     40.2029   6.6669748297e+01   3.6987886225e+01    0.5454884     0.164345  54.47  0.001774996    2.896    0.655
       217  -9.1652    165.4875     39.9676   6.7863423852e+01   3.8841762373e+01    0.2297109    0.1484987 -26.14  0.001029134    1.580    0.367
       218  -9.0105    233.1821     38.3702   5.7677477249e+01   2.2141290137e+01    0.1793687    0.1266384  86.33 0.0007542577    1.631    0.387
       219 -10.8840    227.2782     33.1007   5.6947670712e+01   2.4109313220e+01    0.6626627    0.2789003 -37.66  0.002816188    2.127    0.530
       220 -10.5961    234.8775     31.8203   5.5817775106e+01   2.2494174311e+01     0.615675    0.2610803  60.01  0.002689637    2.353    0.575
       221  -9.1723    162.0075     37.9861   6.7853935118e+01   4.0008019115e+01    0.2549485    0.1705036  26.54  0.000709277    1.723    0.420
       222  -8.9319     61.4642     37.9860   9.7869889988e+01   6.2231589242e+01    0.2113512     0.123081 -41.81  0.001027527    1.583    0.368
       223  -9.0261    249.0385    246.6931   9.9491329464e+01  -6.2706896602e+00    0.1518796   0.09777919  21.17 0.0006226253    1.089    0.082
       224  -9.2228    187.0095    247.2946   1.1006837637e+02   2.0848188524e+00    0.1619611    0.1097375  30.65 0.0004724132    1.070    0.065
       225 -10.1159    225.0100    242.9971   1.0290612702e+02  -2.7680493276e+00    0.2568513    0.2109412  31.61  0.001969414    1.502    0.334
       226  -9.4951    246.8178    240.3847   9.8911501980e+01  -5.4200824380e+00    0.1813468     0.125724  -5.26 0.0008739352    1.323    0.244
       227  -9.1336    243.6266    236.8014   9.8889688829e+01  -4.6691555216e+00     0.166096    0.1647452 -54.64 0.0007711848    2.209    0.547
       228 -10.0305    239.9243    240.3706   1.0003543828e+02  -4.5161539094e+00     0.241651    0.1562512  33.87  0.001120701    1.443    0.307
       229  -8.8481    214.6025    240.7649   1.0436101236e+02  -1.1054674733e+00    0.1269899    0.1037613 -26.70 0.0009483778    1.651    0.394
       230  -9.8316    230.8981    237.0535   1.0104226933e+02  -2.9821135169e+00    0.2076844    0.1485428 -24.31 0.0009173265    1.669    0.401
       231 -10.3685    205.9553    236.0336   1.0519232428e+02   6.2954364653e-01    0.3217882    0.2660128  43.42  0.002137686    1.589    0.371
       232 -10.0479    219.5822    235.8716   1.0279372689e+02  -1.2927319558e+00    0.2206531    0.1270418  43.47  0.001329989    1.886    0.470
       233  -8.8174    248.5419    234.5026   9.7734854736e+01  -5.1005100572e+00    0.1126546   0.07786739  14.92 4.895269e-05    1.022    0.022
       234  -9.0847    190.5908     34.2197   6.1883715690e+01   3.3037205413e+01    0.1993887    0.1401915  -7.31 0.0009183688    1.620    0.383
       235 -10.0509    221.7797     31.2782   5.7067902466e+01   2.5614801689e+01    0.5340095    0.4042519 -89.51  0.002908736    1.443    0.307
       236  -9.5647    208.7341     31.3557   5.8615304226e+01   2.8782326552e+01    0.2162625    0.1419553  72.13 0.0004787748    1.580    0.367
       237  -9.7860    212.6173     30.4602   5.7895864770e+01   2.7925493207e+01    0.3979604    0.2041416 -38.46   0.00177937    1.842    0.457
       238  -9.9724    216.0008     30.5082   5.7513707035e+01   2.7093552697e+01    0.3390444    0.2635099  33.84  0.001136139    1.443    0.307
       239  -8.5675    181.2793     32.6297   6.2791097544e+01   3.5636790935e+01    0.1551628    0.1060421 -56.60 0.0007011148    1.691    0.409
       240  -8.8367    170.4759     29.4967   6.3511964867e+01   3.8836280055e+01    0.1466444    0.1408245  47.26 0.0001374644    1.002    0.002
       241  -9.9141    238.3118    231.7178   9.8989133776e+01  -3.4648588380e+00    0.3536693    0.2072612  51.08  0.001847781    3.299    0.697
       242 -10.4236    142.3023     25.7102   6.7400268485e+01   4.6673279738e+01    0.3675491    0.2506172 -44.50  0.001717705    1.654    0.395
       243 -10.3798    118.3744     24.3555   7.2401079394e+01   5.2875563028e+01    0.4627317     0.212125 -45.45  0.001686834    2.904    0.656
       244  -8.9943    244.6657    231.6887   9.7932247881e+01  -4.3198040452e+00    0.1675266    0.1227565 -39.37 0.0008818732    2.335    0.572
       245  -9.4340    199.6031     20.8453   5.6706344612e+01   3.2223208763e+01    0.2308242    0.1860925  54.75 0.0007636396    1.232    0.188
       246  -9.5071    176.2903     20.6811   5.9729975061e+01   3.8286857918e+01    0.2160652    0.1234866 -78.84  0.000251519    2.519    0.603
       247  -8.0829    166.3078     27.3310   6.3487114506e+01   4.0185835733e+01    0.1579966    0.1057124  30.25 0.0007040107    1.664    0.399
       248  -8.9752    165.3199     19.6573   6.1058180083e+01   4.1293804985e+01    0.1542325    0.1069089 -60.93  0.000704977    1.722    0.419
       249  -8.3896    151.3137     19.6520   6.3429740018e+01   4.4999595017e+01     0.153182    0.1094991 -60.84 0.0007046805    1.719    0.418
       250  -9.0353     68.1206     17.8353   8.5922492157e+01   6.4546969624e+01    0.1925095    0.1422212   5.50 0.0005321213    1.308    0.236
       251  -9.4609    113.5270    231.4696   1.2180080613e+02   1.4732093599e+01    0.1160701   0.08913406  44.64 0.0003084808    1.018    0.018
       252  -9.7929    227.2604    219.8613   9.9001166166e+01  -6.7659757646e-01    0.2918418    0.1766614 -10.38  0.001791436    1.700    0.412
       253 -10.5942    229.3357    227.8098   9.9899187298e+01  -1.8234591311e+00    0.3320403    0.2068393 -28.72  0.001859606    1.854    0.461
       254 -10.0410    162.4193     15.3098   6.0032045106e+01   4.2509073240e+01    0.2475435    0.1751477 -81.20  0.001172258    1.692    0.409
       255  -9.1809    207.4776     13.7137   5.3788369707e+01   3.0960223439e+01     0.175106    0.1323059  -1.29 0.0005991954    1.540    0.350
       256  -9.1471    229.5232    222.5330   9.9037494031e+01  -1.2920440222e+00    0.1863876    0.1117108  10.88 0.0009192571    1.521    0.343
       257  -9.7633    248.0351    227.1664   9.6667349548e+01  -4.3339951792e+00    0.2189566    0.1527757  -7.42 0.0008346938    1.310    0.237
       258  -8.9112    105.3447     14.6755   7.1710811972e+01   5.7156967988e+01    0.1404728     0.112551 -65.17 0.0003312521    1.739    0.425
       259  -8.7947    211.3159    228.3232   1.0311359528e+02   7.1077566108e-01     0.121975    0.0720611  12.99 0.0007042513    1.665    0.399
       260  -8.8281    163.5151    228.5054   1.1191924368e+02   7.8517358144e+00    0.1207056   0.09257928  33.41 7.169518e-05    1.037    0.036
       261 -10.9622    239.1836    220.7319   9.7104100716e+01  -2.4728086479e+00    0.3978276    0.3790707  85.73  0.002854632    2.284    0.562
       262  -9.5230     99.0938    226.0763   1.2404086879e+02   1.7550875416e+01    0.1802202    0.1337654  50.71  0.000741824    1.096    0.087
       263 -10.1768    208.5459    223.3782   1.0285655239e+02   1.6846186773e+00    0.2861138    0.1454054  24.09  0.001550102    1.776    0.437
       264  -9.8979    193.6952    219.7853   1.0501872416e+02   4.3701560444e+00    0.2730145    0.2313188  62.19  0.001809384    1.849    0.459
       265  -9.1156     48.9618    219.6926   1.3311351712e+02   2.4742002105e+01     0.150707    0.1117696  53.62 0.0005881278    1.065    0.061
       266 -10.9935    247.4527    215.9817   9.4942810341e+01  -3.1386902150e+00    0.4712694    0.2761681 -23.99  0.002942848    1.740    0.425
       267  -9.0140    160.2196    218.6250   1.1122237598e+02   9.7260764034e+00     0.182663   0.09391833  30.86 0.0007945785    1.702    0.412
       268  -8.9186    112.3111     11.6521   6.8536761475e+01   5.5819168552e+01    0.1419775     0.110203 -59.61 0.0007045567    1.712    0.416
       269  -9.6861    156.0000    216.5252   1.1175902175e+02   1.0686206090e+01    0.2318415   0.07147434 -46.93  0.000948966    4.050    0.753
       270  -9.6496     63.1807    216.5081   1.3018219600e+02   2.3694153155e+01     0.207669    0.1065342  74.49  0.001149989    2.277    0.561
       271 -11.2196    214.8548    215.5213   1.0049051198e+02   1.6548804612e+00    0.3222125    0.2930315  11.96  0.002240166    1.397    0.284
       272  -8.6559    109.4396    216.5238   1.2103474267e+02   1.7677889665e+01    0.1193297   0.09557246  47.08  0.000133938    1.025    0.024
       273 -10.0247    186.6518    213.6098   1.0539971391e+02   6.2649258738e+00    0.2900376      0.19657 -53.96   0.00165986    2.378    0.579
       274 -10.0545    232.5866    212.8732   9.6936931937e+01  -6.8549970519e-01    0.2925274    0.2035973  -6.88   0.00173032    1.325    0.245
       275  -9.7766    132.2255    214.0618   1.1616718042e+02   1.4726984454e+01    0.1800438    0.1490345  23.68 0.0006261696    1.209    0.173
       276  -9.5958    207.0018    209.1117   1.0087572437e+02   3.6395809281e+00    0.2786443    0.1497718  53.35  0.001252461    3.175    0.685
