#   1 NUMBER                 Running object number                                     
#   2 MAG_AUTO               Kron-like elliptical aperture magnitude                    [mag]
#   3 X_IMAGE                Object position along x                                    [pixel]
#   4 Y_IMAGE                Object position along y                                    [pixel]
#   5 X_WORLD                Barycenter position along world x axis                     [deg]
#   6 Y_WORLD                Barycenter position along world y axis                     [deg]
#   7 A_WORLD                Profile RMS along major axis (world units)                 [deg]
#   8 B_WORLD                Profile RMS along minor axis (world units)                 [deg]
#   9 THETA_WORLD            Position angle (CCW/world-x)                               [deg]
#  10 FWHM_WORLD             FWHM assuming a gaussian core                              [deg]
#  11 ELONGATION             A_IMAGE/B_IMAGE                                           
#  12 ELLIPTICITY            1 - B_IMAGE/A_IMAGE                                       
         1 -12.6432     50.0249     64.4170   8.6572350217e+01   5.8994977809e+01     1.814126    0.7043273 -60.46  0.005447587    5.189    0.807
         2 -12.7940     10.6669     49.8035   9.9263481080e+01   6.5880562948e+01     1.521105    0.8066289 -54.78  0.008475342    1.612    0.380
         3 -13.4938     37.2983     50.3117   8.7131905141e+01   6.3326017069e+01     1.749515    0.7047895 -36.90  0.007562933    2.406    0.584
         4 -11.9017     13.4326      3.6933   7.8796678983e+01   7.3369237469e+01    0.5216941    0.4567174 -50.01  0.003815178    2.007    0.502
         5 -12.4303      8.7944      8.8726   8.4233353591e+01   7.3128996164e+01    0.5193895    0.3081031  36.14  0.003232776    2.211    0.548
         6 -10.8119      9.8586     24.3596   9.0704340944e+01   7.0632039018e+01     2.519932    0.8037488   8.66   0.00566176   13.722    0.927
         7 -11.8585     20.0265     16.3850   8.1578578222e+01   7.0920808179e+01    0.6564716    0.3919179   2.69  0.003923558    1.695    0.410
         8 -11.0305     26.1793      2.6215   7.1243796542e+01   7.1965963129e+01    0.2498613    0.1758862  35.27 0.0008713934    1.523    0.343
         9 -10.5181     24.1332      8.1367   7.5258844261e+01   7.1566999956e+01    0.1810942    0.1473947  14.20 0.0004091376    1.234    0.189
        10 -11.4779     20.9263      4.0924   7.4812835190e+01   7.2461529033e+01    0.4509777    0.1958076 -33.02  0.001971559    2.164    0.538
        11 -12.0053      4.0183     17.4974   9.1105298984e+01   7.2213491591e+01    0.4212182    0.4074551 -15.10  0.002349387    1.543    0.352
        12 -11.4171    108.1633     17.8097   4.9852491093e+01   5.5101088570e+01    0.4119351    0.2631877  22.43  0.002107319    1.866    0.464
        13 -12.1586    129.2494     19.2677   4.6030828591e+01   5.0015858353e+01    0.2771042    0.2522613  52.32 0.0005087575    1.059    0.056
        14 -11.4461    238.1628     18.1266   3.2751407399e+01   2.4782789783e+01    0.2382393    0.1783497 -38.22 0.0002864916    1.426    0.299
        15  -9.8000     43.5344      8.5122   6.6188343272e+01   6.8786774385e+01    0.3424465    0.2388569 -26.22  0.001500361    1.480    0.324
        16 -11.0253     48.5756     15.6603   6.7558742186e+01   6.7163006851e+01    0.5144097    0.3459617  11.13  0.002437609    1.431    0.301
        17 -12.3739     40.7885     16.3643   7.1284104535e+01   6.8271089941e+01    0.4648302    0.3757203 -42.90  0.001156613    1.695    0.410
        18 -10.3725     39.6201     10.8867   6.9113662395e+01   6.9116049260e+01    0.1697436    0.1533805  -1.53 0.0005082934    1.308    0.235
        19 -10.4215     62.0845     15.7282   6.2315737409e+01   6.4851254267e+01    0.2859598    0.1911746   2.44  0.001642662    1.571    0.363
        20 -11.3037    233.9375     12.3802   3.1887093296e+01   2.6321817246e+01    0.2957091    0.1563233 -34.82  0.001032701    1.905    0.475
        21 -11.0261    157.4178     11.7679   3.9267529185e+01   4.3949877667e+01    0.2616427    0.1808505 -73.42 0.0009829914    1.519    0.342
        22  -9.9018     74.3598      2.9474   5.2490757640e+01   6.3736841675e+01    0.2959369    0.1665986 -36.83  0.001599393    2.168    0.539
        23 -11.4249     77.0543     11.0697   5.5270540196e+01   6.2468966099e+01    0.6181945    0.2692397  53.44  0.002870764    2.050    0.512
        24  -9.5905     96.5236     14.0157   5.1169577439e+01   5.8080823679e+01    0.2364164    0.2128868 -47.28  0.001522932    1.332    0.249
        25 -10.7565    100.0498     12.2809   4.9642280462e+01   5.7464650788e+01    0.2561563    0.1825979   3.84 0.0006930776    1.612    0.380
        26 -12.2379    128.6694     11.5752   4.3582829556e+01   5.0901725411e+01    0.3689154    0.2547422  86.32  0.002008902    1.565    0.361
        27 -10.2661    117.8000     11.6172   4.5596750408e+01   5.3465982486e+01    0.4722479     0.231402 -19.00  0.002214483    2.444    0.591
        28 -11.5484      9.9267     15.5475   8.6799943909e+01   7.2038499674e+01    0.2554046    0.1725375 -12.02 0.0004905581    1.231    0.187
        29  -9.7468    138.6020     11.7372   4.1986578154e+01   4.8505134863e+01    0.1769753    0.1146117 -41.77 0.0009494699    1.690    0.408
        30  -9.5002     65.4689     11.9647   5.9395245820e+01   6.4632571966e+01    0.1661109    0.1144571 -13.78 0.0003374667    1.482    0.325
        31 -11.3387    164.2556      7.8484   3.7304309420e+01   4.2672942013e+01    0.4012585    0.2403781 -11.27 0.0009719007    2.348    0.574
        32 -11.4351    145.9675      7.2324   3.9499837495e+01   4.7139015412e+01     0.455513    0.2781051  33.93  0.001485189    2.035    0.509
        33 -10.7893    148.4901      1.9101   3.7574411825e+01   4.6989525624e+01    0.3505546    0.1722123  87.93  0.001581419    2.292    0.564
        34 -10.1225    246.0000      8.9352   3.0375721620e+01   2.4239734963e+01    0.1756949   0.05749537 -34.23 0.0006424228    2.887    0.654
        35 -12.5504    213.9732      5.9374   3.2022521611e+01   3.1313517045e+01    0.7890589    0.4359429 -77.93  0.004333011    1.697    0.411
        36 -10.8444    203.9275      2.8707   3.2137660639e+01   3.3865782127e+01    0.2965689    0.2215833 -14.48  0.001833145    1.873    0.466
        37 -11.0181    191.4146      7.2023   3.4249656580e+01   3.6298726145e+01     0.379442    0.3334687 -81.39  0.001571623    1.090    0.083
        38 -11.1913    194.8521      2.3733   3.2783951134e+01   3.5979111233e+01    0.3600759    0.1893421 -86.90  0.001857168    1.827    0.453
        39 -10.5475     91.4833      6.7693   4.9530874345e+01   5.9835835981e+01    0.4252839    0.1909277  36.83  0.001947618    2.255    0.557
        40 -11.1756    230.7556      6.4536   3.0897635957e+01   2.7641816649e+01    0.2374019    0.1541651 -62.76 0.0002540071    1.259    0.206
        41 -10.6096    230.6300      1.7370   2.9944178241e+01   2.8167667122e+01    0.2101408    0.1552173  57.35  0.001384082    1.694    0.410
        42 -12.4001    179.1910      4.3970   3.4746684647e+01   3.9435253189e+01    0.3249555    0.2229711 -78.51 0.0003654757    1.351    0.260
        43  -9.4950    156.4648      6.4763   3.7878289750e+01   4.4675290658e+01    0.1289329      0.11021  78.87 0.0001252903    1.009    0.009
        44 -10.2813     81.3460      5.2027   5.1508702030e+01   6.2119760918e+01    0.2116594    0.1749809 -59.38  0.001332945    1.657    0.397
        45 -12.0101     67.7995      3.6888   5.4816753580e+01   6.4970625907e+01    0.2191608    0.1773677  34.28 0.0003034949    1.042    0.040
        46 -10.8134    243.0927      2.6998   2.9347350793e+01   2.5504823335e+01    0.1926165    0.1486318 -47.71 0.0004827248    1.294    0.227
        47 -10.1643    126.2714      2.8331   4.1086389100e+01   5.2219382222e+01      0.21422    0.1572194  24.30 0.0005436803    1.581    0.367
        48 -10.4464    169.6399      2.6154   3.5278950842e+01   4.1864140084e+01    0.2430306    0.1378148 -66.22 0.0006718119    1.875    0.467
        49 -10.8812    108.1086      1.6236   4.3895403838e+01   5.6541027788e+01    0.2032823    0.1458885  54.85 0.0005441136    1.164    0.141
        50 -10.0523     33.0863      1.7931   6.7389674372e+01   7.1094002527e+01    0.1878092    0.1579191  39.19   0.00134498    1.525    0.344
        51 -12.0835     98.1248      4.8047   4.7187820701e+01   5.8541856391e+01    0.3200948    0.2639825   2.68  0.001032604    1.321    0.243
        52  -9.1426     82.3159      1.2895   4.9577416573e+01   6.2234192182e+01    0.1303646   0.07583122  34.12  0.000351717    1.592    0.372
        53  -9.6979     69.5905    178.2074   1.0484708444e+02   2.8859546886e+01     0.190651    0.1216408 -54.83 0.0005156979    1.583    0.368
        54 -10.7456    249.0455    248.1234   7.7603919178e+01  -1.2121974262e+01    0.4317563    0.2078099  -6.78  0.002085249    2.889    0.654
        55 -12.4117    226.3631    245.5430   8.1148324666e+01  -8.9929379464e+00    0.6894203    0.3542124  -0.87  0.003210479    2.894    0.654
        56 -12.2589    232.7244    244.6298   7.9865123846e+01  -9.6885440319e+00    0.4891481    0.2146104 -28.05  0.002515787    2.321    0.569
        57 -11.3233     89.0058    249.6303   1.0887224247e+02   1.0462333526e+01    0.2982371    0.2054017  37.99 0.0008020542    1.306    0.234
        58 -10.0585     72.5914    250.1267   1.1218982504e+02   1.2644069698e+01    0.1927827    0.1647004   6.48  0.001266588    1.696    0.411
        59 -13.3362     17.5321    237.6848   1.2191777129e+02   2.1752283062e+01     1.185068    0.4069822  51.18  0.005975187    2.257    0.557
        60 -13.3095      5.7530    245.1439   1.2443695187e+02   2.1476885809e+01    0.9042537    0.4538682  43.97  0.004525693    1.663    0.399
        61 -12.8013     22.2841    249.0088   1.2167069775e+02   1.9012765197e+01     0.807592     0.255863  34.88   0.00387431    2.865    0.651
        62 -11.1565     17.4818    247.4820   1.2245723965e+02   1.9822973405e+01     0.220077      0.15631  64.64 0.0006218918    1.045    0.043
        63  -9.4175    200.6807    176.3193   7.3433812386e+01   6.0810769580e+00    0.1341462    0.1150267 -83.45 0.0003961503    1.663    0.399
        64 -11.1408     34.2475    174.0236   1.1329937595e+02   3.4289343815e+01    0.2723224    0.1933983 -66.47 0.0004173888    1.300    0.231
        65 -10.8680     17.9925    173.1048   1.1722310556e+02   3.6126561914e+01    0.4024968    0.1982294  64.44  0.001921828    2.127    0.530
        66  -9.0262     74.3521    171.3047   1.0260019691e+02   2.9879079155e+01    0.1429871    0.1112566 -27.22 0.0006054221    1.707    0.414
        67 -12.1703     36.2680    165.8469   1.1186461720e+02   3.6094139835e+01    0.8382319     0.417445 -81.99  0.003766663    2.011    0.503
        68 -11.3703     39.9589    162.3476   1.1046892879e+02   3.6565632429e+01     0.590214    0.3249258  90.00  0.002077693    1.986    0.496
        69 -12.1182     50.1932    161.7212   1.0764377933e+02   3.5533139829e+01    0.5506647    0.3772737  71.13 0.0008946614    1.543    0.352
        70 -11.4155     44.8981    163.1211   1.0925204383e+02   3.5810699886e+01     0.385059    0.2378817 -76.42   0.00134969    1.491    0.329
        71  -9.9126     99.1820    164.9240   9.4958591741e+01   2.7518116184e+01    0.2217732    0.1931978  82.00 0.0003547984    1.177    0.150
        72  -9.3752    176.7227    168.6882   7.6824426317e+01   1.2031972050e+01    0.1480414    0.1133151  -7.74 0.0001879769    1.561    0.359
        73 -10.4849     10.0740    162.8253   1.1825410187e+02   3.9304704559e+01    0.3144222    0.1373183  40.02 0.0009235293    2.292    0.564
        74  -8.9550    200.3148    162.6576   7.0653734149e+01   8.7450421353e+00    0.1416484    0.1157377 -76.88 0.0007047784    1.708    0.415
        75 -12.6110     22.3119    156.6929   1.1449388373e+02   3.9761415873e+01    0.6609591    0.5536942 -36.05   0.00410877    1.469    0.319
        76  -9.4162    216.4663    155.4283   6.6039526411e+01   7.1226034867e+00    0.1396839    0.1269073 -30.04 7.945196e-05    1.051    0.049
        77  -9.6472    157.4886    155.0097   7.8206613425e+01   1.8752019492e+01    0.2322324    0.1302045 -25.76 0.0008101414    2.727    0.633
        78 -10.1543     11.4236    153.4935   1.1703459192e+02   4.1480345630e+01    0.2322945     0.128138  23.82  0.001217182    2.187    0.543
        79  -9.8508    177.1867    150.7624   7.2825685984e+01   1.5657191283e+01    0.2413281    0.1989429  69.10  0.001192318    1.481    0.325
        80  -9.4775      5.6433    149.9987   1.1821845109e+02   4.2776405918e+01    0.1714247    0.1264929 -81.05 0.0003203904    1.088    0.081
        81 -10.7488     33.1213    148.1527   1.1051314543e+02   4.0867628878e+01    0.2147777    0.1834939 -73.95   0.00032421    1.042    0.040
        82  -9.5110    143.5398    148.4920   8.0099930735e+01   2.3056984728e+01    0.1549612    0.1511514 -23.04 6.266752e-05    1.036    0.035
        83 -10.2450     17.6454    146.9362   1.1467133091e+02   4.2598719679e+01    0.2781365    0.1755426 -32.79  0.001175612    2.094    0.523
        84 -10.1980    207.0631    146.5005   6.5835285925e+01   1.0564758214e+01    0.2047432     0.144616  44.43 0.0005947068    1.535    0.349
        85  -9.3177     41.1737    146.3470   1.0797769009e+02   4.0477175848e+01    0.1777533    0.1193405  44.51 0.0002880305    1.576    0.366
        86  -9.6304    220.4634    143.9549   6.2844115674e+01   8.4992304975e+00    0.2164852    0.1261034 -40.28 0.0009410307    1.536    0.349
        87 -10.0951     10.5688    144.3060   1.1632793320e+02   4.3813857319e+01    0.2008825    0.1440872 -32.78 0.0007175197    1.747    0.428
        88  -9.6746     82.3952    139.8203   9.4804538060e+01   3.6584394259e+01    0.2169803    0.1307482 -48.75 0.0009392038    1.619    0.382
        89  -9.3743     57.3215    139.3256   1.0213028000e+02   4.0340664000e+01    0.1484106    0.1038966 -35.22 0.0007047385    1.683    0.406
        90 -10.5606      2.8042    137.4239   1.1776168525e+02   4.6054131388e+01    0.2799363    0.1337573 -73.24 0.0009516758    1.655    0.396
        91 -10.0635      9.3287    136.8675   1.1586775981e+02   4.5745464772e+01    0.1875277    0.1308704 -72.62 0.0004220565    1.161    0.139
        92 -10.1498     32.1437    135.6097   1.0905199441e+02   4.4139489822e+01    0.2324374    0.1608012 -81.02 0.0006152974    1.347    0.258
        93  -9.7739     20.9752    135.4653   1.1233598829e+02   4.5189063313e+01    0.2215506    0.1432391 -71.43 0.0007950803    1.292    0.226
        94 -10.0868    249.3141    134.0038   5.6077743731e+01   5.1026484024e+00    0.1962279    0.1470739 -36.99 0.0007263687    1.114    0.102
        95  -9.5347    104.6110    134.2226   8.7173871215e+01   3.4134005068e+01    0.2305467    0.1394806 -44.03 0.0009546468    1.675    0.403
        96 -10.3173    111.6100    132.3376   8.4764742258e+01   3.3267470779e+01    0.3156783    0.1498259 -55.69  0.001139572    2.189    0.543
        97 -10.1477    108.5144    133.4844   8.5900374036e+01   3.3581569274e+01    0.1552318    0.1505722 -59.38 0.0002380377    1.010    0.010
        98 -10.8875     55.2311    132.7485   1.0158511570e+02   4.2285599858e+01     0.344015    0.2001835  48.19 0.0009780861    1.914    0.478
        99  -9.4488    128.0009    132.5237   8.0349392269e+01   2.9952910662e+01    0.2282199    0.1564687  42.76 0.0001655317    1.486    0.327
       100 -11.2193     73.9918    129.6472   9.5221651543e+01   4.0463398556e+01    0.3464305    0.2926585 -77.43  0.001231535    1.200    0.166
       101 -11.7497     37.1283    129.3029   1.0656513417e+02   4.5237730776e+01    0.5829245    0.3215213 -46.91  0.002754471    1.784    0.440
       102 -10.6363     24.2960    126.0522   1.1003069569e+02   4.7267806045e+01    0.2085655    0.1881564  55.62 0.0003530737    1.239    0.193
       103 -11.4588     21.7026    121.1923   1.1011786614e+02   4.8700099675e+01    0.6439953    0.2540978 -39.29            0    3.220    0.689
       104 -10.8958     13.3877    126.1562   1.1338776689e+02   4.8107978910e+01    0.3175111    0.1966307  22.34 0.0006307633    1.944    0.486
       105 -11.0596     10.7907    122.9988   1.1376984887e+02   4.9074006344e+01     0.304618    0.2282671  82.51  0.001283339    1.336    0.251
       106  -9.6016    220.4332    124.4794   5.8524971930e+01   1.2079045522e+01    0.1429631    0.1263037 -38.77 8.473948e-05    1.013    0.012
       107 -10.7678      2.8519    122.9186   1.1617225983e+02   4.9606291126e+01    0.2239224    0.1987029  -5.80  0.001352537    1.418    0.295
       108  -9.9315      1.4022    119.0210   1.1615388063e+02   5.0642789850e+01    0.1911511    0.1003338 -74.08  0.000325708    1.536    0.349
       109  -9.4701     32.2338    121.6231   1.0683810297e+02   4.7659132433e+01    0.1643925    0.1301554  -4.11 0.0003357526    1.567    0.362
       110  -9.5148     15.5819    119.5509   1.1181058756e+02   4.9584294945e+01    0.1313339    0.1075138 -69.31 1.754427e-05    1.009    0.009
       111 -10.2437     72.2479    116.7220   9.2925452478e+01   4.3956224779e+01    0.4097854    0.1813878 -57.81  0.001560103    2.156    0.536
       112 -10.3051     86.0874    116.7924   8.8570358158e+01   4.1710009925e+01    0.2271521    0.2041594  87.40 0.0005541904    1.221    0.181
       113  -9.9288    213.9756    115.6691   5.7590751234e+01   1.4992626351e+01    0.1887999    0.1820218  57.24 0.0004766252    1.148    0.129
       114 -10.4264     16.0281    115.7261   1.1111165963e+02   5.0496589432e+01    0.1719951    0.1572528 -53.35  0.000479573    1.140    0.123
       115  -9.1527    185.6990    114.6378   6.2492474934e+01   2.1239498767e+01    0.1545732    0.1204146  -2.37 0.0007035908    1.723    0.420
       116 -11.1935    249.2815    112.1321   5.1476051556e+01   8.7861431843e+00    0.2540491    0.2118719 -51.97 0.0004456084    1.109    0.098
       117  -9.9392     95.0208    112.4949   8.4740792437e+01   4.1166325611e+01    0.2475724    0.2036568 -51.64 0.0009626871    1.170    0.145
       118 -11.6075     36.5264    109.8362   1.0329907031e+02   5.0174821054e+01    0.4048189    0.2975612  68.57  0.001024732    1.669    0.401
       119 -11.5877     55.1927    110.0249   9.7013933383e+01   4.7995178411e+01    0.4043134    0.2454902 -47.57 0.0008924574    1.509    0.337
       120 -10.3160      5.6865    106.6367   1.1316823212e+02   5.3401344121e+01    0.2604634    0.1327634 -33.29  0.001064387    2.254    0.556
       121 -10.5593      1.3443    108.8142   1.1489455610e+02   5.3121033689e+01    0.3363093    0.2019387 -83.60  0.001460118    1.543    0.352
       122 -10.1006      2.4905    105.5153   1.1407157571e+02   5.3853165421e+01     0.191529    0.1646101 -26.34 0.0005607015    1.327    0.246
       123 -12.0646     14.2317    108.8907   1.1065923334e+02   5.2303478978e+01    0.4197907    0.3414955   9.96  0.001915519    1.491    0.330
       124  -9.0870    109.2590    108.7377   7.9500575134e+01   3.9312287696e+01    0.1452423    0.1218126  88.90  0.000245423    1.445    0.308
       125  -9.2642     82.5171    108.4885   8.7628371365e+01   4.4317113871e+01     0.150669    0.1416596 -42.39  0.000151832    1.013    0.013
       126 -10.8179     24.9954    107.5322   1.0679691694e+02   5.1806908743e+01    0.2519415    0.1947565  80.28   0.00144295    1.469    0.319
       127 -10.4932    243.9544    104.7255   5.0610905939e+01   1.1003381456e+01    0.1815103    0.1633943 -52.50 0.0005276481    1.077    0.071
       128 -10.2616     51.5806    104.2164   9.6936257777e+01   4.9868120589e+01    0.2882024    0.1863418 -35.62  0.001391168    1.627    0.385
       129  -9.0579    186.6303    104.2742   5.9726052061e+01   2.3045863227e+01    0.1541329    0.1158762 -81.24 0.0007003783    1.678    0.404
       130 -10.3243    119.4981    102.6319   7.4910189313e+01   3.8567693231e+01    0.4421789    0.1519335 -44.91  0.001395435    2.860    0.650
       131  -9.5057     87.9978    104.0438   8.4715690056e+01   4.4421554893e+01    0.1802796    0.1715224 -40.18 0.0004261828    1.000    0.000
       132 -10.9814     36.2745    102.2521   1.0185877381e+02   5.2056576934e+01    0.3961571    0.2550727  11.58  0.001647939    1.905    0.475
       133 -11.2156     13.8513    103.2275   1.0987921518e+02   5.3706220020e+01    0.3150922    0.1622096 -33.36  0.001513071    2.212    0.548
       134 -10.3344     25.8419    102.5433   1.0558711729e+02   5.2952261389e+01    0.2476917    0.1669055 -79.69 0.0005094028    1.548    0.354
       135  -9.8996     24.3263     99.2659   1.0549657626e+02   5.3871848113e+01    0.1754091    0.1674433  -9.05 0.0002347926    1.195    0.163
       136 -11.6024      3.1138     97.4974   1.1269045341e+02   5.5736181678e+01    0.5085412    0.2781189  66.50  0.002464998    2.571    0.611
       137 -11.4216    143.1459     98.6111   6.7611334143e+01   3.4178701796e+01    0.5666515    0.4005756  64.65   0.00251216    1.633    0.388
       138 -10.1690     50.8537     99.1113   9.5996507483e+01   5.1187007400e+01     0.210491    0.1865029 -42.75 0.0005743639    1.033    0.032
       139 -11.2296     14.6795     97.4510   1.0860107305e+02   5.5038866766e+01    0.5015233    0.1873889 -65.14  0.002137212    2.155    0.536
       140 -10.8480     11.1489     90.6844   1.0866222565e+02   5.6877616833e+01    0.3541345    0.3008324  31.95  0.001138847    1.422    0.297
       141 -10.8685     38.7830     95.4944   9.9486370666e+01   5.3423731213e+01    0.5952797    0.3254986  55.26  0.002533994    2.792    0.642
       142 -10.2695    153.2886     96.4035   6.4606286540e+01   3.2281584293e+01    0.2137889    0.1494922  61.99 0.0009444052    1.562    0.360
       143 -10.7560     66.8310     98.2036   9.0182294305e+01   4.9236049982e+01    0.2535855    0.1912743 -47.14 0.0004035521    1.218    0.179
       144 -11.6339     26.3868     91.7307   1.0321799205e+02   5.5495845663e+01    0.6793622    0.2901596 -72.79  0.002659404    2.869    0.651
       145 -12.2316     21.9772     87.2382   1.0391596928e+02   5.6913506045e+01    0.8739163    0.1128092 -57.84  0.002720993    4.066    0.754
       146 -10.8516     61.9768     98.9947   9.2064841881e+01   4.9749728717e+01    0.3623313    0.3036006  13.92  0.001097651    1.312    0.238
       147 -12.8034    158.1873     90.0899   6.1768832909e+01   3.2367452621e+01    0.7428228    0.5558394 -46.00  0.003306892    1.314    0.239
       148 -12.3744    165.5412     83.5624   5.8417618207e+01   3.1844020819e+01     1.070519    0.7019998  67.09  0.004730382    1.699    0.412
       149  -9.8019     31.3152     93.0415   1.0167556933e+02   5.4744758964e+01    0.1891244    0.1479193 -58.78 0.0004381666    1.126    0.112
       150  -9.3237    127.6626     92.7077   6.9865719660e+01   3.8901931398e+01    0.1571097    0.1234157   8.64 0.0003296019    1.644    0.392
       151 -10.4319     96.3128     89.6436   7.8014512701e+01   4.6119350515e+01     0.325335    0.1903919  34.27   0.00137557    1.843    0.457
       152 -10.3221     58.1482     89.8642   9.1031563924e+01   5.2407003491e+01    0.3611583     0.202999  28.62  0.001651911    1.947    0.486
       153 -10.4408     83.0419     88.9412   8.2096279808e+01   4.8720553859e+01    0.2254016    0.2035906 -25.19 0.0005369622    1.073    0.068
       154 -10.9880     78.5045     88.1177   8.3381359770e+01   4.9683518304e+01    0.3447118     0.245703 -50.73  0.001229689    1.373    0.272
       155  -9.7591    250.1320     95.8547   4.7911695296e+01   1.1308401096e+01    0.2000949    0.1521668 -56.86 0.0005061766    1.205    0.170
       156 -10.1511     65.0163     87.4889   8.7904772699e+01   5.1966649686e+01    0.2502819    0.2262018   1.30  0.001051367    1.137    0.121
       157 -10.4139     67.4841     84.5097   8.6165779075e+01   5.2256819961e+01    0.3072127    0.1851673 -33.16  0.001386071    1.769    0.435
       158 -11.1399     45.3752     86.5878   9.4875748854e+01   5.4776808260e+01    0.5810056    0.3793464 -84.98   0.00262407    2.425    0.588
       159  -9.2418    139.2971     87.7005   6.5450624035e+01   3.7259603264e+01    0.1538453     0.121508 -80.25 0.0005680583    1.575    0.365
       160  -8.9406    120.7026     87.2993   7.0147292065e+01   4.1550237923e+01    0.1512552    0.1225713 -84.27 0.0005217221    1.575    0.365
       161 -12.1988     36.9978    243.9368   1.1862653977e+02   1.8345191669e+01    0.6530823    0.3083992 -88.94  0.002874511    2.196    0.545
       162 -12.3467     75.8676    239.6273   1.1056335229e+02   1.4232068973e+01     0.655822    0.4448823 -37.17  0.003581255    2.324    0.570
       163 -11.1356      6.4906     41.8664   9.8855404719e+01   6.7715166440e+01      0.44281    0.1479264 -43.52 0.0009832719    2.241    0.554
       164 -11.8640      5.3818     84.0534   1.0960677882e+02   5.8763707765e+01    0.5733032    0.4356062 -65.18  0.003670254    1.130    0.115
       165 -11.4696     43.5225     38.0239   7.9683670668e+01   6.4713142464e+01    0.4895303    0.3019942  51.91  0.002413453    2.656    0.624
       166 -12.9311     11.2728     75.1645   1.0550074045e+02   6.0439958052e+01      1.02502    0.5608441  31.23  0.005205953    2.165    0.538
       167 -13.7969     16.5928     67.6658   1.0151707238e+02   6.1733650392e+01    0.5777311    0.3754201  14.58  0.001967139    1.731    0.422
       168 -11.4518     20.0312     61.9546   9.8506899332e+01   6.2691334805e+01     0.437501     0.258266 -49.44  0.001725143    1.389    0.280
       169 -11.5118     26.7642     56.1046   9.3777962788e+01   6.3308067099e+01    0.4320479    0.2512543 -42.92  0.001792233    1.438    0.304
       170 -12.7816     74.2158    234.9924   1.1045440452e+02   1.5389553536e+01    0.6822589    0.5485527 -51.36  0.004311897    1.558    0.358
       171 -12.0032     26.8014     49.7528   9.1681124513e+01   6.4555839949e+01    0.5208089    0.3597977 -53.14  0.001872794    1.470    0.320
       172 -11.8433     35.5477     42.6289   8.5087892373e+01   6.4935190019e+01     0.735777     0.330831  13.68  0.002955876    3.425    0.708
       173 -11.9294      5.1905     58.8846   1.0427986706e+02   6.4350599689e+01    0.2492729    0.2228337 -56.13 0.0003246722    1.204    0.169
       174 -11.5527      6.2664     67.9678   1.0597090456e+02   6.2336121430e+01    0.2012189    0.1389482 -34.79 0.0003042647    1.287    0.223
       175 -12.7065      3.2654     63.1801   1.0616312741e+02   6.3539100959e+01    0.4314893     0.331272  83.95   0.00238458    1.730    0.422
       176 -10.4326    115.1890     83.9349   7.0664475928e+01   4.3432066543e+01    0.3239356    0.1993113  39.78  0.001057111    1.676    0.403
       177 -11.5273     31.1454     81.1916   9.8972010072e+01   5.7510542360e+01    0.6293173    0.3443569 -16.54   0.00269861    2.516    0.603
       178 -11.4068     21.4700     80.1198   1.0252987918e+02   5.8593161318e+01    0.5126831    0.3391348 -29.91  0.002790997    1.501    0.334
       179 -10.4998     21.9247     73.5095   1.0076015069e+02   6.0041608204e+01    0.3255148    0.1476106 -55.81 0.0009731779    1.799    0.444
       180  -9.5130     46.7696     92.7769   9.5926664452e+01   5.3178313231e+01    0.1749926     0.157696  78.04 0.0003830312    1.321    0.243
       181 -10.1738     86.1794     80.4251   7.8473620764e+01   4.9979408407e+01    0.2740752    0.2180362  -9.23  0.000908828    1.420    0.296
       182 -10.8853     60.9816     78.4236   8.6729036827e+01   5.4553412953e+01    0.2899799    0.2128177 -45.50 0.0004188717    1.262    0.207
       183 -11.9921     62.2727     71.6507   8.4146806904e+01   5.5790974070e+01    0.3996513    0.2600036 -29.19 0.0003297637    1.590    0.371
       184 -12.6978     44.7105     75.2923   9.2038866760e+01   5.7379350664e+01    0.2845427     0.267161  46.87 0.0005354861    1.288    0.224
       185 -11.0319     74.1750     75.4120   8.1005457970e+01   5.3124772539e+01    0.3166469    0.2032882 -39.22 0.0005694483    1.490    0.329
       186 -10.8471     77.3197     69.8671   7.8096830106e+01   5.3704495363e+01    0.3752681    0.2505291  56.79  0.001690675    2.009    0.502
       187 -10.5713     77.0622     64.2414   7.6287139585e+01   5.4834893046e+01    0.3879242    0.2729395 -43.49  0.001988609    1.424    0.298
       188 -11.0414     37.0687     67.8974   9.2959982155e+01   5.9832151062e+01    0.4528884    0.3201887 -75.61  0.002367145    1.996    0.499
       189 -10.9194    207.5831     73.3579   4.8512025337e+01   2.3771808467e+01     0.230085     0.220253 -62.32 0.0002726592    1.117    0.105
       190 -10.6111     94.0036     74.0369   7.3895285917e+01   4.9782661229e+01    0.2236913    0.2102197  -3.99 0.0003786419    1.025    0.024
       191 -10.9438    100.7838     72.3419   7.1232903950e+01   4.8746216811e+01    0.3730869    0.2668533  76.04 0.0006125158    2.172    0.540
       192  -9.9361    129.2072     71.4513   6.3066108668e+01   4.2656358704e+01    0.2611214    0.1869938  58.71 0.0008530517    1.440    0.306
       193  -9.7653    194.5243     70.1026   4.9661774085e+01   2.7293922924e+01    0.2096729    0.1359853 -36.84 0.0008423301    1.524    0.344
       194  -9.5620    154.7899     70.4269   5.6909758234e+01   3.6752136740e+01    0.1956635    0.1374184  46.40  0.000299933    1.461    0.316
       195  -9.2928    167.6691     69.7480   5.4168845157e+01   3.3751530975e+01    0.1436803    0.1128826  31.18 0.0002535475    1.555    0.357
       196  -9.3023    110.3968     68.8395   6.7257956883e+01   4.7363448859e+01    0.1889755    0.1392804 -22.96 0.0001609698    1.506    0.336
       197 -10.1161     42.6782     68.4792   9.0832586757e+01   5.9076273592e+01    0.2482647    0.2253473   5.21  0.001318752    1.159    0.137
       198  -9.6665    127.5676     66.6736   6.1976807249e+01   4.3878619673e+01    0.1970004     0.140557 -47.62 0.0009309395    1.478    0.323
       199 -11.3306     93.8230     66.5536   7.1475833522e+01   5.1243274105e+01    0.3618484    0.2666579  11.99 0.0009947035    1.635    0.388
       200 -11.5900    155.8738     83.3472   6.0384107270e+01   3.4187357733e+01    0.7807339    0.4240652  36.02  0.002951759    2.442    0.591
       201 -10.5537    201.8384     62.2369   4.6602431963e+01   2.6841280013e+01     0.237553    0.1984995 -64.70  0.000536748    1.095    0.087
       202  -9.1439    222.7160     62.7435   4.3985566323e+01   2.2089378643e+01    0.1158284    0.1052659  25.57            0    1.477    0.323
       203  -9.8618    108.0283     62.5015   6.5832272295e+01   4.9003463638e+01     0.238595    0.1404799  49.10  0.001058245    1.668    0.401
       204 -10.8192    155.0824     60.1971   5.3860802377e+01   3.8365771424e+01    0.2447827     0.204317 -49.15            0    1.211    0.174
       205 -10.3124    119.6044     60.9509   6.2161736308e+01   4.6685971269e+01    0.2515844    0.1936923  37.24 0.0006691377    1.312    0.238
       206  -9.1340    113.4911     61.5224   6.3980518892e+01   4.7968788235e+01    0.1434893    0.1405285  58.24 3.710673e-05    1.069    0.065
       207 -10.6167     85.0293     61.5081   7.2606001198e+01   5.3878002120e+01    0.2181384    0.1361135  40.63  0.001032714    1.591    0.371
       208  -9.0687     98.2961     60.2978   6.7948367282e+01   5.1453389046e+01    0.1445728    0.1092547   9.21 0.0001734496    1.569    0.363
       209 -11.0420     59.4077     58.6051   8.0870378147e+01   5.8799716433e+01    0.2830546    0.2674297  -6.74  0.001154918    1.131    0.116
       210 -10.2239    147.1230     57.1095   5.4545191160e+01   4.0786887761e+01    0.2707638    0.2160465 -72.50  0.001186141    1.411    0.291
       211  -9.0706     45.2079     61.6450   8.7627627530e+01   6.0171551698e+01    0.1202407   0.09900966 -66.32 0.0001859254    1.544    0.352
       212 -11.0660     75.2965     56.2179   7.4081899264e+01   5.6615302069e+01     0.221846    0.2089684  -5.93 0.0003071183    1.083    0.077
       213  -9.7715     68.4714     56.4510   7.6646962389e+01   5.7752895322e+01    0.1363533    0.1240657  -5.73 3.783405e-06    1.031    0.030
       214 -10.1499    132.2152     54.4909   5.6974393688e+01   4.4780585206e+01    0.3010027       0.1886  36.21 0.0009989616    1.816    0.449
       215 -10.6318     62.5933     52.7457   7.7519464677e+01   5.9378138057e+01     0.385892    0.2462265 -48.89  0.001957312    1.745    0.427
       216 -10.3195    120.2077     52.2727   5.9126314269e+01   4.7939300898e+01     0.248835    0.2011249  15.03 0.0005049878    1.419    0.295
       217 -11.8611    105.0780     52.6933   6.3305254456e+01   5.1272920004e+01    0.3032598    0.2320979  49.69 0.0002030386    1.273    0.215
       218  -9.8812     95.8791     52.7965   6.6046608960e+01   5.3213185366e+01    0.2192465    0.1783149   5.41 0.0008627127    1.321    0.243
       219 -11.5260     88.0290     51.3864   6.7998603675e+01   5.5036025402e+01    0.3650752     0.246271  37.74 0.0008866347    1.432    0.302
       220  -9.6765     56.5496     52.9712   7.9977069669e+01   6.0271831432e+01    0.1930687      0.10153 -23.54  0.000660594    2.451    0.592
       221  -9.9231    237.4703     51.4960   3.9832271201e+01   2.0606653215e+01    0.1288897    0.1069252 -62.44 0.0002209448    1.021    0.021
       222 -11.4312    129.2109     48.9213   5.5859381059e+01   4.6333015735e+01    0.5883022    0.3755554  -4.24  0.002509482    2.422    0.587
       223  -9.7235     99.0058     55.9651   6.6224661227e+01   5.2040540480e+01    0.2334094    0.1675461  16.05 0.0009284934    1.673    0.402
       224 -10.3052    199.1311     49.4196   4.3787276965e+01   2.9369873722e+01    0.3146024    0.1881776  76.63  0.001527245    1.734    0.423
       225  -9.8753    181.6890     49.5903   4.6283436167e+01   3.3485459684e+01    0.2388269    0.1467519 -55.82 0.0006138969    1.680    0.405
       226 -10.2619     53.1250     50.0565   8.0285471488e+01   6.1300735570e+01    0.2248933    0.1817845  24.50 0.0007536165    1.244    0.196
       227 -10.1119    152.5798     47.3787   5.0537792314e+01   4.0901759590e+01     0.302502    0.1380043  43.54  0.000764144    2.553    0.608
       228  -9.2382    119.7464     47.3351   5.7575575601e+01   4.8786041850e+01    0.1379446    0.1088212 -66.66 0.0006943412    1.566    0.361
       229 -10.5543     77.7760     45.9151   6.9376770581e+01   5.7890192531e+01    0.3438772    0.2194812 -56.53 0.0007255723    2.364    0.577
       230 -10.4601    142.8644     45.4994   5.1841990347e+01   4.3538451579e+01    0.2912413    0.2111562 -71.13  0.001357347    1.671    0.401
       231 -10.0830    111.4870     46.3749   5.9342361236e+01   5.0815619656e+01    0.3841051    0.1500344  46.30  0.001457611    2.413    0.586
       232 -10.7586     57.4422     46.2212   7.7080843560e+01   6.1321859110e+01    0.2343559     0.171383  29.53 0.0006532684    1.347    0.257
       233 -10.8765     92.0081     43.9551   6.3995064369e+01   5.5388525199e+01    0.3628066    0.2424153 -48.07  0.001109691    1.793    0.442
       234 -10.4036     96.1237     42.6445   6.2270020249e+01   5.4720794663e+01    0.2790045    0.1693295  36.79  0.000832991    1.634    0.388
       235 -10.4016     50.8778     44.8723   7.9243666309e+01   6.2533441876e+01    0.1793232    0.1551519 -10.52 0.0004974725    1.031    0.030
       236 -11.6072     51.9827     40.1919   7.6932883278e+01   6.3154129873e+01    0.4395332    0.3144585  14.14  0.001091281    1.378    0.274
       237 -11.4309     57.0676     33.9122   7.2265741234e+01   6.3342358365e+01    0.3997084    0.3345163 -42.91   0.00219722    1.459    0.315
       238  -8.9618     62.2950     44.2832   7.4415599412e+01   6.0871728635e+01    0.1328482   0.09421525   0.80 0.0002347051    1.540    0.351
       239 -10.1157    107.5532     42.4445   5.8992562049e+01   5.2263242383e+01    0.3581726    0.1796431  36.70  0.001209601    2.234    0.552
       240 -10.9243     80.4016     36.4792   6.4807927614e+01   5.8798805110e+01    0.6386133    0.3362454 -14.54  0.002660081    2.744    0.636
       241 -12.0051     69.8030     40.2227   6.9984463752e+01   6.0229178599e+01    0.4918148    0.4411321 -14.51  0.001341408    1.118    0.105
       242 -11.8329     75.1392     35.6863   6.6267852063e+01   5.9918616382e+01    0.5820989    0.3316543  10.94  0.001774172    2.767    0.639
       243 -10.4949     18.2121     42.3626   9.3211284336e+01   6.6745997955e+01    0.5239249    0.1362508 -41.51  0.001850712    3.184    0.686
       244 -10.7418     23.9153     41.8824   9.0272031805e+01   6.6316462518e+01    0.2794776    0.2538838  89.85  0.001445589    1.704    0.413
       245 -10.6469     30.1009     33.1609   8.3891998313e+01   6.7191831197e+01    0.3639015    0.2294974 -12.20 0.0006916692    1.612    0.380
       246 -11.9706     28.2116     37.9985   8.6740886304e+01   6.6575718124e+01    0.3730959    0.2106085  22.64   0.00132004    1.812    0.448
       247 -11.7057     24.3017     35.0917   8.7507050798e+01   6.7489243499e+01    0.3678012    0.2308646  -3.38 0.0008024399    1.657    0.397
       248 -10.3872    125.4017     42.6089   5.4641776873e+01   4.8132854186e+01    0.2879062    0.1347191  64.30   0.00112728    2.366    0.577
       249  -9.6390     62.2052     40.5777   7.2981451734e+01   6.1481404665e+01    0.1791014    0.1150726  26.74 0.0009376057    1.544    0.352
       250 -10.1407    232.3493     39.9538   3.7843155677e+01   2.3265762680e+01    0.1751139    0.1361151 -53.73 0.0003379727    1.121    0.108
       251 -11.0846    152.6374     39.1759   4.8069717818e+01   4.2006700746e+01    0.2573859      0.23722 -81.70 0.0004246162    1.069    0.064
       252  -9.5908    142.1803     40.6555   5.0464202340e+01   4.4366729354e+01     0.199874    0.1165617  52.58 0.0002674332    1.595    0.373
       253 -10.7578    225.2487     38.3142   3.8176936974e+01   2.5004744340e+01    0.2300202    0.1754708 -66.43 0.0003545351    1.117    0.105
       254  -9.4571    160.0718     38.4578   4.6589317874e+01   4.0277357059e+01    0.2021164    0.1271232  63.88 0.0002900469    1.472    0.321
       255  -9.3556     84.6791     34.7539   6.2741834957e+01   5.8189701522e+01    0.1351908   0.09269994  23.63 0.0002273604    1.527    0.345
       256 -10.5304      1.7230     37.3196   9.9830695033e+01   6.8873054785e+01    0.2439093    0.1346079 -49.41  0.001045089    1.439    0.305
       257  -9.6477    134.4532     35.7139   5.0422460970e+01   4.6880981453e+01    0.1796783    0.1378949  -9.32 0.0007072134    1.577    0.366
       258 -10.3722    100.3558     35.9322   5.8564716191e+01   5.4741128240e+01     0.284079    0.1727029  71.86 0.0007548759    2.383    0.580
       259 -10.2465      1.4988     25.7892   9.5922956285e+01   7.0990613339e+01    0.2178842   0.08952855 -50.40 0.0004510605    2.005    0.501
       260  -9.9348     62.9962    242.6356   1.1344615151e+02   1.5373325457e+01    0.1782062    0.1322135  54.21 0.0004921909    1.101    0.092
       261 -10.4633     88.8495    241.3057   1.0805725877e+02   1.2068709657e+01    0.2220897    0.1569766 -34.60  0.001227267    2.145    0.534
       262 -11.0533      8.3777     34.0254   9.5234211350e+01   6.9056642345e+01    0.4152806    0.3010684 -56.45  0.001870492    1.525    0.344
       263 -11.5564     17.1210     31.5272   8.9728835080e+01   6.8793381008e+01    0.5520788    0.2745206  10.11  0.002102808    2.283    0.562
       264 -11.3458     22.2036     25.4062   8.4550399191e+01   6.9314979543e+01    0.2763022    0.2289775   3.27  0.000837292    1.178    0.151
       265  -9.2682     50.3243    240.3040   1.1577659657e+02   1.7459967835e+01    0.1038588   0.09475103 -29.58 0.0007032155    1.641    0.390
       266 -10.6569     25.0790     20.1887   8.0716134862e+01   6.9800935747e+01    0.3815981    0.2311851   5.59  0.001405882    1.686    0.407
       267 -10.1195    195.2257    238.8766   8.5897149843e+01  -3.7391024767e+00    0.2373888    0.1646557  16.14  0.001408653    1.326    0.246
       268 -10.6895    243.9007    237.3530   7.6710611338e+01  -1.0137665347e+01    0.1915767    0.1436701 -27.82 0.0009848927    1.375    0.273
       269 -10.8842     29.8104    233.0152   1.1928560485e+02   2.1372613851e+01    0.2789479    0.1497994  66.08  0.001588466    1.625    0.384
       270 -11.1379    238.2473    246.9605   7.9272348159e+01  -1.0679658873e+01    0.1945102    0.1353639   8.02  0.001313781    1.169    0.145
       271 -10.3355     95.4759     34.9532   5.9567303363e+01   5.5923422866e+01    0.2328498    0.1742332 -33.49 0.0006763242    1.428    0.300
       272 -10.7270     97.3212     31.0828   5.7573500705e+01   5.6023522322e+01    0.3843741    0.2211232  52.98  0.001329364    1.617    0.381
       273 -11.3580    101.9870     28.7145   5.5424647701e+01   5.5290923098e+01    0.4016166    0.3109767  78.71 0.0007054752    1.601    0.375
       274  -9.9419     63.9700     35.2533   7.0134814085e+01   6.1993088127e+01    0.1789207    0.1477322  18.30  0.001092759    1.089    0.082
       275  -9.6340    201.8031     34.1769   3.9712118671e+01   3.0807008601e+01    0.1653841    0.1490345  60.34 0.0003482903    1.279    0.218
       276  -9.8662    108.6868     34.0098   5.5659976863e+01   5.3139004980e+01    0.3121237    0.1409958  36.04  0.001199652    2.717    0.632
       277 -11.0555    221.7379     32.0631   3.7129254426e+01   2.6580424132e+01    0.2157116    0.1646102 -75.10 0.0003020279    1.134    0.118
       278 -10.3857    205.8605     32.5685   3.8873621579e+01   3.0076877015e+01    0.1956792    0.1712974 -40.99 0.0004457341    1.263    0.208
       279  -9.9407    166.4757     33.0159   4.4026293006e+01   3.9399931129e+01     0.199389    0.1348659 -32.40  0.001033019    1.595    0.373
       280 -10.7328     89.4234     31.5323   6.0015491223e+01   5.7643529056e+01    0.2649094    0.2194918  -7.97 0.0005503677    1.235    0.190
       281 -10.7909     48.1292     31.8204   7.5083736407e+01   6.5039183213e+01    0.2165284    0.1691706  15.10  0.001356455    1.157    0.136
       282 -10.4187     50.0383     27.9805   7.2601840635e+01   6.5314085877e+01    0.2701971    0.1891972   5.05 0.0009957664    1.414    0.293
       283 -10.4210    236.2060     30.4577   3.5465031557e+01   2.3687627819e+01    0.2153684    0.1855198  50.65 0.0006647999    1.563    0.360
       284  -9.5369    145.5696     30.8024   4.6769231527e+01   4.4785369040e+01    0.1963943    0.1203274 -44.65  0.000957642    1.740    0.425
       285 -11.4488     69.6860     26.6607   6.4424442412e+01   6.2152445822e+01    0.4185239    0.2982481  23.92  0.002402611    1.321    0.243
       286 -10.5074     68.3107     22.0585   6.2921893630e+01   6.2978134386e+01    0.3840552    0.1660309  50.68  0.001052054    2.331    0.571
       287 -10.9650     58.3264     22.5773   6.6836481944e+01   6.4694903210e+01    0.4798496    0.2468705  29.06  0.001439257    1.998    0.499
       288 -10.0324     60.1636     27.1513   6.8149503670e+01   6.3783930192e+01    0.1980297    0.1587212 -53.64  0.001167668    1.812    0.448
       289 -10.4949     62.3567     23.8024   6.5846477922e+01   6.3840366344e+01    0.3094118    0.1661777 -17.60  0.001509355    2.140    0.533
       290 -10.9782    128.9018     26.8928   4.8635193141e+01   4.9274346929e+01    0.4059688    0.2543202  69.53  0.001625335    1.583    0.368
       291  -9.9086    111.5566     27.9491   5.2766720784e+01   5.3223324748e+01    0.1876698    0.1338529 -23.60 0.0003396736    1.539    0.350
       292 -10.4280    168.8639     25.8619   4.1685786699e+01   3.9673099571e+01    0.2043328    0.1759387 -81.83            0    1.078    0.072
       293 -11.5935    164.8642     23.1500   4.1483823395e+01   4.0954297874e+01    0.2573521    0.2174209  80.75            0    1.051    0.048
       294  -9.3360    144.3128     26.6500   4.5703469565e+01   4.5576558828e+01    0.1422986   0.09758168 -68.51 0.0007046048    1.722    0.419
       295 -10.3288    109.4418    242.7743   1.0395060551e+02   8.7504866603e+00     0.243422     0.159267  56.31 0.0006962625    1.489    0.329
       296  -9.6527    203.4405     25.2195   3.7382686945e+01   3.1536269239e+01    0.1872008    0.1005617 -48.40 0.0009451405    1.713    0.416
       297  -9.6431    193.3261     25.6621   3.8583287130e+01   3.3834806851e+01    0.1429766   0.08510307 -66.61 0.0007051548    1.725    0.420
       298 -11.4842     95.6273     22.8660   5.4864400467e+01   5.7359910551e+01     1.210785    0.2541227  57.77  0.003502706    4.947    0.798
       299  -9.7752     99.2634     20.6404   5.3055140843e+01   5.6806258823e+01    0.2352016    0.1504432  65.88 0.0009283851    1.668    0.400
       300 -10.1553     24.1169    232.4582   1.2035648298e+02   2.2114417982e+01    0.1929808    0.1663035 -69.77 0.0006843242    1.433    0.302
       301 -10.9425    103.1015     19.4797   5.1661673115e+01   5.6074702668e+01    0.3123139    0.2278633  68.86  0.001144493    1.449    0.310
       302 -10.4103    186.0783     22.9946   3.8741467501e+01   3.5859366911e+01    0.2031588    0.1679189 -80.00 0.0004905484    1.070    0.066
       303  -9.6387    226.0398     22.4554   3.4629736480e+01   2.6829572272e+01    0.1764977    0.1083476  74.77   0.00100878    1.552    0.356
       304 -10.0460    192.6892     21.6291   3.7654050283e+01   3.4454294977e+01    0.2016437    0.1440924  44.07  0.001119939    1.751    0.429
       305 -10.1828     38.2362    232.7995   1.1760937688e+02   2.0451236022e+01    0.1785644    0.1293449  68.89 0.0006483658    1.114    0.103
       306  -9.5832    169.9862    229.0490   8.9378891631e+01   1.7104692719e+00     0.157166    0.1394403  16.42 0.0004822796    1.029    0.028
       307 -10.0497    172.5178     20.0229   3.9606405783e+01   3.9443586917e+01    0.1786894    0.1268994 -36.50 0.0003687087    1.498    0.333
       308 -10.5798    155.0206    227.5144   9.2262257527e+01   4.3850378314e+00    0.2592368    0.1683445  80.02  0.001048564    3.563    0.719
       309  -9.3707     50.5448     18.5238   6.8093706893e+01   6.6496265328e+01    0.1476058    0.1105422  40.35 5.966322e-05    1.402    0.287
       310 -11.3362      4.6138    226.6563   1.2375384585e+02   2.5296347952e+01    0.3055605    0.1643875  58.69  0.001886709    1.483    0.326
       311  -9.8716    190.5035    226.4895   8.4803038798e+01  -1.0826673524e+00    0.2129323    0.1134135 -29.88 0.0007928282    2.120    0.528
       312 -11.2675    120.3722    226.4736   9.9563648992e+01   1.0184342242e+01    0.2360925    0.1718725 -64.10 0.0008656183    1.568    0.362
       313  -9.5206    139.6610     19.7167   4.4328885386e+01   4.7462249683e+01    0.1386815   0.09054799  40.98 0.0003286864    1.628    0.386
       314  -9.6522     54.6840     18.9539   6.6616357589e+01   6.5762557552e+01      0.16576    0.1417734   3.96 0.0008358742    1.081    0.075
       315  -9.6867    151.4892     18.5032   4.2072339387e+01   4.4714145552e+01    0.1342254    0.1165787  87.56 0.0006035676    1.075    0.070
       316  -9.7545    143.1981     17.1655   4.2949842030e+01   4.6866521688e+01    0.1771912    0.1423839 -78.51 0.0002658898    1.299    0.230
       317 -10.1491     65.9981    226.1995   1.1132466929e+02   1.8332893749e+01    0.2048547    0.1694549 -87.63  0.000595607    1.181    0.153
       318 -11.8106      5.1196    235.7166   1.2410843119e+02   2.3400360364e+01    0.4417563    0.2880824  55.79  0.001851275    1.235    0.190
       319 -11.4650     21.1542    222.4283   1.2029991079e+02   2.4531466883e+01    0.2605917    0.1752531  78.38  0.001006755    1.217    0.178
       320  -9.6363    126.5380    221.5494   9.7523596533e+01   1.0164431684e+01    0.2183103    0.1121292  47.15   1.2887e-05    1.853    0.460
       321  -9.9357    143.1409    220.6358   9.3750729578e+01   7.6119901046e+00    0.2037953    0.1183167  27.75 0.0009508891    1.783    0.439
       322 -10.8725     74.5788     15.9933   5.8177187847e+01   6.2464475456e+01    0.3207232    0.1941365  52.56 0.0008298597    1.592    0.372
       323 -10.5861     70.2868     13.5980   5.8512688147e+01   6.3550061865e+01    0.2605469    0.1687404  40.03 0.0009051225    1.333    0.250
       324  -9.9799     37.9555    217.6880   1.1651052737e+02   2.3696533229e+01    0.1748965    0.1381172  57.32 0.0007948825    1.133    0.117
       325 -11.5739      9.8133    217.3375   1.2224164344e+02   2.6762893057e+01    0.3254663    0.1770446  61.16  0.001929543    1.526    0.345
       326 -11.2886     29.9140    215.8783   1.1805537403e+02   2.5003278330e+01    0.3363211    0.2661574  21.69   0.00184444    1.687    0.407
       327 -11.8458    236.0803    214.3466   7.4086771798e+01  -5.9044377602e+00    0.4486469    0.2490111 -21.28  0.001984777    1.810    0.448
       328 -10.2004     21.5238    212.6533   1.1956802343e+02   2.6609323128e+01    0.2998426    0.1385047  52.36  0.001570957    1.868    0.465
       329  -9.8323     30.9763     12.8316   7.4179380684e+01   7.0092366485e+01    0.1766892    0.1244485   1.10 0.0005062308    1.231    0.187
       330  -9.8973     67.0023    215.2154   1.0998949591e+02   2.0566915704e+01    0.1916363    0.1541054 -12.53   0.00085313    1.937    0.484
       331 -10.0411    208.9502    212.0218   7.8672048093e+01  -1.5720066885e+00    0.2031563    0.1654725  -1.39 0.0005769121    1.095    0.087
       332  -9.6081     76.3276    212.3013   1.0757703412e+02   1.9906752772e+01    0.1236637    0.1054585 -21.73 0.0003634965    1.642    0.391
       333 -12.2369      4.7296    207.9156   1.2271242379e+02   2.9283231796e+01    0.5928044    0.2693463  84.28  0.003085956    1.976    0.494
       334 -10.5166     10.8131    208.5097   1.2150591978e+02   2.8587582857e+01    0.2192337    0.1655894 -56.30 0.0005355502    1.634    0.388
       335 -10.2333     23.6965    216.3172   1.1937463186e+02   2.5579507326e+01    0.1970188    0.1580834 -24.75  0.001237858    2.045    0.511
       336 -10.2673    243.4720    202.4360   7.0625878415e+01  -5.1477370715e+00    0.1757788    0.1068779  23.08 8.859527e-05    1.698    0.411
       337  -9.3369    188.2442    205.3495   8.1570556668e+01   2.8935048054e+00     0.136536   0.09759425 -10.45 0.0003723004    1.579    0.366
       338 -11.0950     19.6844    200.8070   1.1910549357e+02   2.9448426804e+01    0.4766422    0.1364536 -73.46  0.001935689    2.988    0.665
       339 -10.3012    175.4425    202.7907   8.3772530654e+01   5.5324398464e+00    0.2416487    0.1824671  35.29 0.0005285735    1.260    0.206
       340 -10.4497    107.9831    209.9839   1.0004354564e+02   1.5578649794e+01    0.2275056    0.1554976  66.44 0.0007314272    1.667    0.400
       341  -9.1458    238.6635    200.7011   7.1133882894e+01  -4.2027193698e+00    0.1312156   0.08547632  -2.83 0.0007033407    1.656    0.396
       342 -10.0092    215.4137    194.7886   7.4233596126e+01   2.8435689363e-01    0.1858377    0.1141587 -26.71 0.0002568548    1.604    0.377
       343 -10.8557     16.8058    193.3311   1.1917535209e+02   3.1446253400e+01    0.2814119    0.2144483  27.76  0.001569101    1.610    0.379
       344  -8.7536    101.6833    192.3047   9.8918917616e+01   2.0553573774e+01    0.1491702    0.1044845  68.61 0.0003580157    1.625    0.385
       345  -9.5564      2.1724    187.8247   1.2201517022e+02   3.4025002203e+01    0.1600132    0.1246091 -66.71  0.000832936    1.352    0.260
       346 -11.1048     16.5223    184.5353   1.1854961563e+02   3.3529551690e+01     0.381637    0.1909272 -76.64  0.001517351    1.695    0.410
       347 -10.1137     14.6980    180.6703   1.1865839393e+02   3.4612961972e+01     0.190124    0.1748487  85.39 0.0006975939    1.202    0.168
       348 -10.3929    168.4721    184.2222   8.1783232401e+01   1.0410044330e+01    0.3416961    0.2196071  71.14  0.001305943    3.044    0.671
       349 -10.0265     58.8378    182.1629   1.0809344741e+02   2.9358230995e+01    0.1980464    0.1740243  66.48 0.0009805979    1.076    0.071
       350  -9.3984      1.5510    180.5166   1.2166539517e+02   3.5769379630e+01    0.1230628   0.09531254  86.84 0.0001480389    1.010    0.010
       351  -9.8651    244.4517    178.4958   6.5891491308e+01  -1.5356496154e+00    0.2367772    0.1045589 -28.90  0.001021751    2.302    0.566
       352 -10.7691     46.5065    177.7890   1.1064950106e+02   3.1975960141e+01    0.3185482    0.2394925 -79.45  0.001145019    1.190    0.160
