#   1 NUMBER                 Running object number                                     
#   2 MAG_AUTO               Kron-like elliptical aperture magnitude                    [mag]
#   3 X_IMAGE                Object position along x                                    [pixel]
#   4 Y_IMAGE                Object position along y                                    [pixel]
#   5 X_WORLD                Barycenter position along world x axis                     [deg]
#   6 Y_WORLD                Barycenter position along world y axis                     [deg]
#   7 A_WORLD                Profile RMS along major axis (world units)                 [deg]
#   8 B_WORLD                Profile RMS along minor axis (world units)                 [deg]
#   9 THETA_WORLD            Position angle (CCW/world-x)                               [deg]
#  10 FWHM_WORLD             FWHM assuming a gaussian core                              [deg]
#  11 ELONGATION             A_IMAGE/B_IMAGE                                           
#  12 ELLIPTICITY            1 - B_IMAGE/A_IMAGE                                       
         1 -15.3654     67.5800    143.7884   1.1809927965e+02   3.7935081302e+01     6.501384     2.629504  55.54   0.02034041    3.541    0.718
         2 -14.6099    207.1694     18.3136   5.3982233178e+01   3.0996248407e+01      1.28577     1.049793  19.84    0.0079313    1.815    0.449
         3 -14.4936    195.8632     31.9021   5.8347372285e+01   3.1988982078e+01     1.624935     1.189256  29.71  0.008249878    2.035    0.508
         4 -11.1006     63.9150      9.2176   7.4817101631e+01   6.7962075677e+01    0.2624299    0.2016327 -83.26  0.001393324    1.774    0.436
         5 -11.9208     29.9467      2.1815   8.7911615506e+01   7.5725576671e+01    0.4251416    0.1650237  47.42  0.001817132    2.615    0.618
         6 -11.1712     70.8946    229.6669   1.2701888083e+02   1.8059419406e+01    0.3838375    0.2266964  13.89  0.001967095    2.069    0.517
         7 -16.2445    109.5221    246.1228   1.1988135658e+02   1.0264321843e+01      11.7294     1.826566  32.24    0.0375676    4.416    0.774
         8 -10.7520    207.7420    183.8393   9.0757959555e+01   6.4344129861e+00     0.235967     0.170504 -35.47   0.00118492    1.405    0.288
         9 -10.6852    211.1815    180.0836   8.9483626338e+01   6.4992650900e+00    0.3599918    0.1917428 -21.09  0.001807744    2.069    0.517
        10 -12.0188     71.7728    181.5878   1.2204302978e+02   2.8092098914e+01    0.4100323     0.284905 -33.06  0.001261458    1.941    0.485
        11 -11.9514     76.0745    176.0491   1.2015628396e+02   2.8778526856e+01    0.3355921    0.2696476 -37.32  0.000690763    1.506    0.336
        12  -9.9845     99.8647    180.5139   1.1426077033e+02   2.4191295422e+01    0.2183743    0.1287776  33.25 0.0006057274    1.518    0.341
        13 -10.0895    198.2778    176.8607   9.1214495127e+01   8.8913139127e+00    0.2094911    0.1663707  35.85  0.001008185    1.352    0.260
        14 -12.4894     90.4446    159.0612   1.1355301021e+02   3.0619172430e+01    0.8933312    0.5995269   6.74  0.001349737    2.098    0.523
        15 -14.9675     10.8902    206.3836   1.3989874182e+02   2.9272599859e+01     0.886892    0.7507258   1.62  0.002407501    1.546    0.353
        16 -10.8142    196.0267    170.9958   9.0546796691e+01   1.0169814740e+01     0.306862    0.2516767  10.58  0.001006927    1.122    0.109
        17 -10.1088    193.5997    164.8338   8.9831620100e+01   1.1558366779e+01     0.246499    0.1576301 -49.66    0.0011022    1.876    0.467
        18 -10.0516    140.1910    156.9195   9.9773867774e+01   2.2367030044e+01    0.2518476    0.1959663  61.44  0.000639251    1.545    0.353
        19 -11.0727    133.8045    145.3262   9.9013308155e+01   2.6008086079e+01     1.004817    0.2237547 -52.81   0.00233796    6.424    0.844
        20 -12.5309     44.1395    148.5387   1.2638982584e+02   3.9772681156e+01    0.5371588    0.3563587   2.08 0.0006633573    2.017    0.504
        21 -11.0732     36.5081    150.5143   1.2907673329e+02   4.0107689238e+01    0.2882732    0.1291583  27.16  0.001198262    2.140    0.533
        22 -10.3285    174.6743    149.0798   9.0407205452e+01   1.7548907289e+01    0.2334232    0.1916917  47.86 0.0006224653    1.326    0.246
        23 -12.0065     53.7137    147.0310   1.2308399107e+02   3.8997478446e+01    0.3969757    0.3569785 -68.28  0.002229892    1.157    0.135
        24 -11.4031    104.0357    142.5011   1.0657737556e+02   3.2239501210e+01    0.6209674    0.3983953 -26.23  0.002509848    2.291    0.563
        25 -12.3326     91.5271    142.9715   1.1040562739e+02   3.4333573786e+01    0.3022621    0.2771328  -4.84 0.0005356171    1.233    0.189
        26 -13.5158     44.5959    128.9060   1.2366292186e+02   4.4863347871e+01    0.8096486    0.4892003  89.91   0.00357527    1.858    0.462
        27 -10.2197    105.7435    130.6443   1.0359911769e+02   3.4739209179e+01    0.3001939    0.2675843  81.70  0.001534624    1.213    0.176
        28 -11.0249    100.0039    128.5018   1.0486684357e+02   3.6338431695e+01    0.3296657    0.2606596 -13.95 0.0009639501    1.642    0.391
        29 -11.0029    117.7238    126.7257   9.9239120599e+01   3.3305842078e+01    0.3659164    0.1823768 -44.18  0.001324534    2.133    0.531
        30  -9.8104    160.3223    127.6734   8.8777203996e+01   2.4372059502e+01    0.1471695    0.1182119 -86.15 0.0007048192    1.688    0.407
        31 -13.2643     84.7978    165.9180   1.1626181329e+02   2.9876233330e+01     1.993902    0.3029905  40.52 0.0007718349    4.862    0.794
        32 -13.6321     72.6223    161.7788   1.1922882546e+02   3.2695047756e+01    0.7559213    0.5877057 -25.60  0.002202242    1.655    0.396
        33  -9.7730    108.6644    120.1678   1.0033518464e+02   3.6644328805e+01    0.2075383     0.197258 -42.82 0.0004875222    1.101    0.092
        34 -13.8721     24.8669    194.9132   1.3587428813e+02   3.0512774864e+01     1.384253    0.2617005  37.49  0.003115894    3.083    0.676
        35 -10.2750    112.5556    131.9385   1.0188898977e+02   3.3123612268e+01    0.3122275    0.2366356   7.16 0.0008398487    1.734    0.423
        36  -9.6458    109.7313    115.1396   9.8796276214e+01   3.7603234436e+01    0.2314268    0.2036377  79.50 0.0008297035    1.240    0.193
        37  -9.8854    167.8419    112.6864   8.3615562878e+01   2.5678663968e+01    0.2880411    0.1866094 -64.99  0.001224311    2.160    0.537
        38 -14.8039     48.3532    210.0590   1.3090131346e+02   2.4697569532e+01     1.594144     1.121973 -28.21  0.008721183    2.135    0.532
        39  -9.6804    205.5233    110.0491   7.6221345730e+01   1.8502520361e+01    0.1878743    0.1842314  47.48 0.0006679394    1.136    0.120
        40 -11.8567     40.7484    107.9227   1.2178321067e+02   5.0892553610e+01    0.3472571    0.2380424 -75.51  0.001002673    1.455    0.313
        41 -10.0619     80.9288    194.7791   1.2113175206e+02   2.3861350359e+01    0.3535161    0.1778731  28.14  0.001581098    1.847    0.459
        42  -9.3018     25.0037     82.4968   1.2404657106e+02   5.9187396524e+01    0.1941035    0.1382465  20.39 0.0003701645    1.480    0.324
        43  -9.9835     62.1872     68.9758   1.0282977131e+02   5.7694632590e+01    0.2318113    0.2016912  71.97 0.0007024698    1.318    0.241
        44 -10.8302    160.5111     62.0221   7.1434512718e+01   3.6302800637e+01    0.4527322    0.2707288 -72.68  0.001836259    2.316    0.568
        45 -11.0019    155.5775     57.8590   7.1083166912e+01   3.8183527743e+01    0.4991902    0.2875425 -79.99  0.001892495    2.674    0.626
        46 -10.3056    160.2203     53.9339   6.9103726511e+01   3.7625709834e+01    0.2530654    0.1846078 -77.01 0.0003795616    1.482    0.325
        47 -15.2174     57.4133    200.0197   1.2779463855e+02   2.5792908024e+01     2.697385     1.671124  61.27    0.0113305    1.588    0.370
        48 -13.1642    186.8297     38.5478   6.1044534710e+01   3.3269241830e+01    0.5912486    0.5289237  41.15  0.001080138    1.386    0.278
        49 -10.3766    147.0339    185.3303   1.0333909401e+02   1.5576777940e+01    0.1975429    0.1632541  28.78  0.000514812    1.086    0.079
        50 -10.7549     27.4819     35.5057   1.0899720187e+02   7.0210384790e+01    0.2439347    0.1079724  38.04  0.001036837    2.386    0.581
        51 -10.7432    189.6757     15.0106   5.4500897936e+01   3.5354793090e+01    0.1847854    0.1511934 -54.33 0.0005387003    1.107    0.097
        52 -12.5208    194.9302    194.4358   9.4939909277e+01   6.6743038414e+00    0.6566122    0.5898142  73.94  0.004237534    1.858    0.462
        53 -17.4592      6.1124    239.6725   1.4199637964e+02   2.3008490816e+01     13.12247     2.086302 -81.64   0.01351074    6.424    0.844
        54  -9.6118     95.1705     41.7966   7.9734304216e+01   5.6047158813e+01    0.2963194    0.1622116 -49.83  0.001208199    2.137    0.532
