#   1 NUMBER                 Running object number                                     
#   2 MAG_AUTO               Kron-like elliptical aperture magnitude                    [mag]
#   3 X_IMAGE                Object position along x                                    [pixel]
#   4 Y_IMAGE                Object position along y                                    [pixel]
#   5 X_WORLD                Barycenter position along world x axis                     [deg]
#   6 Y_WORLD                Barycenter position along world y axis                     [deg]
#   7 A_WORLD                Profile RMS along major axis (world units)                 [deg]
#   8 B_WORLD                Profile RMS along minor axis (world units)                 [deg]
#   9 THETA_WORLD            Position angle (CCW/world-x)                               [deg]
#  10 FWHM_WORLD             FWHM assuming a gaussian core                              [deg]
#  11 ELONGATION             A_IMAGE/B_IMAGE                                           
#  12 ELLIPTICITY            1 - B_IMAGE/A_IMAGE                                       
         1 -13.6741     68.7321    144.5901   9.5571411892e+01   3.7587711787e+01     3.943015     2.020114  70.20  0.002985022    5.209    0.808
         2 -13.5777    206.4398     42.6456   3.7407167294e+01   2.9311437667e+01     1.675039      1.30202  33.17  0.007582093    1.860    0.462
         3 -13.3795    219.4518     31.0283   3.3536632562e+01   2.8024653625e+01    0.9817849    0.7941905  43.12  0.006414935    1.712    0.416
         4 -12.3732    245.2408      8.0597   2.7075076734e+01   2.5547744696e+01    0.6972767    0.4308385 -77.52  0.004758154    1.349    0.259
         5 -11.5272    247.4818      2.3244   2.5912366564e+01   2.5732240132e+01    0.5452508    0.1742125  82.00  0.002612683    3.190    0.687
         6  -9.5224     49.6201      3.1239   5.6845028094e+01   6.7917779250e+01    0.2528871     0.165435  59.92  0.001070491    2.041    0.510
         7  -9.0788     44.7947      1.5774   5.7991516236e+01   6.8885156096e+01    0.2157026    0.1064242  50.33  0.001054071    2.033    0.508
         8  -9.5845      1.9825      2.4834   8.1067795884e+01   7.4443141829e+01    0.1746929    0.1083091 -40.74  0.001155386    1.798    0.444
         9  -9.8453     74.6679    207.8388   1.0367177153e+02   2.0971168721e+01    0.3170096    0.2165659 -85.72 0.0008760162    1.629    0.386
        10  -9.5500    102.0871    250.2957   1.0244181473e+02   8.1320848969e+00    0.1972108    0.1697754  49.45 0.0006446107    1.077    0.071
        11 -10.6943    101.6473    244.2895   1.0184520686e+02   9.3517523682e+00     0.393162    0.1676064 -63.52    0.0017155    2.847    0.649
        12 -15.0522      5.3152    185.3099   1.1827608364e+02   3.3932903647e+01     11.39089     1.027979 -74.92   0.02493577    7.915    0.874
        13  -9.3964    111.1780    203.8500   9.4130188069e+01   1.6479396088e+01    0.2118417    0.1834169  57.33 0.0003771019    1.192    0.161
        14 -10.2880    191.4221    191.9393   7.3445293134e+01   5.6389710278e+00    0.5508592    0.3242667 -67.74  0.001843973    4.609    0.783
        15  -9.3834    122.6158    199.7119   9.0648958135e+01   1.5566781572e+01    0.3161319    0.2261402  77.97  0.001236557    2.044    0.511
        16  -8.5157     81.8670    195.3669   1.0021463996e+02   2.2913758388e+01     0.199101    0.1349841  18.37 0.0009410016    1.754    0.430
        17  -8.6919    149.7850    192.2037   8.2754124938e+01   1.2630549728e+01     0.236402    0.1629504  78.31 0.0009444823    2.761    0.638
        18  -8.3283     80.8360    183.4165   9.8720970545e+01   2.5978370128e+01    0.1915697    0.1413198  15.19 0.0003009106    1.614    0.380
        19  -9.1570     99.5995    180.8668   9.3320093708e+01   2.3736121032e+01    0.2382022    0.2071758  17.15 0.0006168199    1.232    0.188
        20  -9.3817    186.0924    174.1547   7.1004097966e+01   1.0026480507e+01    0.3278835    0.2621974  52.21  0.001714076    1.515    0.340
        21 -11.3587     62.5520    172.4275   1.0202448719e+02   3.1261433201e+01    0.4661522    0.2989647 -32.83   0.00120732    2.015    0.504
        22 -11.3312     67.4179    167.6366   9.9938586144e+01   3.1838536065e+01     0.446734      0.33308  -0.24  0.001218524    1.756    0.430
        23  -8.8810     85.0157    174.2456   9.6126482063e+01   2.7644185758e+01    0.2995594      0.23613   9.15 0.0007829907    1.517    0.341
        24  -9.2535     88.3123    172.6608   9.4954905856e+01   2.7538960190e+01    0.2613666    0.2103316  76.10 0.0008090157    1.405    0.288
        25 -11.8075     84.4721    152.5276   9.2374445263e+01   3.3228888487e+01     1.176118    0.5966528 -54.68  0.004745527    1.861    0.463
        26 -12.0079     77.0559    158.7100   9.5686012527e+01   3.2768112876e+01    0.9914569    0.5239271  60.11 0.0004109934    2.843    0.648
        27 -12.7590     64.3855    154.4997   9.8659621120e+01   3.5622837261e+01    0.5193666    0.3701628 -31.20 0.0008886962    1.651    0.394
        28 -10.5934    119.8387    244.9644   9.7945291784e+01   6.6159927982e+00    0.2828013    0.1839932 -54.20 0.0009136431    1.753    0.430
        29 -11.3598    138.4742    216.5855   8.9645478712e+01   9.3792220720e+00    0.4620124    0.2515784  33.45  0.001702494    1.707    0.414
        30 -10.9258     23.5895    148.2964   1.0983129845e+02   4.1678357495e+01    0.5292671    0.2338832 -82.10  0.002123462    2.488    0.598
        31 -10.2460    133.7642    145.2206   7.6999753959e+01   2.6249137058e+01     1.150556    0.2768939 -53.95  0.002447403    6.578    0.848
        32  -9.1618    174.8938    149.1731   6.8034243336e+01   1.7253808791e+01    0.2278032    0.2102448 -82.44 0.0007149619    1.279    0.218
        33 -10.1235     54.7072    147.4371   1.0036360108e+02   3.8685103603e+01    0.4909583    0.2181463 -46.69  0.001682248    2.262    0.558
        34  -9.9765     32.9897    143.3696   1.0634961534e+02   4.2097135626e+01    0.4334677    0.2701451  19.14  0.002154898    1.875    0.467
        35  -9.5651     98.6680    139.6838   8.5516548736e+01   3.4127925152e+01    0.2955667      0.28447  -2.36 0.0007581688    1.061    0.058
        36  -9.1331    101.3564    136.9572   8.4110768412e+01   3.4329784483e+01    0.3487606    0.2246685 -31.49  0.001124625    1.831    0.454
        37 -11.6952     86.6890    138.0403   8.8748319382e+01   3.6552056962e+01    0.3277184    0.2807192 -50.72 0.0004480515    1.117    0.104
        38  -8.9854    110.9331    167.4961   8.7838638089e+01   2.5116516728e+01    0.2762676     0.218198 -81.42 0.0009880108    1.522    0.343
        39  -9.8659     17.0462    132.5497   1.0976653313e+02   4.6216722821e+01    0.2464829    0.1609924  65.43  0.001266202    1.799    0.444
        40  -9.3616    105.6873    130.3494   8.1293810276e+01   3.5158892599e+01    0.3971746    0.2875811 -68.95  0.001429871    1.659    0.397
        41  -9.7654    109.2430    129.7571   8.0112795180e+01   3.4640051220e+01    0.3840594    0.2680795  23.94   0.00114828    1.629    0.386
        42  -9.5736    135.6271    129.4644   7.2765905713e+01   2.9507231062e+01    0.4055636    0.1415003 -42.26  0.001258058    2.923    0.658
        43  -9.2314     44.7958    165.6682   1.0601246370e+02   3.5132660078e+01    0.2574883    0.1758678  65.46 0.0006167036    1.607    0.378
        44  -9.4419     97.3592    124.8583   8.2462929607e+01   3.7998017960e+01    0.2854588    0.2336781  -0.61 0.0009710725    1.411    0.291
        45  -7.8206    101.6661    163.3281   8.9563326025e+01   2.7721610454e+01     0.159837    0.1187921  72.10 0.0007051814    1.720    0.419
        46  -9.1150    106.6283    118.3867   7.8053210206e+01   3.7828652932e+01    0.2580082    0.1805781 -43.42 0.0002990451    1.395    0.283
        47 -10.0207    231.2234    113.6895   4.9837549781e+01   1.3266047422e+01    0.2504378    0.2355914 -52.96 0.0007735989    1.107    0.097
        48  -8.2947     80.0018    114.5379   8.5424135543e+01   4.3448403076e+01    0.2121398    0.1234452  56.16 0.0008074155    2.469    0.595
        49 -10.7957     53.4862    110.4995   9.3516909064e+01   4.8227603359e+01    0.4693532    0.2555248 -63.82  0.002016675    1.901    0.474
        50 -10.8808    246.1979    110.7236   4.7142448540e+01   1.1115785160e+01    0.4263567    0.1630081  54.03  0.001850092    3.177    0.685
        51  -9.2494    205.4170    110.2837   5.3138423274e+01   1.8823044713e+01    0.2791418    0.1963462  46.95 0.0009078206    1.581    0.368
        52  -8.9820     30.1534    107.9615   1.0132551846e+02   5.1339556925e+01    0.1983684    0.1765087 -89.71 0.0005060772    1.260    0.207
        53 -10.6635    249.9772    100.6967   4.4631598359e+01   1.2096074657e+01    0.3072216    0.1404762 -46.07  0.001491105    1.806    0.446
        54 -11.4853    240.2294    170.0278   5.9990797946e+01   1.9585961322e+00    0.4341453     0.264765 -10.00  0.002109539    2.186    0.543
        55  -8.3479     27.6338     94.2810   9.9436810279e+01   5.4871906793e+01    0.1297146    0.1011434  61.20 0.0004463704    1.685    0.407
        56 -11.7526    246.3130     91.4525   4.3206716774e+01   1.4209764791e+01    0.3831802    0.2917279 -35.16  0.002377253    1.279    0.218
        57  -9.2349     52.9927     90.7449   8.8812234609e+01   5.2977519336e+01    0.1991194    0.1773216 -17.26 0.0005174883    1.060    0.057
        58 -16.4616     16.0976    241.9287   1.1960988065e+02   2.0292056235e+01     6.846598     2.797059  20.31   0.02995055    3.801    0.737
        59  -9.1935     46.8324     61.9095   8.2618382522e+01   5.9881366611e+01    0.2122099    0.1763762  11.55 0.0003874107    1.163    0.140
        60 -12.0614    196.9044     48.9703   4.0015577306e+01   3.0548813587e+01    0.5742784    0.4961432  50.84  0.001806145    1.347    0.258
        61 -10.8150     95.0133    240.4948   1.0286348710e+02   1.1037271540e+01    0.5051292    0.2319892 -75.19  0.001928293    3.478    0.712
        62 -10.6749     13.4281     59.9853   9.6994985074e+01   6.3626925419e+01     0.264029     0.195925 -43.88 0.0004324579    1.132    0.117
        63 -11.1863    197.2328    203.4738   7.4446729539e+01   2.5703890423e+00    0.4347548     0.265362  28.34  0.002197304    1.632    0.387
        64  -8.4030    234.3255     45.2659   3.5086693941e+01   2.3217324344e+01     0.103953    0.0929965  41.88 0.0002758255    1.567    0.362
        65 -13.2726     35.7860    196.7323   1.1192543670e+02   2.8367231413e+01    0.9277573    0.7577733  70.82  0.002359724    1.112    0.101
        66  -8.9146    197.9339     23.8715   3.4066128074e+01   3.3451207290e+01    0.1732199    0.1609197  60.87 0.0007154291    1.303    0.233
        67  -8.8600    189.7088     15.0272   3.2865204580e+01   3.6223656184e+01    0.1688281    0.1431053 -67.89  0.000671448    1.107    0.097
        68 -13.9412     45.0814    187.3956   1.0862457796e+02   2.9623066420e+01     2.295683     1.294387  47.72    0.0094913    1.755    0.430
        69  -8.3289    169.0016    235.9516   8.5982735362e+01   1.0175831565e+00    0.1562889    0.1351523 -18.95 0.0007818471    1.164    0.141
        70 -10.7962    144.9279    227.6801   8.9930559153e+01   6.1647000728e+00    0.2486581    0.2102788 -56.80  0.001456337    1.390    0.281
        71 -14.8098      9.4449    208.4247   1.1894127821e+02   2.8179328993e+01      3.14578     1.106026 -60.84  0.004100362    2.702    0.630
