#   1 NUMBER                 Running object number                                     
#   2 MAG_AUTO               Kron-like elliptical aperture magnitude                    [mag]
#   3 X_IMAGE                Object position along x                                    [pixel]
#   4 Y_IMAGE                Object position along y                                    [pixel]
#   5 X_WORLD                Barycenter position along world x axis                     [deg]
#   6 Y_WORLD                Barycenter position along world y axis                     [deg]
#   7 A_WORLD                Profile RMS along major axis (world units)                 [deg]
#   8 B_WORLD                Profile RMS along minor axis (world units)                 [deg]
#   9 THETA_WORLD            Position angle (CCW/world-x)                               [deg]
#  10 FWHM_WORLD             FWHM assuming a gaussian core                              [deg]
#  11 ELONGATION             A_IMAGE/B_IMAGE                                           
#  12 ELLIPTICITY            1 - B_IMAGE/A_IMAGE                                       
         1  -9.4050    190.1592     28.7934   3.5177274801e+02   3.5112876031e+01    0.7179316    0.2727189 -68.61  0.002742324    3.684    0.729
         2 -10.4026    114.8224     12.8325   3.5566936454e+02   5.4395905668e+01    0.5180922    0.2127027 -42.72  0.002253663    2.382    0.580
         3 -10.8925    128.0421     23.8907   3.5749349302e+02   4.9915235293e+01    0.9621405    0.5729987 -70.99  0.004663095    1.825    0.452
         4 -10.7948    118.8402     20.7334   3.5787404622e+02   5.2545330485e+01    0.7774051    0.4708001 -81.93  0.003770971    1.805    0.446
         5  -9.5692     76.0431     20.0963   7.2571296192e+00   6.3102226807e+01    0.5759048    0.3513886   0.06  0.002496414    2.786    0.641
         6 -10.2560     93.6764     17.7947   1.6037737031e+00   5.9104555419e+01     0.543817    0.3204062 -27.63  0.002689025    1.923    0.480
         7  -8.5593    132.4287      2.7609   3.4991284918e+02   5.1033325590e+01    0.2011918    0.1598116  63.31 0.0008891682    1.308    0.236
         8  -9.8241    137.0736      7.7643   3.5103616190e+02   4.9445403463e+01     0.461271    0.2681969  83.18  0.001574057    1.546    0.353
         9  -8.6090    153.3631     16.7779   3.5205170092e+02   4.4648074876e+01    0.3222347    0.2087498 -11.50  0.001244229    2.254    0.556
        10 -10.7670    146.6807     11.5729   3.5120290939e+02   4.6769919527e+01    0.7215263    0.4292489 -78.57  0.001981364    1.592    0.372
        11  -8.4351    226.8771     15.0932   3.4626058904e+02   2.9535344402e+01    0.2820684    0.2066653  19.99  0.001744719    2.793    0.642
        12  -9.1074    223.9927     11.9481   3.4575753092e+02   3.0393483047e+01    0.2316385    0.1155995 -49.71 0.0009375675    1.448    0.309
        13 -10.6949     14.9387     13.7877   3.5878510822e+01   7.6012946875e+01    0.5120595    0.4314272 -18.64  0.003314308    1.136    0.120
        14  -8.1626    239.7647     12.5644   3.4514101369e+02   2.7544752028e+01    0.1945486    0.1045073 -50.99 0.0008284961    1.301    0.231
        15  -9.6406    168.6420      4.1825   3.4721813868e+02   4.2445141495e+01    0.3704978    0.2135585 -70.73  0.002101054    1.513    0.339
        16  -8.7805    179.8493     14.9798   3.4918915196e+02   3.8877213084e+01    0.4133322    0.1782771  62.42  0.002030037    2.438    0.590
        17 -10.1606    171.2946      9.6713   3.4847558168e+02   4.1309434037e+01     1.075295    0.3871154  87.66  0.004475663    3.023    0.669
        18  -8.1927     63.0066     14.6039   8.8216790767e+00   6.6801216290e+01    0.3012837    0.1572789 -35.91  0.001430549    2.087    0.521
        19  -8.1697    218.8605     14.9016   3.4664356960e+02   3.1025441111e+01    0.2006332    0.1270837 -50.78 0.0005316808    1.178    0.151
        20  -8.2011    217.9025     12.0000   3.4607860187e+02   3.1514019805e+01    0.2350779    0.1346031 -87.70  0.001035884    1.682    0.405
        21  -8.2242    212.2248     14.0561   3.4683028465e+02   3.2370587143e+01    0.2784459    0.1719222 -14.95  0.001575913    2.500    0.600
        22  -9.2679    202.5762      9.6194   3.4639285787e+02   3.4724177924e+01    0.4706134    0.3075407  -3.16  0.002587308    2.867    0.651
        23  -8.8230    197.0477     12.5131   3.4738984272e+02   3.5532563380e+01    0.2659236    0.1914827 -87.42   0.00141062    1.287    0.223
        24  -9.5799    196.2508      8.1856   3.4642984196e+02   3.6146277537e+01     0.340386     0.237512 -56.36  0.001510382    1.112    0.101
        25 -10.2455    194.2369      2.1276   3.4512842988e+02   3.7163778741e+01    0.3907615    0.2000351 -73.58  0.001386666    1.714    0.416
        26 -10.2825    119.2728     10.1326   3.5403283364e+02   5.3565251074e+01    0.4250027    0.2475867 -64.52  0.002129137    1.776    0.437
        27  -9.6132      4.6223     13.1970   4.5042520287e+01   7.7293282014e+01    0.2233944     0.181854 -28.95 0.0006603848    1.138    0.121
        28  -9.5714    188.7831      9.9135   3.4730194656e+02   3.7511139946e+01    0.4611509    0.1710716 -44.20  0.002297499    2.056    0.514
        29  -8.8360    186.4510      1.4503   3.4539415628e+02   3.8846260602e+01    0.1827314    0.1005314  82.82 0.0005686129    1.692    0.409
        30  -9.8743    178.6093      5.8383   3.4696263057e+02   4.0091944852e+01    0.4145665    0.2029776 -73.44  0.002169047    1.900    0.474
        31  -9.7455    183.3798      4.4016   3.4629780860e+02   3.9209497948e+01    0.3234904    0.1343386  65.20  0.001564051    2.482    0.597
        32  -9.4131    103.4927      9.0101   3.5606559798e+02   5.7589484038e+01    0.3117499    0.2180373 -42.41   0.00168762    1.494    0.330
        33  -8.7995     68.2401     11.7649   5.5837053354e+00   6.5912855091e+01    0.3990858     0.162616  75.21  0.001287706    4.172    0.760
        34  -9.1312    160.6483      8.8146   3.4909950217e+02   4.3795487494e+01    0.2533591    0.2148063 -26.69 0.0008371968    1.425    0.298
        35  -8.5457    245.2158      7.6070   3.4396208801e+02   2.7139854197e+01     0.242791    0.1443148 -73.20  0.001552492    1.461    0.315
        36  -9.0823    246.8329      3.8901   3.4320058005e+02   2.7247164493e+01    0.2404055    0.1903225  67.48  0.001945115    1.754    0.430
        37  -7.9377    239.6718      4.6680   3.4361440110e+02   2.8373912759e+01    0.1290843   0.09826943  73.94 0.0009993626    1.650    0.394
        38  -9.1138    242.5080      2.4972   3.4309260262e+02   2.8109472414e+01     0.181867     0.129329 -39.08 0.0008495056    1.339    0.253
        39 -10.8650    123.1634      2.9043   3.5098530702e+02   5.3280488010e+01    0.6901143    0.4866558 -78.33  0.004015865    1.280    0.219
        40  -8.3245    115.6945      1.6659   3.5145484580e+02   5.5227217240e+01    0.1390945    0.1124559 -80.02 0.0008461568    1.093    0.085
        41  -8.6627     89.0000      7.0046   3.5796146841e+02   6.1373036923e+01    0.3807208     0.188636 -31.17  0.001815523    2.166    0.538
        42  -9.3255     92.0018      3.0000   3.5561472389e+02   6.0990682804e+01    0.4383991    0.2020044  58.64  0.002051734    1.862    0.463
        43  -8.7247    223.4180      5.1656   3.4438246129e+02   3.1199495242e+01    0.2906643    0.1699574  62.83  0.001874021    2.173    0.540
        44  -8.9028    156.6224      2.4497   3.4763753488e+02   4.5335081231e+01    0.3425814    0.1819685 -56.56  0.001205075    1.643    0.391
        45  -8.7836    160.9649      2.4913   3.4731807973e+02   4.4336658818e+01    0.2447906     0.166426  85.28  0.000710837    1.309    0.236
        46  -9.4138    232.5523      2.2075   3.4340749474e+02   2.9855513432e+01    0.3837917    0.1595424  89.50  0.002217807    2.431    0.589
        47  -8.6447    216.6421      2.2747   3.4407684450e+02   3.2746380409e+01    0.2416774    0.1185575 -60.73  0.000785554    1.578    0.366
        48  -8.5512    212.8069      2.5945   3.4431697131e+02   3.3441679247e+01      0.27979    0.1381216 -63.94  0.001363711    1.630    0.387
        49  -9.6586      8.3366      2.2964   3.4056770725e+01   7.8784035279e+01    0.3520215    0.1709268  31.14  0.001810134    1.875    0.467
        50  -8.8247     49.9041      2.1981   6.6489623340e+00   7.1102895104e+01     0.258476    0.1461824  44.45   0.00114161    1.599    0.375
        51  -9.4934    106.9696      2.1170   3.5280549401e+02   5.7350078872e+01    0.3619171    0.2059949  66.96  0.001197396    1.518    0.341
        52  -8.4263     41.6321      1.5613   9.8159474941e+00   7.2967889994e+01    0.3720594   0.08069427  51.71  0.001295384    3.420    0.708
        53  -7.9386     60.7203     70.1579   3.3806981991e+01   5.7421747885e+01    0.2367777    0.1927636 -79.80  0.001177401    1.456    0.313
        54  -7.9242    223.9518     69.5739   3.5782942407e+02   2.3293733609e+01    0.1480354    0.1140636  68.34 0.0008144181    1.557    0.358
        55  -8.6837    249.8967     67.4257   3.5512443332e+02   1.9383896961e+01    0.2139522    0.1366244 -43.25 0.0006219078    1.147    0.128
        56  -7.9228    183.2563     67.9731   2.1025558271e+00   3.1178467470e+01    0.1845566     0.150002 -49.22 0.0004486309    1.084    0.077
        57  -7.3701    236.2784     67.3487   3.5624016842e+02   2.1538054027e+01    0.1048033   0.08313126 -17.55 0.0003549909    1.640    0.390
        58  -8.1699    135.1962     66.7981   9.7689908641e+00   4.1896728296e+01    0.2557709    0.1437335 -71.96 0.0009499983    2.835    0.647
        59  -8.0319     43.3301     67.6404   4.1104501853e+01   6.0872523943e+01    0.1538755    0.1125315  68.84 0.0007041803    1.795    0.443
        60  -7.8247    214.0589     66.5632   3.5817610007e+02   2.5458462478e+01    0.1649851   0.09076533 -76.93 0.0006143161    2.501    0.600
        61  -8.4116    230.2383     64.7451   3.5624631735e+02   2.2888193874e+01    0.2347989    0.1686259 -35.69  0.001567973    1.293    0.226
        62  -7.9807    228.6006     61.2269   3.5566903200e+02   2.3638894712e+01    0.2386159    0.1675164 -22.59  0.001253122    1.754    0.430
        63  -8.3724     37.4107     64.7169   4.3223248855e+01   6.2413666315e+01    0.2679909    0.1422238 -62.19    0.0011239    2.012    0.503
        64  -7.3098    191.6866     64.3088   1.5265973044e-01   3.0031352673e+01    0.1350656   0.08368577 -63.59 0.0006723592    1.627    0.385
        65  -8.2009    203.7083     62.8370   3.5843932044e+02   2.7905946241e+01     0.252675     0.139097 -71.78  0.001244904    2.266    0.559
        66  -9.6370      7.0380     62.0843   6.0078978504e+01   6.6103430365e+01    0.4380881    0.3038697  28.75  0.002321297    1.509    0.337
        67  -7.9026    180.5244     60.9892   7.4261577178e-01   3.2799285889e+01    0.2173551    0.1272385  57.55  0.001117592    1.885    0.470
        68  -8.2549    245.2568     60.2596   3.5410863662e+02   2.1029987971e+01    0.2112417    0.1015068  80.31 0.0009167449    2.897    0.655
        69  -8.1035    235.4243     58.9599   3.5463060655e+02   2.2790520507e+01    0.1995403    0.1294482 -70.19 0.0006119969    1.565    0.361
        70  -8.3364    186.3861     57.6132   3.5918185901e+02   3.2081885752e+01    0.3174241    0.1311187 -41.72  0.001437885    2.017    0.504
        71  -8.1478    218.6170     57.0832   3.5569105585e+02   2.5945056546e+01    0.1903172    0.1386904 -69.08 0.0006279604    1.288    0.224
        72  -8.4757    168.5390     55.7325   1.0024808390e+00   3.6142624257e+01    0.3076487    0.2463105 -29.34  0.001782988    1.412    0.292
        73  -7.5812    142.7570     56.5394   5.2889849602e+00   4.1846148664e+01    0.1974396     0.129478  80.88 0.0009449024    1.678    0.404
        74  -8.1801    127.4569     56.1059   8.1179915706e+00   4.5506759353e+01    0.3632214    0.1585099  55.61  0.001449749    2.225    0.551
        75  -7.5145    119.3710     56.2517   9.9316659993e+00   4.7398033983e+01    0.1432638     0.109393  34.49 0.0003457481    1.635    0.388
        76  -8.6883    244.3428     54.7065   3.5309810037e+02   2.1883144530e+01    0.1883226    0.1742706 -62.00  0.001153958    1.313    0.238
        77  -7.9337    156.1966     55.6148   2.7816689588e+00   3.8906625035e+01    0.1878418    0.1211365  55.12 0.0009458204    1.666    0.400
        78  -8.4683     84.8265     54.9704   1.9068979312e+01   5.5655020670e+01    0.3801231    0.1958868  40.49  0.001527164    2.112    0.526
        79  -8.7371    225.9060     53.1516   3.5422516591e+02   2.5172363122e+01    0.2740416     0.154821 -51.09   0.00165884    1.386    0.279
        80  -9.7686     41.4880     49.0893   3.5434126052e+01   6.5330119772e+01    0.6233596    0.4437654  87.81  0.002838223    2.319    0.569
        81  -7.8115    129.4946     62.5057   9.6733812612e+00   4.3957235881e+01    0.1448844    0.1335781 -80.68  0.000810642    1.005    0.005
        82  -8.7647    182.5420     51.6678   3.5817415294e+02   3.3728325467e+01    0.6961609    0.1924143  65.28   0.00256798    3.798    0.737
        83  -8.2736     64.5076     51.5088   2.5363994349e+01   6.0644018083e+01    0.2552327    0.1372572 -33.74  0.001033391    2.283    0.562
        84  -8.4087    218.7178     51.0292   3.5438417832e+02   2.6731122006e+01    0.2668548    0.1630186  70.97  0.001636404    1.858    0.462
        85  -8.1636    197.5395     51.0026   3.5636763001e+02   3.0757600268e+01    0.1760877     0.148006 -79.28  0.001166945    1.154    0.133
        86  -7.5856    250.6074     50.2102   3.5179213882e+02   2.1451208658e+01    0.1431146   0.08511347 -32.74 0.0004144782    1.558    0.358
        87  -8.0798    208.4776     49.9841   3.5506948990e+02   2.8770415870e+01     0.267672    0.1106782 -66.84  0.001053098    3.617    0.724
        88  -7.6119    103.0000     47.9719   1.1093618698e+01   5.2661079798e+01    0.2335325   0.08231799 -37.30 0.0008058948    2.966    0.663
        89  -8.5290     82.2724     46.8392   1.6807355468e+01   5.7682347113e+01    0.3063091    0.2300936 -18.99  0.001337357    1.698    0.411
        90  -7.7094    198.0079     46.6861   3.5531204330e+02   3.1245971988e+01    0.1699527    0.1344338 -62.07 0.0005706903    1.045    0.043
        91  -8.3023      7.8746     46.8956   5.5820173693e+01   6.9775672748e+01    0.1997525    0.1848383 -29.26 0.0008808962    1.027    0.026
        92  -8.1266    176.6719     45.6638   3.5734624076e+02   3.5811484715e+01    0.2422882    0.2007105 -14.74  0.001453397    1.607    0.378
        93  -8.0191    173.0134     45.7868   3.5781443616e+02   3.6588258578e+01    0.2709354    0.1517735  71.34  0.001046914    1.833    0.454
        94  -8.4109    221.3505     44.5411   3.5278166367e+02   2.7089966006e+01    0.2145869    0.1475712 -58.15 0.0002638008    1.167    0.143
        95  -8.6890    226.2643     43.1795   3.5211756007e+02   2.6381697869e+01    0.3521386    0.1711818 -38.81  0.002010851    1.630    0.387
        96  -7.9632    244.4170     43.7790   3.5096607797e+02   2.3224347893e+01    0.1432962   0.08802231 -33.08 0.0009305436    1.529    0.346
        97  -7.5504    231.9711     44.7563   3.5202130800e+02   2.5188422668e+01    0.1287117   0.09050796  81.98 0.0008800944    1.587    0.370
        98  -8.5005    160.3657     43.5081   3.5881630348e+02   3.9720023205e+01    0.2866604    0.1886286 -70.79 0.0007981399    1.526    0.345
        99 -10.0339     54.6485     42.3128   2.5894969965e+01   6.4340327301e+01    0.7578033    0.4325745  48.60   0.00346173    1.733    0.423
       100  -9.1696    118.0969     41.7796   5.3736893345e+00   4.9979334391e+01    0.4784359    0.2753776  58.73  0.002239966    1.644    0.392
       101  -9.0986     57.6985     36.1920   2.1736107122e+01   6.4824279608e+01    0.4339812    0.2231986  36.49  0.001839603    2.094    0.522
       102  -7.3119    141.3252     42.6618   1.3799936496e+00   4.4263122365e+01    0.1499942   0.09386516 -67.80 0.0007051376    1.724    0.420
       103  -7.9262    194.2570     39.6845   3.5402080203e+02   3.2916614585e+01    0.2463935    0.1650063  -4.60  0.001026172    2.818    0.645
       104  -9.0806    175.7203     37.9405   3.5546362211e+02   3.7048108409e+01    0.4445781    0.2366855 -74.90  0.001548316    2.143    0.533
       105  -7.8334    139.4474     39.5005   7.1453914627e-01   4.5151555801e+01    0.1378105    0.1216618 -77.94 8.406696e-05    1.007    0.007
       106  -7.0736    133.3314     39.3041   1.6679519906e+00   4.6644600341e+01    0.1350315    0.1051039  36.31 0.0007036669    1.657    0.396
       107  -8.0920    198.2327     42.3031   3.5426623802e+02   3.1776961162e+01    0.1966971    0.1402216  75.60 0.0007964072    1.485    0.327
       108  -7.5194    185.2727     38.6741   3.5464863037e+02   3.4906832344e+01    0.1337161   0.07680435 -59.89 0.0004267673    1.581    0.367
       109  -9.4736     77.5333     37.2922   1.4489350936e+01   6.0335294896e+01    0.4507454    0.2864698  56.88  0.001836076    1.487    0.328
       110  -9.3772     77.8951     32.4224   1.2264396607e+01   6.0995480725e+01    0.3906929    0.2634692  66.33  0.001940475    1.508    0.337
       111  -9.0567     99.2228     34.4878   7.0195627715e+00   5.5621498296e+01    0.4665959    0.2645246 -84.21  0.001787779    2.918    0.657
       112  -8.5067    213.5562     24.9850   3.4913391568e+02   3.0902142948e+01    0.2174944    0.2029421  51.93  0.001640176    1.537    0.349
       113  -9.0441    215.4915     33.4545   3.5084429099e+02   2.9539633446e+01     0.236388    0.1526273 -78.05 0.0006706343    1.485    0.327
       114  -9.2325    217.2757     30.0606   3.4998368925e+02   2.9610741149e+01     0.292034    0.2201259 -70.23  0.001006742    1.153    0.132
       115  -8.6225    134.7492     33.4475   3.5956659977e+02   4.7093015695e+01    0.3151986    0.2318598  30.28  0.001495543    1.939    0.484
       116  -8.3424    138.5014     31.4833   3.5836767489e+02   4.6443064023e+01    0.2023777    0.1801636 -35.94  0.000706261    1.268    0.211
       117  -8.7973    160.9958     32.2721   3.5561352727e+02   4.1061390040e+01    0.3031895    0.1854116  53.24  0.001444267    1.893    0.472
       118  -9.4112     30.2437     30.9502   3.4036274658e+01   7.0721467698e+01    0.4313973    0.3657999  43.57  0.002567107    1.260    0.206
       119  -7.3578    146.2916     32.7019   3.5762109434e+02   4.4428919360e+01      0.13976   0.08895711 -66.37 0.0005977162    1.561    0.359
       120  -7.7643    170.4675     30.9031   3.5418170816e+02   3.9096692211e+01    0.1877256    0.1626631  62.24 0.0006358101    1.359    0.264
       121  -7.5512    246.3593     29.7698   3.4814083329e+02   2.4554410349e+01     0.133764    0.0826658 -35.35 0.0002066808    1.454    0.312
       122  -8.5773    202.1612     26.7666   3.5033489577e+02   3.2910855973e+01    0.2315662    0.1543176  86.47 0.0008669174    1.484    0.326
       123  -9.7872    196.3237     24.5289   3.5025578531e+02   3.4346480099e+01    0.7583112    0.3149393  82.74  0.003632664    2.609    0.617
       124  -9.9059    240.6767    146.8814   1.0927324581e+01   9.4519569786e+00    0.2814896    0.1586813 -31.74  0.001285847    1.431    0.301
       125  -8.4174    144.2704     29.8371   3.5703408358e+02   4.5271144500e+01    0.2637438    0.1483416  48.26  0.001243035    2.154    0.536
       126  -7.2084     18.6473     30.3755   4.1832727976e+01   7.2416674248e+01       0.1346    0.1001403  61.95 0.0006998417    1.918    0.479
       127  -8.2327    229.4047     29.2532   3.4902347688e+02   2.7501287190e+01    0.1774896    0.1259593  69.34  0.001002867    1.698    0.411
       128  -8.4262    151.5297     29.5172   3.5598310233e+02   4.3596461650e+01    0.1312524    0.1158461 -78.79 0.0008089624    1.060    0.057
       129  -8.5448    242.8065    135.6506   8.6418209236e+00   1.0827792213e+01    0.2716997    0.1056679 -29.83  0.001229177    2.771    0.639
       130  -7.8056    238.0366    131.0000   8.3777843655e+00   1.2135521239e+01    0.1529305   0.06737665  47.11  0.000638054    2.949    0.661
       131  -7.4177    243.6243    127.6932   7.0934694108e+00   1.1881941726e+01    0.1120774    0.0780552 -11.18 4.556624e-05    1.774    0.436
       132  -7.8189    105.5051     29.0040   3.4552562971e+00   5.4829411800e+01    0.2009436    0.1389289 -31.60 0.0009140507    1.596    0.373
       133  -9.0053     67.8507     27.0824   1.3312883931e+01   6.4066379403e+01     0.425599    0.2727461 -64.83  0.001942348    2.275    0.561
       134  -7.8980    237.1068     27.6885   3.4825064876e+02   2.6340806755e+01    0.1457983    0.1132669 -64.87 0.0004812602    1.136    0.120
       135  -7.5721    250.3109     24.5679   3.4694509047e+02   2.4495925728e+01    0.1633761    0.1204973 -20.95 0.0007246215    1.820    0.451
       136  -7.8517    170.8743     21.8055   3.5172291127e+02   4.0088795626e+01    0.2121778    0.1147359 -61.72 0.0003425374    1.698    0.411
       137  -7.7035    145.3351     25.1800   3.5547788711e+02   4.5585557978e+01    0.1787868    0.1497027  78.37 0.0007723161    1.152    0.132
       138  -9.1014    107.0758     22.2568   5.6284159366e-01   5.5278952098e+01    0.4433769    0.2354113  62.55  0.002089506    1.682    0.405
       139  -8.8752    105.5893     17.7559   3.5912022861e+02   5.6162822609e+01    0.3418305    0.1547958 -32.16  0.001330299    2.312    0.568
       140  -7.9306    223.5125    126.4711   9.3886301668e+00   1.4847184897e+01    0.1215771   0.09674292 -36.67 0.0004962289    1.004    0.004
       141  -8.0776    173.1016     25.1761   3.5240246170e+02   3.9203665307e+01    0.2293736    0.1306293 -75.45 0.0007304589    1.740    0.425
       142  -7.3035    239.6458     22.2608   3.4704098940e+02   2.6517910634e+01    0.1144671   0.05705871 -60.25 0.0004787254    1.617    0.381
       143  -8.8799    244.9651    121.2872   5.7600003017e+00   1.2633311361e+01    0.2463055    0.1146054 -38.30  0.001386338    1.617    0.382
       144  -7.5211    202.2591     20.6231   3.4891979289e+02   3.3596864185e+01    0.1507522   0.09997817  71.91 0.0009485622    1.627    0.385
       145  -8.8465    160.0862     19.5399   3.5215166623e+02   4.2785517367e+01    0.2692132    0.2298233 -72.48  0.001535849    1.049    0.047
       146  -8.2923    192.8073     18.7871   3.4915664066e+02   3.5719981100e+01    0.1962951    0.1461148  73.76 0.0009619789    1.443    0.307
       147  -7.3486    228.4596    122.5297   7.9830595902e+00   1.4740360468e+01    0.1202611   0.09407101 -39.14 0.0002461561    1.022    0.022
       148  -7.9410    223.0587    120.8357   8.3519549906e+00   1.5792302414e+01     0.179253    0.1316399   8.00  0.001077183    1.949    0.487
       149  -9.8122     63.4043    116.3227   4.5060507438e+01   4.5398600732e+01    0.6219859    0.3446242 -57.66  0.002548476    1.757    0.431
       150  -8.8003    230.4908    113.7595   6.0350265025e+00   1.5777087303e+01    0.2054344    0.1499852  63.32  0.001108624    1.841    0.457
       151  -7.3654     24.3505    113.6882   6.0209647596e+01   5.0919197150e+01    0.1617942     0.101281  56.67 0.0002971155    1.721    0.419
       152  -9.6101    247.4545    108.8857   3.1871497252e+00   1.4072343669e+01    0.3975003    0.2392005  50.20  0.002587925    2.211    0.548
       153  -8.2264    205.2294     16.9872   3.4789877063e+02   3.3412053129e+01    0.2481889    0.1019394 -69.93  0.001182348    2.546    0.607
       154  -7.1197    144.2932     18.3499   3.5352514542e+02   4.6617134444e+01    0.1242323   0.09762311  38.83 0.0003870787    1.675    0.403
       155  -7.5387     74.3179    110.3477   3.9713639777e+01   4.5195788375e+01    0.1632035    0.1208687 -23.15 0.0007048417    1.729    0.422
       156  -7.7715    240.3355     16.2955   3.4584109184e+02   2.7051081604e+01    0.1688366    0.1071232 -45.22 0.0007800231    1.192    0.161
       157  -7.7679    213.4988    108.0229   7.0388244039e+00   1.9293864302e+01    0.1662217    0.1563459 -43.47 0.0005480021    1.156    0.135
       158  -8.0786    185.7677     15.9910   3.4899456728e+02   3.7500817371e+01    0.1517716   0.08880313 -36.55 0.0008637666    1.581    0.368
       159  -7.7536    225.1652    106.8546   5.3219881584e+00   1.7627139662e+01    0.1529439    0.1283133 -20.33 0.0005540915    1.305    0.234
       160  -7.5496    143.5072    107.4774   1.9001085698e+01   3.2348013190e+01    0.1451942     0.137773 -39.89 4.313327e-05    1.070    0.066
       161  -8.6184    200.1285    104.1009   8.0528282374e+00   2.2176935797e+01    0.1980372    0.1598962 -27.51  0.001083446    1.272    0.214
       162  -9.5290    189.0540    101.9391   9.2212956404e+00   2.4516979272e+01    0.4804714    0.2398349 -52.74  0.002187374    2.044    0.511
       163  -9.5815    244.4372    102.1779   2.2439692313e+00   1.5448827665e+01    0.2406271    0.1966145 -75.63  0.001352583    1.486    0.327
       164 -10.2777    243.2373     96.2872   1.2461944670e+00   1.6457518751e+01    0.3111923    0.2372016 -44.31  0.001843952    1.027    0.026
       165  -8.6274    223.7376     95.6159   3.2267968405e+00   1.9551370874e+01    0.1875727    0.1522596  89.26 0.0009638959    1.504    0.335
       166  -8.4189    159.4660     95.1089   1.2648707117e+01   3.1484770003e+01    0.2812926    0.1881924  76.36  0.001106281    1.968    0.492
       167  -7.9384     33.1640     94.8844   5.3085644176e+01   5.5213924051e+01    0.2399532    0.2016815  66.90  0.001242259    1.274    0.215
       168  -8.4862    112.6531     99.5597   2.4636001793e+01   4.0408112663e+01    0.4076065    0.2586758  82.05  0.001487228    2.835    0.647
       169  -7.7827    201.7331     91.6578   5.1194677988e+00   2.3909711289e+01    0.2864316    0.1233175  59.48  0.001299154    2.836    0.647
       170  -7.2299    233.2639     14.3153   3.4578640831e+02   2.8483310383e+01   0.08849008   0.08158006 -24.51 0.0001765095    1.544    0.353
       171  -9.1730    126.2174     13.3799   3.5420520052e+02   5.1527474374e+01    0.2644017    0.1744983  77.61  0.001439629    1.353    0.261
       172  -7.7815    184.5034     91.4597   7.5243338874e+00   2.7144815529e+01    0.1336324    0.1161981 -50.75 0.0001432417    1.014    0.014
       173  -8.4593     18.5958     97.1993   6.0282010882e+01   5.5980650586e+01    0.2180749    0.1201996 -59.53 0.0009528231    1.655    0.396
       174  -9.8729    173.2522     87.8901   8.4467531455e+00   2.9966652710e+01    0.6254093    0.3600488 -65.81  0.002750875    2.306    0.566
       175  -7.7899    162.7477     89.2804   1.0588257304e+01   3.1868587012e+01    0.2040533    0.1601894   3.03 0.0007537839    1.904    0.475
       176  -9.8008    244.9982     85.4628   3.5899984733e+02   1.7708000056e+01    0.3686851    0.2388053 -89.57   0.00211286    2.193    0.544
       177  -8.1216    231.6541     87.6813   7.5419115856e-01   1.9451313605e+01     0.109719   0.08693388  -8.51 0.0007048998    1.727    0.421
       178  -8.3119    218.4647     85.9300   1.8307889866e+00   2.1870791166e+01    0.2142843    0.1586723 -84.87  0.001349519    1.626    0.385
       179  -7.9105    206.7028     85.7665   3.1907311887e+00   2.3942403565e+01    0.1665981    0.1231019 -61.39 0.0005439655    1.304    0.233
       180  -7.5801    141.6743     84.3343   1.3388299148e+01   3.7269285162e+01    0.1534359    0.1089436 -75.83 0.0006865981    1.715    0.417
       181  -8.2570      4.2490     83.9950   6.5367041493e+01   6.0524409544e+01    0.1876347    0.1118548 -75.13 0.0008291693    1.565    0.361
       182  -8.1974    192.0814     82.4897   4.3544019125e+00   2.7159577723e+01    0.1777358    0.1285479  63.77 0.0007694617    1.567    0.362
       183  -7.6527    220.3066     81.2933   6.5490275822e-01   2.2242257390e+01    0.2025725    0.1048145 -36.38  0.001083434    1.644    0.392
       184  -7.8443    221.6738     78.3484   3.5989266453e+02   2.2437568409e+01    0.1991966    0.1141988 -58.58  0.001110038    1.728    0.421
       185  -8.8096    215.8951     80.1835   9.0633985651e-01   2.3163814292e+01    0.2843796    0.1948333 -45.96  0.001388606    1.163    0.140
       186  -7.5497    146.3373     79.6787   1.1169440411e+01   3.7103453438e+01     0.151803    0.1062605 -75.08 0.0004619663    1.712    0.416
       187  -8.7967     54.0918     80.5678   3.9967374194e+01   5.6083569971e+01    0.3286744    0.2766576  72.02  0.001670887    1.349    0.259
       188  -8.9606    235.7348     78.2025   3.5845489554e+02   2.0142635595e+01    0.3275912    0.2232453 -53.91  0.002188932    1.236    0.191
       189  -8.5791    226.8035     79.7543   3.5965019612e+02   2.1374632085e+01    0.1950481     0.166341 -62.41 0.0005551236    1.157    0.136
       190  -8.6670    167.4576     74.7242   6.0982185769e+00   3.3390249124e+01    0.2925725    0.2234971  78.12  0.001622007    1.404    0.288
       191  -7.5502    224.4719     74.3903   3.5878038852e+02   2.2528225629e+01    0.1180551   0.09390538 -50.18 7.081964e-05    1.026    0.025
       192  -7.8893    152.3047     73.4549   8.3449430740e+00   3.6884677694e+01    0.2602291     0.154102 -57.90  0.001183235    1.782    0.439
       193  -8.4071    143.5823     72.4690   9.7177343356e+00   3.8999673239e+01    0.3819087    0.2424883  53.82  0.001835611    1.634    0.388
       194  -8.1016     73.7247     73.1392   2.9485690888e+01   5.4295941693e+01    0.2792303    0.2019133  53.74  0.001312812    1.433    0.302
       195  -7.7334    149.4591     81.4712   1.1041926653e+01   3.6096506276e+01    0.2070244    0.1353855  71.81 4.952557e-05    1.788    0.441
       196  -8.0868    240.1272     70.0921   3.5644996501e+02   2.0551151339e+01    0.1636904    0.1335825 -32.83 0.0006477152    1.298    0.229
       197  -7.7002    202.9464     70.4636   2.4630732763e-01   2.6942841572e+01    0.1767895   0.09810609 -81.18 0.0004593788    2.701    0.630
