#   1 NUMBER                 Running object number                                     
#   2 MAG_AUTO               Kron-like elliptical aperture magnitude                    [mag]
#   3 X_IMAGE                Object position along x                                    [pixel]
#   4 Y_IMAGE                Object position along y                                    [pixel]
#   5 X_WORLD                Barycenter position along world x axis                     [deg]
#   6 Y_WORLD                Barycenter position along world y axis                     [deg]
#   7 A_WORLD                Profile RMS along major axis (world units)                 [deg]
#   8 B_WORLD                Profile RMS along minor axis (world units)                 [deg]
#   9 THETA_WORLD            Position angle (CCW/world-x)                               [deg]
#  10 FWHM_WORLD             FWHM assuming a gaussian core                              [deg]
#  11 ELONGATION             A_IMAGE/B_IMAGE                                           
#  12 ELLIPTICITY            1 - B_IMAGE/A_IMAGE                                       
         1 -15.2166      7.4584    140.6839   1.4278333219e+02   4.4832101505e+01     7.201342     1.732524 -80.01   0.02407932    4.580    0.782
         2 -13.5688    197.4388     29.2486   6.7239952086e+01   3.2149951036e+01     1.442096     1.338211   5.07  0.006441602    1.266    0.210
         3 -13.6194    213.8780      9.1848   6.0174577518e+01   3.0371257160e+01     1.191582     0.903559  46.26  0.006067515    1.549    0.355
         4 -12.5160      4.3272      5.0682   1.1394588825e+02   7.3407048093e+01    0.7741016    0.3807518 -35.07  0.004813932    1.556    0.357
         5  -9.2898     66.8119    250.1858   1.3992183148e+02   1.6039039055e+01    0.1686238    0.1126297  63.70 0.0005465081    1.169    0.145
         6 -11.4954    249.1875    247.7734   1.0760775607e+02  -1.0443526637e+01    0.4652857    0.1964043 -28.84  0.002611077    2.499    0.600
         7 -12.0272    238.7744    246.9422   1.0918555914e+02  -8.9436003603e+00    0.3134278    0.2659642  27.22  0.002396026    1.367    0.268
         8 -12.1280    138.6951    248.1016   1.2696874185e+02   6.0473173592e+00    0.4154498    0.3236548  88.09  0.002796733    1.641    0.391
         9 -12.2595    123.6297    249.3734   1.2983488654e+02   8.1555074453e+00    0.5670207    0.2249226  47.67  0.002829131    2.053    0.513
        10 -11.9852    100.0613    247.7460   1.3389948646e+02   1.1897733582e+01    0.3700925    0.3171755  40.11  0.002149632    1.302    0.232
        11 -11.0362     46.1416    248.7607   1.4330600709e+02   1.8841906309e+01    0.3076241    0.1609727  68.08  0.001560004    1.626    0.385
        12 -11.4196     29.3226    248.6902   1.4605257104e+02   2.0775525123e+01    0.4370563    0.2174645 -71.16  0.002902391    2.056    0.514
        13 -12.4217     34.7576    245.2061   1.4497507323e+02   2.0772384253e+01     0.586359    0.3723741  78.83  0.004297393    1.280    0.219
        14 -11.5941     10.7562    233.9636   1.4832260001e+02   2.5303718900e+01    0.3604734    0.2143366 -43.87  0.002057587    3.852    0.740
        15 -12.5192      7.0122    247.7470   1.4952292660e+02   2.3255771845e+01    0.9496478    0.4178132  50.93  0.006475223    1.662    0.398
        16 -11.9239     19.5092    244.0144   1.4739050994e+02   2.2634791369e+01    0.5633762    0.2148408  82.45  0.002909933    2.676    0.626
        17 -11.7467     12.3346    240.0688   1.4835238622e+02   2.4059802468e+01    0.3222833    0.1547423  62.23  0.002161232    1.550    0.355
        18 -11.6650    197.4221    245.7016   1.1608529301e+02  -2.7577260007e+00    0.2617312    0.2178728  -6.40   0.00188258    1.287    0.223
        19 -14.1724    112.8970    231.4594   1.2983656938e+02   1.2727561662e+01     2.411866    0.3941073  44.52  0.007705379    4.626    0.784
        20 -11.1179     49.6080    235.4914   1.4183108793e+02   2.0760301723e+01    0.2384793    0.1761761  64.04  0.001417859    1.040    0.039
        21  -9.3405     55.0045    229.9813   1.4046598235e+02   2.1104231679e+01    0.1984138    0.1013467  64.82  0.001137822    1.772    0.436
        22 -11.2353      4.1743    228.7508   1.4915865086e+02   2.6882807045e+01    0.2167101    0.1511383  74.02  0.001719032    1.022    0.022
        23 -10.1507    172.9749    222.6312   1.1714311325e+02   4.3960887079e+00    0.2985136    0.1039787  40.92  0.001242232    2.443    0.591
        24 -11.2557    215.8021    249.1969   1.1339932116e+02  -5.9293831776e+00    0.2983903    0.1300137  38.36  0.001608281    1.867    0.464
        25  -8.7085    152.5039    213.0518   1.1967015107e+02   9.4365052246e+00    0.1625244    0.1303742 -51.65 0.0003266307    1.440    0.305
        26 -12.4626      9.7470    207.1698   1.4711879744e+02   3.0447833386e+01    0.6027148     0.391706  31.39   0.00303759    1.939    0.484
        27 -11.7419     58.7545    199.1367   1.3706111060e+02   2.6671486335e+01      0.26947    0.2206736 -86.35 0.0005087815    1.145    0.126
        28 -11.0757     11.3316    194.9611   1.4610270988e+02   3.2746666931e+01    0.2547322    0.1552652  58.97 0.0005561537    1.384    0.277
        29  -9.4039    192.0152    193.5055   1.0857164927e+02   5.7114393928e+00       0.2818    0.1552621 -66.08 0.0008099943    6.730    0.851
        30 -11.9923     65.2638    190.6308   1.3481791598e+02   2.7607567760e+01    0.2548465    0.2223295 -75.30 0.0004499903    1.221    0.181
        31 -13.1787     62.4223    175.6850   1.3371320300e+02   3.1230037588e+01    0.4915519    0.2754656 -46.65  0.002077813    2.295    0.564
        32 -10.7935     75.8593    177.5992   1.3092183368e+02   2.8971830029e+01    0.2271614     0.193637 -87.41 0.0003320634    1.069    0.065
        33  -9.9823     96.3137    173.4132   1.2564985254e+02   2.6800166250e+01    0.2418461    0.1985238  77.03 0.0003760251    1.178    0.151
        34 -11.8607     83.5893    168.5067   1.2787227794e+02   2.9864202907e+01    0.6159747    0.5749869 -36.08  0.003835797    1.335    0.251
        35 -13.3094     46.3247    215.3613   1.4092681946e+02   2.4940408517e+01     1.261634     1.022405  48.79  0.008059989    1.317    0.241
        36 -10.0974     96.5457    152.6689   1.2215875400e+02   3.1421887250e+01    0.2826072    0.2702438  19.95 0.0008804814    1.227    0.185
        37  -9.2802     99.5295    148.4929   1.2065101860e+02   3.1881524513e+01    0.2371925    0.1665262 -48.14 5.017904e-05    1.470    0.320
        38 -12.0390     85.0650    151.6683   1.2484641504e+02   3.3482006838e+01     0.293271    0.2414348 -49.95  0.000448759    1.292    0.226
        39 -12.2189     67.5042    143.6197   1.2797926575e+02   3.7908424143e+01    0.6574833    0.4133817  65.66  0.002440378    1.839    0.456
        40  -9.8313    108.7803    137.6101   1.1614385242e+02   3.2761815792e+01    0.4128462    0.2646363 -26.09  0.001487024    2.434    0.589
        41 -10.4856     95.8377    134.7712   1.1892499576e+02   3.5677104690e+01    0.2446477     0.217369 -36.21  0.000397082    1.248    0.199
        42 -11.7052     26.2319    128.9388   1.3670011549e+02   4.6009518261e+01    0.4705238    0.1997654  50.82  0.001858887    2.734    0.634
        43 -11.4126     20.7050    125.8587   1.3778453875e+02   4.7200850844e+01    0.3218378    0.1678844  48.76  0.001359177    2.120    0.528
        44  -9.0732     76.4730    129.5021   1.2308500761e+02   3.9972125401e+01    0.2302699    0.1205646  49.06 0.0005910592    2.101    0.524
        45 -10.3743     83.0102    125.6126   1.2051051771e+02   3.9899681022e+01    0.3290685    0.2161295  63.78  0.001221315    1.880    0.468
        46  -8.9341    106.2432    124.0269   1.1383339300e+02   3.6335667668e+01    0.1923272     0.178349 -68.36 0.0002899561    1.040    0.038
        47  -9.9961    168.0341    113.2359   9.5938399594e+01   2.5666456163e+01    0.2780133    0.2207676 -52.40 0.0006345235    1.308    0.235
        48 -10.5123     42.0892     96.8618   1.2671545086e+02   5.1991412692e+01    0.4561169    0.2152319  51.52  0.001947082    3.005    0.667
        49 -10.9708    241.3836     94.9007   7.8127274690e+01   1.2376046179e+01    0.2691337    0.2118387  45.30  0.001485853    1.418    0.295
        50  -9.9884    158.1631     77.1198   8.8026281152e+01   3.4866827027e+01    0.2384985     0.211979  15.90 0.0007320348    1.236    0.191
        51  -9.4049     47.6765     70.0619   1.1827605787e+02   5.7356456236e+01    0.2190784    0.1716658  52.90 0.0007189559    1.641    0.391
        52 -12.0294      5.2603     51.6103   1.2982781801e+02   6.4846793095e+01    0.3938788    0.2717872  39.62  0.001481961    1.932    0.483
        53 -12.9473     31.3589    232.8946   1.4482163940e+02   2.3344861687e+01     0.274626    0.2350113 -87.92 0.0007545904    1.363    0.266
        54 -12.3866    149.4402    249.3321   1.2517088214e+02   4.2008230000e+00    0.6447192    0.2780977  50.31  0.003177431    2.204    0.546
        55 -10.4929     81.1717    249.1387   1.3736032045e+02   1.4312697570e+01    0.1628682    0.1384383  53.96  0.001029383    1.225    0.183
        56 -13.9856     36.3196    226.3717   1.4354682948e+02   2.3995751696e+01    0.7470382    0.5006269  61.60  0.002382907    1.157    0.135
