#   1 NUMBER                 Running object number                                     
#   2 MAG_AUTO               Kron-like elliptical aperture magnitude                    [mag]
#   3 X_IMAGE                Object position along x                                    [pixel]
#   4 Y_IMAGE                Object position along y                                    [pixel]
#   5 X_WORLD                Barycenter position along world x axis                     [deg]
#   6 Y_WORLD                Barycenter position along world y axis                     [deg]
#   7 A_WORLD                Profile RMS along major axis (world units)                 [deg]
#   8 B_WORLD                Profile RMS along minor axis (world units)                 [deg]
#   9 THETA_WORLD            Position angle (CCW/world-x)                               [deg]
#  10 FWHM_WORLD             FWHM assuming a gaussian core                              [deg]
#  11 ELONGATION             A_IMAGE/B_IMAGE                                           
#  12 ELLIPTICITY            1 - B_IMAGE/A_IMAGE                                       
         1 -12.2691    194.6153     37.4536   5.0500941947e+01   3.1772178919e+01     1.050295    0.9837483 -58.02  0.003641705    1.060    0.056
         2 -12.5516    204.1166     27.2193   4.6416279367e+01   3.0668667491e+01    0.9066429    0.7929882  -7.59  0.001556366    1.375    0.273
         3  -9.3590     39.4991     10.5112   8.0648906823e+01   6.9171035510e+01    0.1199613    0.0958505  -8.36 0.0008100877    1.050    0.047
         4 -10.3829    224.4987      2.3329   3.8024908073e+01   2.8467475106e+01     0.390448    0.2318702  74.78  0.001509505    1.559    0.358
         5 -10.9257    229.1191      2.7699   3.7761411406e+01   2.7336726814e+01    0.5707077    0.3475047  59.44  0.002333552    1.731    0.422
         6  -9.1799     60.0089      2.0000   6.7686520935e+01   6.7063059958e+01    0.1905818    0.0634326  48.52 0.0006864755    2.926    0.658
         7 -13.1961     85.3970    230.0787   1.1622844765e+02   1.6504135998e+01     1.993286     1.439161  79.15  0.009243356    1.305    0.234
         8 -10.3268    116.9084    249.3036   1.1233256105e+02   8.5462077764e+00     0.361277    0.2247293  71.49  0.002129711    1.897    0.473
         9 -14.1087     55.1195    198.9744   1.1919527362e+02   2.6737107833e+01     4.726214     2.332209 -56.56   0.02451353    2.278    0.561
        10  -8.3162     99.2973    180.5792   1.0744142111e+02   2.4337908430e+01    0.1768298    0.1285096  34.18 0.0007470426    1.506    0.336
        11 -10.5815     73.1525    176.1303   1.1278363586e+02   2.9299564309e+01    0.4333542    0.2798654 -43.83  0.002220006    2.048    0.512
        12 -10.3427     77.1513    171.1544   1.1119915607e+02   2.9852422916e+01    0.3418036    0.2636446 -43.82 0.0007506243    1.615    0.381
        13  -8.4169     53.8055    173.0709   1.1681129768e+02   3.2548327211e+01     0.197341    0.1437282  79.40 0.0003421021    1.223    0.183
        14  -9.7529    103.5943    172.4035   1.0520023330e+02   2.5429628294e+01    0.3119986    0.1269939  40.72  0.001069011    2.354    0.575
        15  -9.1377     73.2296    218.0666   1.1740437528e+02   2.0481772700e+01    0.2359434     0.145436  51.67 0.0006455915    1.352    0.260
        16 -12.6556     58.8789    131.7543   1.0985267633e+02   4.1636902518e+01     2.635873     0.824506 -73.07  0.006629246    6.419    0.844
        17 -12.0466     73.6463    157.2958   1.1005279780e+02   3.3558477730e+01    0.5616836    0.4657473 -50.62  0.001092692    1.346    0.257
        18 -12.6274     68.1733    144.1530   1.0940246049e+02   3.7437289472e+01     1.054873    0.8234803 -89.91  0.004046792    1.232    0.188
        19  -9.3303    134.1229    145.4292   9.2799626567e+01   2.5851835915e+01    0.9624194     0.189968 -52.81  0.002072499    6.948    0.856
        20  -8.3907     87.3617    146.1785   1.0476881573e+02   3.4128514620e+01     0.198179    0.1677304 -81.96  0.001099472    1.116    0.104
        21  -8.8970    103.5812    141.2274   9.9628512106e+01   3.2592767184e+01    0.3181869    0.2746623 -79.99  0.001716704    1.145    0.127
        22  -8.4041    106.4004    137.7822   9.8192221557e+01   3.2900656152e+01    0.2556006    0.1736724 -28.67  0.001112181    2.054    0.513
        23 -10.6233     92.2697    140.1080   1.0236779882e+02   3.4781021240e+01    0.2954083    0.2498736 -50.64 0.0004540537    1.211    0.174
        24 -10.3244     91.4582    155.2596   1.0530788798e+02   3.1338321738e+01    0.5544503    0.4063125 -24.00   0.00152929    2.090    0.522
        25  -9.4750    113.2027    130.4635   9.4825839990e+01   3.3358349134e+01     0.329755    0.2639149  14.46 0.0009744285    1.602    0.376
        26  -8.9507    135.5667    127.9310   8.8464684246e+01   2.9467174977e+01    0.4596047    0.1503028 -47.41  0.001426479    3.038    0.671
        27  -9.4020    100.2171    126.7505   9.7489832128e+01   3.6603104084e+01    0.3402139    0.2405598 -35.77 0.0004996185    1.637    0.389
        28  -8.1509    175.4838    149.4961   8.4143333499e+01   1.6361113923e+01    0.1483682    0.1461706  43.48 0.0002968994    1.053    0.051
        29  -8.9410    106.0179    130.8435   9.6818373567e+01   3.4600289200e+01    0.3618038    0.2233773 -58.12  0.001459803    1.599    0.375
        30  -8.4518    108.9607    119.2999   9.3385973148e+01   3.6760124179e+01     0.203666    0.1915196  46.22 0.0003583942    1.109    0.098
        31  -9.1227    135.0000    113.0937   8.4892473856e+01   3.2883820296e+01    0.4406709   0.08813936 -45.22  0.001049413    4.917    0.797
        32 -11.2146     84.8169    162.1280   1.0805562503e+02   3.0782176888e+01    0.8507363    0.4006116  58.59 0.0006046939    2.665    0.625
        33  -8.2923    205.2554    110.3226   6.8586472309e+01   1.7272298640e+01    0.2328452    0.1898422  29.12 0.0009472513    1.348    0.258
        34 -10.6841     32.7304    105.4594   1.1295928722e+02   5.0777729866e+01    0.5473005    0.1657184 -67.47  0.002056736    2.911    0.656
        35  -9.9575    119.6959    110.8042   8.8335549830e+01   3.6608715244e+01    0.3207932    0.2181273  55.00  0.001423254    1.621    0.383
        36 -17.2493      6.2716    179.3786   1.2751677779e+02   3.6068867704e+01     17.01367     1.691179 -77.08   0.04319838    8.996    0.889
        37  -9.1623     41.4631     91.9873   1.0759244536e+02   5.3113333718e+01    0.2052966    0.1117434 -61.29 0.0004450922    1.552    0.356
        38 -14.3828     58.2823    246.9797   1.2247382664e+02   1.7149876440e+01     7.300815      2.30114  30.78  0.004086145   10.258    0.903
        39  -9.4574    153.2555     56.3180   6.3568465372e+01   3.9630116769e+01    0.3464507    0.2663712 -89.66  0.001036954    1.615    0.381
        40 -11.8538    184.0838     46.5690   5.4742069636e+01   3.3215918338e+01     0.782806    0.5830901   9.02  0.001879755    1.807    0.446
        41  -9.8178    124.5353    243.5389   1.1031972193e+02   8.2962543877e+00    0.2079575    0.1189274 -58.87  0.001200765    2.140    0.533
        42  -9.8792     61.7546    235.1390   1.2100268593e+02   1.8805205637e+01    0.2158731    0.1561411  79.78 0.0003518621    1.191    0.160
        43  -9.0295    155.8154     50.4671   6.1138984926e+01   3.9899194127e+01    0.3171114    0.2469644 -88.43  0.001041189    1.539    0.350
        44 -10.0270     32.6865     31.8941   9.3441611098e+01   6.6591647898e+01    0.3721551    0.1049763 -51.33  0.001360992    3.797    0.737
        45  -8.8798     31.6168    195.5571   1.2361853196e+02   3.0199447110e+01    0.2596731    0.1277272  59.26  0.001152337    1.790    0.441
        46  -9.4839    193.1318    194.8960   8.9708549691e+01   4.5610001367e+00    0.6393264    0.3571495 -66.90  0.001846058    6.928    0.856
        47  -7.9358     99.4693    186.4730   1.0825141447e+02   2.3036352543e+01    0.1367174    0.1176143  70.66 -6.713288e-06    1.033    0.032
