#   1 NUMBER                 Running object number                                     
#   2 MAG_AUTO               Kron-like elliptical aperture magnitude                    [mag]
#   3 X_IMAGE                Object position along x                                    [pixel]
#   4 Y_IMAGE                Object position along y                                    [pixel]
#   5 X_WORLD                Barycenter position along world x axis                     [deg]
#   6 Y_WORLD                Barycenter position along world y axis                     [deg]
#   7 A_WORLD                Profile RMS along major axis (world units)                 [deg]
#   8 B_WORLD                Profile RMS along minor axis (world units)                 [deg]
#   9 THETA_WORLD            Position angle (CCW/world-x)                               [deg]
#  10 FWHM_WORLD             FWHM assuming a gaussian core                              [deg]
#  11 ELONGATION             A_IMAGE/B_IMAGE                                           
#  12 ELLIPTICITY            1 - B_IMAGE/A_IMAGE                                       
         1 -12.2306    126.1089     28.6005   3.4579907319e+01   5.0694125583e+01    0.5635064    0.5116827  50.26  0.003239801    1.094    0.086
         2 -12.5607    119.8134     37.8145   3.9614666381e+01   5.0902657043e+01    0.9034455    0.5398403 -52.84  0.002815246    2.307    0.567
         3 -10.6092    109.7976     40.9525   4.3570390094e+01   5.2653124626e+01     1.056462    0.4080893 -33.63  0.003975752    2.597    0.615
         4 -12.4484    160.0495     29.7265   2.7719976190e+01   4.2050026232e+01    0.4839725    0.4322813 -18.46 0.0004543324    1.213    0.176
         5 -12.4303    104.8974     12.7632   3.3772049907e+01   5.7395458157e+01    0.6231924    0.3700087 -23.73  0.001910173    1.741    0.426
         6 -11.3164    105.7276      2.7870   2.9388843463e+01   5.8188143167e+01    0.4127473    0.3392447 -66.97  0.001292226    1.681    0.405
         7 -11.8567    114.3599      2.5741   2.7254948099e+01   5.6249221360e+01    0.6496918    0.2964881  64.67  0.002812166    2.232    0.552
         8 -12.1187    105.9508     20.8182   3.6793479355e+01   5.6249746750e+01    0.4645916    0.3855184 -77.47  0.001812887    1.735    0.424
         9 -11.8106     26.8659     27.9505   6.9645125766e+01   6.7489464958e+01    0.5232725    0.3179049 -40.22  0.002414516    1.300    0.231
        10 -12.0433     48.1690     12.9845   5.3600589487e+01   6.7528559908e+01    0.5934131    0.3081378  37.36  0.003253963    2.046    0.511
        11 -11.8925     35.5941     18.0044   6.1556562891e+01   6.8306512552e+01    0.6734281    0.2131155 -34.88  0.002839566    2.979    0.664
        12 -12.2761     20.1897     21.8622   7.0464077431e+01   6.9103165665e+01    0.5129296    0.2359074 -41.82  0.001472227    1.665    0.400
        13 -11.5463    122.0010      5.6651   2.6784171903e+01   5.4183997305e+01    0.4297897    0.2001486 -20.05  0.001245129    2.347    0.574
        14 -11.3426    121.4881     11.7803   2.9272128857e+01   5.3717919455e+01    0.4189865    0.2960113  66.21   0.00220294    1.469    0.319
        15 -12.3733    135.2176     22.4770   3.0224498583e+01   4.9237571657e+01     1.107859     0.395866  50.00  0.004124232    2.424    0.587
        16 -11.1245    127.3434     11.6527   2.7922770984e+01   5.2332248514e+01     0.356739    0.2978361 -57.35  0.001478368    1.457    0.314
        17 -11.5193    134.4488     14.9604   2.7647133752e+01   5.0259175571e+01    0.6425308     0.311151  54.06  0.002818863    1.783    0.439
        18 -10.6267     87.5299      7.4753   3.6450824238e+01   6.1580835678e+01    0.5281397    0.2786091  46.67  0.002291707    1.707    0.414
        19 -10.9943     90.7879     22.2025   4.1866486251e+01   5.9218124637e+01    0.4185824    0.2658878 -23.52  0.001717799    1.556    0.357
        20 -11.3743     85.8535     14.1737   3.9966584804e+01   6.1170036669e+01    0.4226983    0.2726994 -18.30  0.001444969    1.529    0.346
        21 -11.2615    179.4734     20.4947   2.1558264355e+01   3.8049662281e+01    0.6403915    0.2715058  41.87  0.002025657    2.921    0.658
        22 -11.9279     67.8152     18.3052   4.8108058432e+01   6.3875212036e+01     0.443892    0.3925157   9.01  0.001762874    1.148    0.129
        23 -12.6192    164.4792     18.4068   2.3259923274e+01   4.2223819739e+01    0.6144066    0.2998452  40.70  0.002471877    2.300    0.565
        24 -10.6052     12.8675      8.9430   6.8837014371e+01   7.1805506417e+01    0.3414764    0.2287599 -62.18  0.002125387    2.329    0.571
        25 -12.0915     15.9668     14.5626   6.9627857487e+01   7.0661224143e+01     0.582368    0.2804514 -31.67   0.00325957    1.728    0.421
        26 -11.8771     22.7809     11.1985   6.4718143460e+01   7.0638536089e+01    0.4130982    0.2502653  -6.84  0.001616814    1.657    0.397
        27 -10.8306    148.6487     15.8955   2.5192915529e+01   4.6592018821e+01    0.4217065    0.2458195  31.41  0.001231662    2.004    0.501
        28 -12.2644    227.4734     15.2752   1.4277805953e+01   2.6298721786e+01    0.5132961    0.3225815 -87.43  0.001799179    1.587    0.370
        29 -11.9495    192.5104      8.3250   1.6252485800e+01   3.5940265042e+01    0.6765607    0.3999938  18.14  0.002897776    2.732    0.634
        30 -11.4894    211.9287      9.3675   1.4360637429e+01   3.0837713553e+01    0.6516526    0.3787073  -3.53  0.002845902    2.777    0.640
        31 -11.7759    206.0354      3.1540   1.3343743160e+01   3.2975856406e+01     0.574608    0.3234693  77.21  0.002801588    1.615    0.381
        32  -9.9944     98.6407     11.8660   3.5113678259e+01   5.8837250220e+01     0.248196    0.1521566  -0.50  0.001223581    1.863    0.463
        33 -10.8313      5.7736     10.8731   7.3414770050e+01   7.1963642398e+01    0.3609539    0.2591217 -18.37  0.002474836    1.200    0.167
        34 -10.3231    246.0000      9.9499   1.1338720614e+01   2.2472017779e+01     0.202361   0.06919146 -29.57 0.0008000464    2.926    0.658
        35 -11.3291    169.2266      9.3572   1.9648255148e+01   4.1924406556e+01    0.5290397    0.1997128  52.68  0.001881065    2.337    0.572
        36 -10.8868    163.0410      6.0176   1.9507339879e+01   4.3857220169e+01    0.3197909    0.1728222  42.28   0.00094436    1.924    0.480
        37 -10.7556    145.3537      9.6698   2.3639359181e+01   4.8060681152e+01    0.2753487    0.2062787  36.54 0.0003609909    1.322    0.244
        38  -9.6973      1.2421      8.0779   7.4729755776e+01   7.2686793268e+01    0.2103466   0.05683948 -48.75  0.001038187    2.474    0.596
        39 -11.0737    232.6342      7.1501   1.1824005630e+01   2.5947648265e+01     0.284988    0.2153973  87.06   0.00118141    1.191    0.160
        40 -11.5459    236.5101      5.4729   1.1095122417e+01   2.5199580918e+01    0.2764612    0.2357801 -53.59  0.001478843    1.144    0.126
        41 -11.1506    233.2345      2.5247   1.0677091518e+01   2.6296796131e+01    0.2898957    0.2050885 -72.73 0.0007055663    1.271    0.213
        42 -11.3954    157.6485      2.4959   1.9179146323e+01   4.5572210621e+01    0.3509975    0.2940871  41.83    0.0020382    1.187    0.157
        43 -11.5218    184.2260      5.3219   1.6404971472e+01   3.8396241689e+01    0.4398387    0.3582664 -30.83    0.0025166    1.358    0.264
        44 -11.6046    176.9279      5.9043   1.7514922233e+01   4.0245993271e+01    0.4232244    0.2386031  79.88 0.0007355306    1.758    0.431
        45  -9.5993     78.2034      7.4314   3.9408412261e+01   6.3381465163e+01    0.1941864    0.1629434  58.60 0.0006055724    1.539    0.350
        46 -11.2857     74.3155      3.5990   3.8909181347e+01   6.4503452992e+01    0.6027704    0.2313381  43.41  0.002744826    2.303    0.566
        47  -9.9684     62.7051      6.8432   4.4679889967e+01   6.6154128574e+01    0.2461971    0.1581181   2.89  0.001405292    1.552    0.356
        48 -10.7490    246.9939      5.9854   1.0361287846e+01   2.2683060560e+01     0.160366    0.1310354 -79.32 0.0007247119    1.055    0.052
        49 -10.9119    218.6428      3.8134   1.2278559908e+01   2.9732512801e+01    0.2892619     0.253953  72.10 0.0007373628    1.159    0.137
        50 -11.3048    223.9123      2.5562   1.1486531327e+01   2.8558341786e+01    0.2505459    0.2171648  88.18 0.0004451479    1.071    0.067
        51 -10.6822     41.4621      4.0899   5.2224297032e+01   6.9599805702e+01    0.2827227    0.1616313  -6.45 0.0009518723    1.862    0.463
        52 -12.4514    133.2896      2.6495   2.3357954518e+01   5.1717443281e+01    0.8146254      0.35069  71.10  0.003059126    2.519    0.603
        53  -9.7773     21.7128      3.1508   6.1452074741e+01   7.1941297694e+01    0.1849864    0.1116326 -37.37 0.0007137025    1.460    0.315
        54 -10.9753      2.5896      1.9224   7.1358278585e+01   7.3606574131e+01    0.2587003    0.1447856 -11.03  0.001322622    1.722    0.419
        55 -10.0573     13.4126      1.7208   6.5200299957e+01   7.2876054453e+01    0.1864805    0.1297945   8.10 0.0007471906    1.411    0.291
        56 -10.3326    152.2381      1.4025   1.9651183292e+01   4.7057081056e+01    0.3005449    0.1237417  69.55 0.0004587038    2.247    0.555
        57 -11.9356    141.4550      3.1962   2.2063285973e+01   4.9638720012e+01    0.7128647    0.2981167  73.31   0.00272305    2.673    0.626
        58 -10.0419     82.1395      1.3210   3.5287139363e+01   6.3252257177e+01    0.1766339    0.1055782  49.15 0.0004700062    1.570    0.363
        59  -8.8981     33.4969      1.4769   5.4635978351e+01   7.0920257532e+01    0.1174447   0.08671279  -7.81 0.0008099219    1.039    0.037
        60  -9.3851     47.2433    134.9810   8.7226690981e+01   4.2381135581e+01    0.1724607   0.09391262 -69.20 0.0006117763    1.575    0.365
        61 -11.0687     50.0975    249.2953   9.7263727522e+01   1.8548715100e+01     0.304781    0.0942942  53.07  0.001590093    2.350    0.574
        62  -9.7235     73.1739    133.1663   8.0129271249e+01   3.9585843817e+01    0.1965638    0.1515266  82.69 0.0007399239    1.340    0.254
        63  -9.6861     39.5024    133.4078   8.9005775096e+01   4.3559248821e+01    0.1685326    0.1223366  34.24 0.0005295821    1.614    0.380
        64  -8.9530    103.6744    130.7206   7.1525230721e+01   3.5337506004e+01    0.1404998     0.116986 -13.48 0.0002444258    1.593    0.372
        65 -10.8916     10.0098    127.8170   9.5814190462e+01   4.7332710224e+01    0.4199103     0.215179 -50.54  0.002040944    2.026    0.507
        66  -9.1883     92.9888    129.4885   7.4128235165e+01   3.7444966532e+01    0.2095895    0.1116981  60.33 0.0008103914    2.548    0.608
        67  -9.3501     26.7753    127.2477   9.1501907067e+01   4.6164947864e+01    0.1619299    0.1185781 -57.67 0.0003657868    1.308    0.236
        68  -9.6217     22.8621    126.8752   9.2466412426e+01   4.6577096337e+01    0.1689284     0.131275 -69.77            0    1.111    0.100
        69 -11.1719     12.4093    136.2919   9.6057554286e+01   4.5262216061e+01      0.42621    0.2213417 -54.43  0.002442357    1.906    0.475
        70  -9.9071      2.1280    125.8963   9.7571347598e+01   4.8278295635e+01    0.1824509    0.1223936  81.39  0.001219326    1.315    0.240
        71 -12.3636    103.8976    122.5805   6.9712259866e+01   3.7188976566e+01    0.3390207     0.317936  57.30 0.0006039601    1.091    0.083
        72 -10.0726     49.6144    123.0618   8.4812610059e+01   4.4910188917e+01    0.2363765    0.1773714  -7.47  0.001322322    1.973    0.493
        73  -9.6701     56.2987    122.0007   8.2793302756e+01   4.4396132316e+01    0.1857702    0.1499953 -73.63 0.0004032874    1.081    0.075
        74 -10.0845     48.8354    112.4809   8.3264702767e+01   4.7475898655e+01    0.3625813    0.1882245 -53.68  0.001800373    1.687    0.407
        75 -10.6921     44.9227    120.1580   8.5645579504e+01   4.6093596423e+01    0.3111521    0.1911892 -85.44 0.0004845568    1.695    0.410
        76 -10.2999     43.5655    116.4882   8.5440684566e+01   4.7091594723e+01    0.2231628    0.2063103 -25.73 0.0006381989    1.319    0.242
        77 -12.6114      2.5084    111.7263   9.6082464343e+01   5.1405225304e+01    0.4739462    0.2827758  79.54 0.0005357634    1.653    0.395
        78 -11.3957      4.4134    104.8521   9.4803523596e+01   5.2829867868e+01    0.3328571    0.3059547  48.33  0.002608629    1.365    0.268
        79  -9.8544     79.0894    114.7042   7.4949383697e+01   4.3089345083e+01    0.2449691    0.1839331 -70.49  0.001088545    1.307    0.235
        80  -9.3584     67.4984    114.9612   7.8336627653e+01   4.4652670397e+01    0.1983546    0.1131966 -85.88 0.0008094344    2.577    0.612
        81 -12.0956      9.8328     97.1578   9.2285525367e+01   5.4237053415e+01    0.4709385    0.4054829 -19.37  0.003482053    1.469    0.319
        82 -11.2816     29.8402     97.5015   8.6322384546e+01   5.2748762337e+01    0.8027697    0.3138888 -45.01  0.003575281    2.593    0.614
        83 -11.6597     27.6864     85.3049   8.4806299998e+01   5.5683197725e+01    0.5330143    0.4896709 -26.08  0.002718241    1.246    0.198
        84 -12.0975     17.3403    100.7353   9.0579342749e+01   5.2951670320e+01    0.3799141    0.2837315  89.31 0.0008723321    1.294    0.227
        85 -10.8517     35.3158     93.0491   8.3819975529e+01   5.3298231587e+01    0.4681865    0.2397252 -65.29  0.002401267    1.644    0.392
        86 -11.9352     25.4684    107.3260   8.9178040941e+01   5.0850399274e+01    0.9073526    0.6113897 -23.58  0.005337893    2.026    0.506
        87 -11.1194     21.6185    114.4414   9.1248674960e+01   4.9519535579e+01    0.4574693    0.2657958   4.75   0.00247454    2.722    0.633
        88 -11.0705     28.0460    113.1246   8.9288109358e+01   4.9308229851e+01    0.3797445    0.2330848  20.24  0.001908676    2.128    0.530
        89 -11.4666     22.5378     94.5167   8.8064822107e+01   5.3993611033e+01    0.3900447    0.2512897 -53.95  0.001788422    1.308    0.235
        90 -11.8719     18.2767     90.5275   8.8736693900e+01   5.5191356070e+01    0.6309506    0.2490639 -66.22   0.00261135    1.949    0.487
        91  -9.2598     93.5432    112.5123   7.0322964542e+01   4.1321576939e+01    0.1456543    0.1345627 -74.88 0.0005636076    1.052    0.050
        92  -9.7682     66.9296    110.7520   7.7661882629e+01   4.5716836600e+01    0.2666738    0.1646962  34.82  0.001340273    1.806    0.446
        93  -9.2004    170.5095    110.4560   4.9791444580e+01   2.5599971180e+01    0.1585527    0.1534374  20.64 5.050297e-05    1.050    0.047
        94 -11.2947     79.9590    108.0976   7.3260843916e+01   4.4505377308e+01    0.4370283    0.3021063  25.56 0.0007576449    1.743    0.426
        95  -9.4743    102.0284    109.0000   6.7071167482e+01   4.0658705793e+01    0.2347065   0.08490904  40.07 0.0006468986    2.893    0.654
        96 -11.7509     44.2504     84.8735   7.9247242541e+01   5.4309064895e+01    0.4826062    0.3385845  -6.46  0.002311715    1.880    0.468
        97  -9.0320     91.9705    102.3239   6.8347768316e+01   4.3933788164e+01    0.2401762    0.1034668  56.59 0.0004049093    4.433    0.774
        98 -10.8703     51.8922     99.3659   7.9875528470e+01   5.0195517572e+01    0.5551105    0.1994182 -47.45  0.001926431    2.621    0.618
        99 -11.6772     68.6642     95.8044   7.3870595355e+01   4.8956093927e+01    0.3907884    0.3069198  -9.17 0.0005673263    1.611    0.379
       100 -10.9242     78.4061     93.1045   7.0165183597e+01   4.8184518221e+01    0.4072206     0.398187  41.63  0.002488442    1.121    0.108
       101 -12.1168    125.2191     94.7517   5.6798488178e+01   3.9261462171e+01     0.463845    0.3244841  62.39  0.002052717    1.712    0.416
       102 -10.5678     43.0100     94.5582   8.1682536827e+01   5.2233481207e+01    0.2877702    0.2767538 -88.72  0.001495299    1.164    0.141
       103 -10.8952     98.5084     91.0346   6.3439623398e+01   4.5333312800e+01    0.2611087    0.2296638  42.61 0.0005377874    1.201    0.167
       104 -10.5783     49.5024     91.5088   7.8982916744e+01   5.2261122580e+01     0.268039    0.2255419  85.35  0.001648118    1.338    0.253
       105 -11.7758      6.8278     88.7303   9.2012314368e+01   5.6284725052e+01    0.4396026    0.3480189  -1.34  0.002583793    1.659    0.397
       106  -9.5552     82.9735     93.2651   6.8785019910e+01   4.7448964611e+01    0.5812478    0.2075097 -43.17  0.002020577    2.919    0.657
       107 -11.0296     89.7466     89.8755   6.5793574600e+01   4.7109976210e+01    0.5214282    0.2928917 -41.58  0.002307523    1.745    0.427
       108 -10.7997    143.1411     84.6603   4.9125718527e+01   3.7312843484e+01    0.2674479    0.2390566 -42.19 0.0002854998    1.125    0.111
       109  -9.7030    133.0185     84.6709   5.1758921014e+01   3.9644785226e+01    0.2081357    0.1887887  52.82 0.0003155641    1.125    0.111
       110 -10.6168     80.2259     83.9464   6.7173177005e+01   4.9948949582e+01    0.3465281    0.3400569 -89.90  0.002109968    1.125    0.111
       111 -10.7946     76.1747     78.9920   6.7110744565e+01   5.1643106172e+01    0.5284554    0.2644546 -51.25  0.002334088    1.838    0.456
       112 -10.2252     72.5100     78.0105   6.8049320011e+01   5.2392634810e+01    0.3375346    0.2584222 -60.20  0.001844949    1.335    0.251
       113 -10.5903     37.2721     85.9314   8.1782559856e+01   5.4736194831e+01     0.270915    0.1948192  16.44  0.001198875    1.716    0.417
       114 -10.6363    112.8776     82.4028   5.6687670911e+01   4.4432045594e+01    0.2765087    0.2618189 -19.24  0.000300765    1.041    0.039
       115 -10.2170     66.4142     81.7975   7.1110345182e+01   5.2410742575e+01    0.3715554    0.2562135  33.33  0.001991343    1.618    0.382
       116 -11.5475     53.4798     76.6923   7.4159982569e+01   5.5136612092e+01    0.5597751    0.4328492 -85.51  0.003182441    1.646    0.393
       117  -9.3698      1.4602     80.0775   9.2439325773e+01   5.8454597472e+01     0.178805   0.08498214 -67.82  0.001013155    1.550    0.355
       118 -11.9328     13.6916     74.7166   8.7502267220e+01   5.8982607713e+01    0.5266679    0.3379666 -65.53  0.002610628    1.236    0.191
       119 -10.1935     14.4101     67.5881   8.5874995678e+01   6.0483242518e+01    0.3923903    0.2065447   5.66  0.002186795    2.553    0.608
       120 -10.0225    233.4969     77.5105   2.9231602609e+01   1.6194155508e+01     0.146482    0.1353456 -53.50  1.67718e-05    1.026    0.026
       121 -10.4215     94.5005     76.5657   6.0483586992e+01   4.9152941009e+01    0.3677449    0.2463723  41.26   0.00130107    1.577    0.366
       122 -10.9208     58.3298     77.7930   7.2780963892e+01   5.4322864087e+01    0.3729896    0.2487191 -65.77 0.0009406387    1.592    0.372
       123 -10.9157     79.3701     68.0817   6.2796297237e+01   5.3448894643e+01    0.7287116    0.4865952 -68.77  0.003363215    2.194    0.544
       124 -10.1837     92.0695     71.9374   5.9828057831e+01   5.0538774846e+01    0.2301112    0.2063555  28.77 0.0004198602    1.164    0.141
       125 -10.6981     84.3950     73.8002   6.2887102445e+01   5.1459693086e+01    0.3631108    0.2749947 -17.07  0.001603051    1.499    0.333
       126 -11.0274     88.1950     73.1917   6.1464341308e+01   5.0951975936e+01    0.2997239    0.2741673 -75.82  0.001141211    1.282    0.220
       127 -11.1005      2.0128     71.7660   9.0965531908e+01   6.0229104527e+01    0.3578252    0.1396395 -63.16  0.001636692    1.792    0.442
       128 -11.1709    186.9828     71.3074   3.5402489503e+01   2.8801652150e+01    0.5958729    0.3807175 -36.43  0.001712036    1.567    0.362
       129  -9.5546    104.0097     74.5547   5.6920505951e+01   4.7798394298e+01    0.2218483    0.1448661  43.02 0.0006184219    1.589    0.371
       130 -10.2420     24.5962     73.6190   8.3514012789e+01   5.8503695812e+01    0.2241324    0.1666646 -56.51 0.0007220332    1.066    0.061
       131 -11.0418     34.1826     71.6571   7.9690912639e+01   5.8169230664e+01    0.4478498    0.2309306  35.29  0.002357409    2.303    0.566
       132 -10.0937     41.4775     72.5118   7.7303893119e+01   5.7316000610e+01    0.2809237    0.1930121 -35.85  0.001049923    1.393    0.282
       133 -10.9810     39.5282     69.2760   7.7192821883e+01   5.8201751414e+01    0.2686574    0.2172168  -7.67 0.0008468555    1.393    0.282
       134 -10.4592     28.8937     72.0982   8.1671331483e+01   5.8509511711e+01    0.3596085    0.2013384  46.37  0.001915195    2.391    0.582
       135 -11.2163    123.0084     68.8727   4.9561775890e+01   4.4972330957e+01     0.443641    0.2997449  41.77  0.001221649    1.486    0.327
       136 -10.7465    219.9234     66.9924   2.8562752915e+01   2.1134466810e+01    0.5287722    0.2283963  64.98  0.001939942    2.566    0.610
       137 -11.4681      9.6875     62.6882   8.6594272744e+01   6.1793575657e+01     0.635397    0.1313816 -48.74 0.0004558501    3.138    0.681
       138 -12.3976      4.7270     61.9428   8.8263531839e+01   6.2198981876e+01    0.4877355    0.3442165 -43.60  0.001832872    1.240    0.193
       139 -11.1952     92.8862     62.7957   5.6607522378e+01   5.2208816004e+01    0.6487077    0.3021322  49.65  0.002353001    2.585    0.613
       140 -10.4379     59.1169     63.2646   6.8403522771e+01   5.7314486338e+01    0.2967647    0.2452234 -84.47  0.001101176    1.657    0.396
       141  -9.8407     51.0639     56.4949   6.9308174403e+01   5.9663358879e+01    0.2380238    0.1828771   8.27  0.001029356    1.435    0.303
       142 -10.4873     50.7570     61.2489   7.0868605551e+01   5.8731094512e+01    0.2992301    0.2358032  31.30  0.001412609    1.461    0.316
       143 -11.5091     40.9140     56.9861   7.3336874697e+01   6.0648713118e+01    0.3830558     0.260948  49.76  0.001759543    2.061    0.515
       144 -11.2395     43.4747     62.4834   7.3937494567e+01   5.9256670618e+01    0.2586346    0.1961184 -44.78 0.0005306641    1.092    0.085
       145 -10.9645     46.1571     59.1488   7.1971913705e+01   5.9668252852e+01    0.3054112    0.2276303 -60.13 0.0009776724    1.378    0.274
       146  -9.4347    156.7601     63.5083   3.9334576649e+01   3.7885304950e+01    0.2208217    0.1392127  41.94 0.0006601017    1.632    0.387
       147 -11.2710    235.2994     60.9279   2.4800542203e+01   1.8321716937e+01    0.4260592    0.3350323  64.40  0.002282852    1.315    0.240
       148  -9.8773    174.9826    246.2874   7.5071146966e+01   2.6491797374e-01    0.1819869    0.1282013  40.41  0.000802809    1.093    0.085
       149 -11.6473    117.2772     55.2967   4.6608272826e+01   4.8688746205e+01     1.423368    0.7773047 -62.21   0.00456681    4.091    0.756
       150 -10.5361    248.9939    133.8086   4.0305980600e+01   3.7005206750e+00    0.2146328    0.1498047  -8.09  0.001063349    1.614    0.380
       151 -10.1395     82.5055     46.9603   5.4508332516e+01   5.6956876565e+01     0.889304    0.4862888 -10.58  0.003224663    3.529    0.717
       152 -12.5636     74.4171     52.6283   5.9392832152e+01   5.7253090732e+01    0.7952219    0.3774464 -52.36  0.001921766    2.495    0.599
       153 -12.0860    117.6385     44.0234   4.2488392862e+01   5.0460804110e+01    0.6080377    0.5656871 -10.67  0.002475027    1.067    0.063
       154 -11.8582     25.1145     57.8714   7.9675529597e+01   6.1829136845e+01    0.6315945    0.5647646  71.91  0.003878314    1.463    0.316
       155 -10.7866     34.1207     52.0274   7.4540376669e+01   6.2292096570e+01    0.5322592    0.2714342   4.24  0.002538469    2.898    0.655
       156 -11.5228     72.6050     47.8183   5.8326473547e+01   5.8420099782e+01     0.313417    0.2881787 -80.95  0.001238038    1.500    0.334
       157 -10.5043     87.6221     56.8887   5.6326284339e+01   5.4269704572e+01    0.4795429     0.208004 -34.13  0.001861341    2.460    0.594
       158 -10.1257     91.6885     57.1893   5.5087708050e+01   5.3487990738e+01    0.2598663    0.2235942  53.48 0.0007961041    1.367    0.268
       159  -9.2176     11.3037    244.3038   1.0307038292e+02   2.3731428873e+01   0.08176548    0.0692852 -83.60 0.0002883333    1.596    0.373
       160 -10.7067    106.0487     58.4698   5.1005307475e+01   5.0492979713e+01    0.2769053    0.2028956 -53.54  0.001161856    1.591    0.372
       161 -10.1069    157.9149     54.7117   3.6282972858e+01   3.9041994137e+01    0.4284233    0.2603916 -78.45  0.001480708    3.141    0.682
       162  -9.6471     67.0163     55.0268   6.2886852690e+01   5.7899422460e+01    0.1926228    0.1643888 -77.16 0.0008427616    1.622    0.383
       163 -11.6162     60.5263     47.4052   6.2670936551e+01   6.0244591773e+01    0.8651623    0.3662555 -47.07  0.003826222    2.191    0.544
       164  -9.9035      7.3250     53.9674   8.5639886585e+01   6.3739657999e+01    0.1724946    0.1113006 -60.07  0.001128713    1.205    0.170
       165 -10.3366     51.8893     48.1792   6.6278890286e+01   6.1196735579e+01    0.2926669    0.2243461  28.36 0.0009856052    1.458    0.314
       166 -11.7074     45.5658     48.5236   6.8888905702e+01   6.1853057698e+01    0.5950746    0.3192641 -44.81  0.003155088    1.555    0.357
       167 -11.9528     42.4430     43.9840   6.8627824171e+01   6.3058333771e+01    0.5527176    0.2585086  27.29  0.002771294    2.404    0.584
       168 -10.4668    240.4366     50.6838   2.1597080260e+01   1.8591612497e+01    0.2394308    0.1627327  44.44  0.001185255    1.756    0.430
       169 -10.2416    146.0046     47.4780   3.6559923416e+01   4.3183542046e+01    0.3274584    0.2306252 -15.46  0.001181049    1.643    0.391
       170  -9.6857      1.8878     49.0989   8.6705870390e+01   6.4989973428e+01    0.1581661    0.1329864 -65.74 0.0007893065    1.206    0.171
       171 -11.1017     20.7764     45.9288   7.8200113137e+01   6.4572257451e+01     0.315359    0.1846879 -44.06 0.0005350675    1.325    0.245
       172 -10.0759     13.1625     47.3596   8.1730182219e+01   6.4773469234e+01    0.2709925    0.1144666 -43.55  0.001451481    1.847    0.459
       173  -9.6858    199.9922     44.9975   2.5614663816e+01   2.9510167522e+01     0.393812     0.189112  89.45  0.001142842    4.372    0.771
       174 -10.5629    136.9094     44.8399   3.7796206733e+01   4.5828384214e+01    0.7496219     0.203906  45.15  0.002164126    3.797    0.737
       175  -9.0477    101.3362     44.6587   4.7488763693e+01   5.3828029728e+01    0.1392567    0.1148608 -74.66 0.0007050603    1.761    0.432
       176  -9.3891    160.7581     43.6359   3.2117440907e+01   3.9990685373e+01    0.2187386    0.1410017  70.98 0.0009461258    1.696    0.410
       177 -10.5197    155.7794     42.3013   3.2701545469e+01   4.1467707621e+01    0.2854902    0.2529004  13.69 0.0009644886    1.217    0.178
       178 -10.7178     26.5430     42.8507   7.4871460682e+01   6.4746488967e+01    0.2343437    0.1682125 -35.25 0.0009685078    1.137    0.121
       179 -10.4054     22.8497     37.4265   7.4742939742e+01   6.6074903765e+01    0.4120821    0.2471613  47.34  0.002285196    2.724    0.633
       180 -10.4016     92.3961     41.7739   4.9233656150e+01   5.6045917073e+01    0.3569171     0.199461  46.08  0.001387467    1.853    0.460
       181  -9.8008     17.2547     41.8916   7.8524639274e+01   6.5607380397e+01    0.2228474    0.1129097 -27.36  0.001218284    2.052    0.513
       182 -11.3334      4.6002     36.0745   8.2375090213e+01   6.7457501891e+01    0.3451632    0.2319822 -29.60  0.002424563    1.341    0.254
       183 -10.4037     79.5365     39.0157   5.2524018719e+01   5.8813679399e+01      0.43594    0.2861468  67.41  0.001879174    3.148    0.682
       184 -11.4791     79.5354     33.2816   5.0242448843e+01   5.9728677146e+01    0.5802025    0.3451345  22.70   0.00281367    1.923    0.480
       185 -10.1120     59.7356     23.5938   5.3593543464e+01   6.4374147857e+01    0.2493902     0.146118 -34.85  0.000788864    1.575    0.365
       186 -11.2365     61.0673     36.2264   5.8290336020e+01   6.2161624115e+01    0.4446561    0.2653846 -30.96   0.00155694    1.525    0.344
       187 -10.2750     67.3575     32.4001   5.4334899870e+01   6.1864063126e+01    0.4280652    0.3461142  42.78  0.002607892    1.487    0.327
       188  -9.7071     43.0473     28.0318   6.2442797164e+01   6.5848956361e+01    0.1677854    0.1167137 -18.52  0.001027751    1.290    0.225
       189 -11.7934     57.4673     30.8197   5.7552376083e+01   6.3564824924e+01    0.4486162    0.2809004 -29.74  0.001205713    1.420    0.296
       190 -11.4305     48.3250     30.5079   6.1186618572e+01   6.4807508843e+01    0.6934466    0.3175178  22.46  0.003224302    2.690    0.628
       191  -8.8051    206.3277     37.2988   2.2541389161e+01   2.8924034554e+01    0.1468786    0.1084828  35.50 0.0007028293    1.637    0.389
       192  -9.3168    194.7722     37.6530   2.4317719687e+01   3.1887621012e+01     0.191345    0.1331108  76.64 0.0001988919    1.450    0.310
       193  -9.7747    132.9360     37.1032   3.6028389579e+01   4.7918033370e+01    0.3504308    0.2061138  83.47  0.001243723    3.288    0.696
       194  -9.3351    227.2878     36.3214   1.9584017596e+01   2.3745804923e+01      0.13476    0.1084103  29.35 0.0002384551    1.600    0.375
       195 -10.4401    176.6166     35.5546   2.6613707270e+01   3.6951308724e+01    0.3169637    0.2282219 -60.17  0.001106196    1.560    0.359
       196 -11.7648    126.5144    241.8085   8.3377046793e+01   8.8858475716e+00    0.3560553    0.2050486  56.70  0.001887438    1.536    0.349
       197 -12.1774    164.3134     27.6870   2.6279651149e+01   4.1189511830e+01     0.311496    0.3015741 -88.42 0.0004048558    1.067    0.063
       198 -11.1407    147.0023    237.9882   7.9146155119e+01   6.1288940867e+00    0.4009403    0.2596969  56.97  0.002368842    1.453    0.312
       199  -9.6972    167.6232    238.2734   7.5348123612e+01   2.6170983695e+00    0.1436219    0.1170661 -26.10 0.0006790837    1.587    0.370
       200  -9.7738     48.7018    238.6417   9.6824120908e+01   2.0551728873e+01   0.09045523   0.08190713 -64.76 0.0007035024    1.707    0.414
       201  -9.2433    199.6673    234.6838   6.8916306110e+01  -2.2906413490e+00    0.1266882   0.08253381  17.15 0.0003486339    1.688    0.408
       202 -11.3967    106.7945     32.0623   4.1035988566e+01   5.4602072055e+01    0.5487556    0.3166576   8.39  0.002190552    2.718    0.632
       203 -12.2887    114.2281     25.0457   3.6237756938e+01   5.3896352157e+01    0.7913699    0.3040363  43.83  0.002598833    2.451    0.592
       204 -10.2175    239.9055     32.5969   1.7239482669e+01   2.1169924015e+01    0.2792952    0.2121588  45.61  0.001174094    1.581    0.367
       205 -10.1686     47.2770     19.2165   5.6851366826e+01   6.6741602380e+01    0.2686787     0.176789 -24.86  0.001633975    1.300    0.231
       206 -10.7571     32.5517     30.6238   6.8076896030e+01   6.6500465734e+01    0.3111816    0.1800562 -56.15  0.001035519    1.973    0.493
       207  -9.2833     15.3822    233.8148   1.0197972484e+02   2.5136464612e+01     0.132639   0.07572347 -75.58 0.0009437144    1.698    0.411
       208 -11.5122     67.8301    240.9309   9.3743440375e+01   1.7711265064e+01    0.2877516    0.1811413  35.93  0.001322733    1.848    0.459
       209 -11.1427     38.8365     22.4271   6.1983165643e+01   6.7246829176e+01    0.2156319    0.1777904 -23.67 0.0003114385    1.122    0.109
       210  -9.9572     75.2613    224.4322   9.1072474709e+01   1.9654990399e+01    0.1675642   0.08552858  52.41 0.0008093017    1.572    0.364
       211  -9.7837    231.5238     38.5863   1.9655042687e+01   2.2403790017e+01    0.2968888    0.1321554 -31.62  0.001222724    2.211    0.548
       212 -10.0267     89.5452     29.2072   4.5184279518e+01   5.8506390782e+01    0.2221216    0.1883043 -47.63   0.00106604    1.468    0.319
       213 -10.4468     11.5220     30.0063   7.7446097186e+01   6.8237877613e+01     0.302734    0.1779759 -25.58  0.001558165    1.578    0.366
       214  -9.9316      7.2188     30.5738   7.9608407117e+01   6.8375578276e+01    0.2541016    0.1232179 -12.50   0.00140649    2.499    0.600
       215  -9.8420    230.6880     30.1134   1.7627931820e+01   2.3714703792e+01    0.1873327    0.1731162 -48.27 0.0006255729    1.133    0.118
       216 -10.8090    188.9774     28.0959   2.2411560678e+01   3.4642826392e+01    0.3818904    0.3088263   3.66  0.001565936    1.537    0.350
       217  -9.7052     99.2400     30.2373   4.2550252422e+01   5.6440190657e+01    0.2117522    0.1624922 -71.13  0.001049819    2.130    0.530
       218 -10.3093    198.0711     28.7833   2.1311647025e+01   3.2171377713e+01    0.4414833     0.199267  56.74  0.001795505    2.051    0.512
       219 -11.2864    183.1037     25.3863   2.2485169266e+01   3.6520764753e+01    0.4087065    0.2652383  54.59  0.001159289    1.453    0.312
       220 -11.1582    156.8098     20.3580   2.5217549695e+01   4.4004752257e+01    0.5001373      0.19313  57.74  0.001913502    2.206    0.547
       221  -9.6739    150.4750     27.4666   2.8807013767e+01   4.4803163857e+01    0.3218534     0.149683  48.54 0.0008536973    1.989    0.497
       222 -11.4965    154.6573     24.6097   2.7032889814e+01   4.4071640290e+01    0.4245728    0.2744742  78.87   0.00193668    1.760    0.432
       223  -9.8257    230.4831     26.5090   1.6752204466e+01   2.4218061946e+01    0.1383075    0.1222057 -74.06 3.029344e-05    1.000    0.000
       224  -9.6038     49.6668    222.6938   9.5567789885e+01   2.3327770823e+01   0.09328602   0.08761708 -58.52 0.0004263092    1.665    0.400
       225 -10.2412     13.9483     23.0097   7.3908038925e+01   6.9355937246e+01    0.1711649    0.1224703 -32.48  0.001210073    1.060    0.057
       226 -11.6618    144.1324     24.8649   2.9189463730e+01   4.6731034355e+01    0.6095327    0.2661178  45.65  0.002388537    2.191    0.544
       227 -10.1502    164.7082    211.9830   7.2106902232e+01   7.2153711530e+00    0.2334368    0.1656722  44.04 0.0006173007    1.188    0.158
       228 -10.5933    152.7533    207.0797   7.3755314416e+01   1.0229835325e+01    0.3461279    0.2323731  86.92  0.001651709    2.411    0.585
       229  -9.1730     61.4952    206.4924   9.2065765132e+01   2.4961370777e+01    0.1210738   0.09379409  72.42  0.000810629    1.001    0.001
       230 -10.6855    139.3333    198.9675   7.5282644316e+01   1.4149659086e+01    0.2596626    0.1739213  62.18  0.001263179    1.567    0.362
       231 -10.1348    234.0407    196.3286   5.6038932046e+01  -2.9564473718e+00      0.22485    0.1639319 -11.86 0.0009357734    1.368    0.269
       232 -11.0531    127.5060     16.3678   2.9666860352e+01   5.1802657722e+01    0.3251246    0.2182108  47.65  0.001049809    1.328    0.247
       233 -10.2301     81.0366     19.4750   4.3893167283e+01   6.1424843477e+01    0.4618159    0.1425185  47.35  0.001747091    3.168    0.684
       234  -9.9199    172.0086    190.4838   6.7049840123e+01   9.5499958040e+00    0.2006496    0.1132069  24.18 0.0008096581    2.482    0.597
       235 -11.6593      4.9788    185.7231   1.0128325114e+02   3.5270619968e+01    0.3806695    0.2694139  81.42  0.002336176    1.007    0.007
       236 -10.4897     89.3503     16.7882   4.0002319557e+01   6.0177036509e+01     0.321174    0.2119706  37.20  0.001475671    1.387    0.279
       237  -9.3334     86.5076    185.4823   8.4680652662e+01   2.5779242656e+01    0.1320176    0.1108201  73.46 2.707814e-05    1.004    0.004
       238  -9.3857    175.7530    179.9908   6.4339010025e+01   1.0707179624e+01    0.1784759    0.1238019 -42.79 0.0008849737    1.588    0.370
       239 -10.0756    223.1433     22.0534   1.6425896061e+01   2.6576119853e+01    0.2318353    0.1818799  83.72 0.0004217931    1.187    0.158
       240  -9.4592      6.0739     21.3511   7.7165502630e+01   7.0131504483e+01    0.2994595   0.05250156 -45.50  0.001257191    3.182    0.686
       241  -9.2443    250.3130    177.3240   4.9428129024e+01  -3.1157154996e+00     0.137661   0.09049519   6.83 0.0007040739    1.660    0.398
       242  -9.5294    113.4211    175.8438   7.7333519754e+01   2.3452912158e+01    0.1845607    0.1264521 -45.23 0.0009247083    1.731    0.422
       243 -10.0831     74.6394     19.5127   4.6141942064e+01   6.2562763354e+01    0.2401066    0.1762916  13.32 0.0005514849    1.285    0.222
       244 -10.8282    245.5576     19.0568   1.3471574984e+01   2.1518505747e+01    0.1979382    0.1185949 -36.10 0.0009017169    1.591    0.371
       245  -9.3277     28.2356    175.9966   9.6062548868e+01   3.5148474293e+01    0.1527783   0.07996011 -78.04 0.0006609015    1.592    0.372
       246  -9.7568    248.3336    173.3262   4.8957796379e+01  -2.1973914384e+00    0.1411146   0.09232974   7.88 0.0005546884    1.715    0.417
       247  -9.3685     51.7951    173.6071   9.0849688573e+01   3.3076038639e+01      0.16928   0.09771466  51.71 0.0004619792    1.612    0.380
       248  -9.1613    191.2796     17.0945   1.8901235721e+01   3.5328403237e+01    0.2139971    0.1115559   6.71 0.0007010185    4.208    0.762
       249  -9.5021    207.1879    172.5960   5.6448278248e+01   5.7036361320e+00     0.206187    0.1226074  33.55 0.0009431774    1.657    0.397
       250 -10.8217    117.6856     16.6103   3.2054888272e+01   5.4097834838e+01    0.4399223    0.1628303  61.07  0.001562473    2.842    0.648
       251 -10.4384    186.8970     15.1036   1.8907764026e+01   3.6695553076e+01    0.2346163    0.2102405  80.61 0.0003739329    1.007    0.007
       252  -9.1064    170.4617    172.4555   6.4014638323e+01   1.3180693140e+01    0.1456797    0.1336971  42.49 0.0001715886    1.014    0.014
       253  -9.5653    198.2837    167.9363   5.7270768585e+01   8.3051886674e+00    0.2005994    0.1846916  -2.46 0.0006179729    1.084    0.078
       254  -9.5292     74.8071     13.5909   4.3416639564e+01   6.3289161817e+01    0.1670091    0.1195706  52.78 0.0009450063    1.696    0.410
       255  -8.9630    152.3286    166.7046   6.6887764936e+01   1.7998989933e+01    0.1490819     0.112446  75.06 0.0005199893    1.631    0.387
       256  -9.8464     19.0022    164.9536   9.7087859549e+01   3.8400237064e+01    0.1730169    0.1234228 -51.82  0.001139638    1.740    0.425
       257 -10.6068    205.0207    163.3309   5.4946812637e+01   7.7296111792e+00    0.2578904    0.2121677 -39.35 0.0006852853    1.297    0.229
       258  -9.7971     28.1902    160.9405   9.4759958606e+01   3.8423949636e+01    0.1725857    0.1530195 -71.06  0.001249761    1.303    0.232
       259  -9.9175    169.3775     23.8736   2.4191502660e+01   4.0317985592e+01    0.3221528    0.1569985  49.42  0.001325664    1.954    0.488
       260  -9.3545     38.1987    160.5868   9.2498273577e+01   3.7493953652e+01    0.1402578    0.1203689  21.74 0.0006501094    1.606    0.377
       261 -11.3344      9.4324    167.0618   9.9233565013e+01   3.8771248170e+01    0.2226026     0.186546  43.19  0.001167629    1.475    0.322
       262  -9.6614    215.4788    157.4466   5.1624377594e+01   6.5948880483e+00    0.1448017    0.1318358  12.40 5.413876e-05    1.012    0.012
       263  -9.7969      9.3520    155.5667   9.8404111632e+01   4.1246924923e+01    0.2027819   0.08358812 -76.47  0.001075679    1.888    0.470
       264  -9.9405     65.7232     10.4360   4.5258480193e+01   6.5230272606e+01    0.2143957     0.115802  46.03 0.0009695047    1.973    0.493
       265 -10.2647    104.3677    154.6183   7.5929319164e+01   2.9710745988e+01    0.2686009    0.2595104 -65.69  0.001596921    1.156    0.135
       266 -10.2102    141.7137    152.3627   6.6478888478e+01   2.3157435019e+01    0.3923732    0.2128841  50.58  0.001438316    1.833    0.454
       267 -10.0022      3.7314    153.2968   9.9440023880e+01   4.2165503722e+01    0.1958032     0.109147  51.05  0.001244906    1.761    0.432
       268 -10.0586     30.5350    151.9749   9.3358174730e+01   4.0195267541e+01    0.1945622    0.1756919 -19.91  0.001263845    1.599    0.375
       269 -12.0930     23.2595    148.8653   9.4724441106e+01   4.1563717511e+01    0.3847305    0.2414417 -47.86  0.001445306    1.929    0.481
       270 -10.0078     65.3469    149.8808   8.4777369746e+01   3.6734614907e+01    0.3610248    0.1989224   9.83  0.001251502    5.107    0.804
       271 -10.8928     46.6092    147.2247   8.9008317124e+01   3.9615049814e+01    0.4781875    0.2689292 -47.26  0.002450883    2.110    0.526
       272 -10.9476     16.2093    147.9332   9.6250382494e+01   4.2371655610e+01    0.2455276    0.1823125  68.43 0.0005622815    1.252    0.201
       273 -10.1607      3.1560    147.6450   9.9144286206e+01   4.3430950042e+01    0.1499098    0.1212262 -89.15  0.001126552    1.115    0.103
       274 -10.0503    239.5068    147.0054   4.4884336169e+01   3.4721703552e+00    0.2155636     0.130691 -32.43 0.0007872282    1.574    0.365
       275  -9.6851     74.0479    146.0139   8.2029097325e+01   3.6450561797e+01    0.1983528    0.1562619 -37.80 0.0004925734    1.599    0.375
       276 -11.1534     33.1491    144.4507   9.1934461949e+01   4.1646073275e+01    0.2549603    0.1984483  84.74 0.0007008236    1.105    0.095
       277 -10.0493    232.8405    143.1947   4.5214296983e+01   5.4301441206e+00    0.3084335    0.1147781  54.20  0.001032707    3.457    0.711
       278 -10.8955      5.8585    142.1205   9.8102022655e+01   4.4446742839e+01    0.2037464    0.1576592 -85.81 0.0002691214    1.047    0.045
       279 -11.2045      2.0852    140.4661   9.8824767474e+01   4.5070733734e+01    0.3647259     0.152934 -77.84  0.001277776    1.815    0.449
       280 -10.0924    217.1706    138.8706   4.7122549023e+01   9.4561810184e+00    0.2171721    0.2056808 -64.17 0.0005346182    1.222    0.182
       281 -10.2707     40.4892    138.0704   8.9362082984e+01   4.2379669516e+01    0.2383547     0.161648  75.29 0.0008683614    1.473    0.321
       282  -9.9389     79.0415    138.0246   7.9427101837e+01   3.7603432054e+01    0.2179126    0.1921584 -80.32  0.001192002    1.019    0.019
       283  -9.7953     32.0542    137.5142   9.1401786832e+01   4.3335612454e+01    0.2829389    0.1676628  43.15  0.001159189    1.802    0.445
       284 -11.2216     22.4574    136.1854   9.3617934813e+01   4.4490550022e+01     0.534216    0.2630075  44.11  0.002945957    2.135    0.532
       285 -11.1787     29.6941    133.1704   9.1475095075e+01   4.4549003256e+01    0.3225076    0.2478863 -41.75 0.0007193889    1.583    0.368
