#   1 NUMBER                 Running object number                                     
#   2 MAG_AUTO               Kron-like elliptical aperture magnitude                    [mag]
#   3 X_IMAGE                Object position along x                                    [pixel]
#   4 Y_IMAGE                Object position along y                                    [pixel]
#   5 X_WORLD                Barycenter position along world x axis                     [deg]
#   6 Y_WORLD                Barycenter position along world y axis                     [deg]
#   7 A_WORLD                Profile RMS along major axis (world units)                 [deg]
#   8 B_WORLD                Profile RMS along minor axis (world units)                 [deg]
#   9 THETA_WORLD            Position angle (CCW/world-x)                               [deg]
#  10 FWHM_WORLD             FWHM assuming a gaussian core                              [deg]
#  11 ELONGATION             A_IMAGE/B_IMAGE                                           
#  12 ELLIPTICITY            1 - B_IMAGE/A_IMAGE                                       
         1 -13.8295      7.3780     13.9987   1.2289478011e+02   7.1375042163e+01     2.590586    0.7098994 -53.08    0.0121845    2.397    0.583
         2 -13.4849    188.5338     27.6279   7.3906657516e+01   3.4350720742e+01     1.334646     1.257564  43.67  0.006300533    1.070    0.065
         3 -13.9951    201.1762      9.9219   6.6587396698e+01   3.2919525367e+01     1.987132     1.211806  40.47  0.009020892    1.787    0.440
         4 -10.8278     46.2175    248.2413   1.4148431294e+02   2.3185583713e+01    0.2538811    0.1114556  63.70  0.001016325    1.750    0.429
         5 -11.1547    248.8401    248.5759   1.1211088007e+02  -3.6520162512e+00    0.3240363    0.2107507   3.95  0.002657708    1.559    0.358
         6 -11.5100    139.3579    249.0099   1.2788500467e+02   1.1562570422e+01    0.2544068    0.2220527 -74.27  0.002347893    1.539    0.350
         7 -10.3935     98.7079    249.1978   1.3392114446e+02   1.6920276886e+01    0.2028356    0.1176066  55.85  0.001160366    1.245    0.197
         8 -10.3275    102.8396    248.0937   1.3323112698e+02   1.6531712748e+01    0.1846388   0.09359226  57.81  0.000681591    1.583    0.368
         9 -10.0440     67.0766    250.3948   1.3860852750e+02   2.0588325311e+01    0.1577247    0.1166195 -79.81 0.0009804846    1.608    0.378
        10 -10.5146     66.4737    242.9245   1.3827474276e+02   2.1648681028e+01    0.2479549    0.1393112 -88.96  0.001573973    1.884    0.469
        11  -9.3634     63.0919    250.5793   1.3919093501e+02   2.1018638348e+01    0.1366231   0.06319898  46.62 0.0004684873    1.542    0.352
        12  -9.7962     37.5574    249.8306   1.4277548684e+02   2.3880580002e+01    0.1830258   0.08942947  52.49  0.001257918    1.352    0.260
        13 -11.9412     35.0064    245.2297   1.4294437806e+02   2.4765971728e+01    0.4129485    0.3663428  63.30  0.004201239    1.591    0.372
        14 -10.3238     28.7383    249.6028   1.4399523205e+02   2.4803954156e+01    0.1982418    0.1439834  58.27  0.001252199    1.252    0.202
        15 -12.3481     27.9934    203.8963   1.4212063617e+02   3.1643963362e+01    0.3903256    0.1538816  48.73 0.0009175287    1.861    0.463
        16 -13.3544      7.3434    186.5375   1.4474656436e+02   3.6463767481e+01     1.362139    0.5199285 -78.70 0.0008748136    2.249    0.555
        17 -14.5095     54.3025    209.9689   1.3815831296e+02   2.7859131806e+01     7.550028     1.103144  51.58   0.02966628    4.866    0.794
        18 -15.0098     19.6270    171.9293   1.4183797540e+02   3.7924975797e+01     5.658334     1.543574  87.66    0.0199874    6.317    0.842
        19 -10.7930     83.8443    244.3643   1.3579095608e+02   1.9388324249e+01    0.2903198    0.1225205  60.74  0.001850494    2.123    0.529
        20  -9.7284     75.9091    243.9668   1.3694262339e+02   2.0399824917e+01    0.1588479   0.07679133  62.06  0.001119819    1.703    0.413
        21  -9.8211    152.4882    248.0787   1.2585102937e+02   9.8450489123e+00    0.1108238    0.1006024 -59.36 0.0005726047    1.545    0.353
        22 -10.5510     94.6518    241.8913   1.3400318418e+02   1.8364070551e+01    0.1993528    0.1103984 -64.04  0.001489655    2.272    0.560
        23 -10.4752     19.0093    241.4803   1.4506141316e+02   2.6867363552e+01     0.175726   0.06798991  61.53  0.001280853    1.775    0.437
        24 -14.8128      3.4641    235.5651   1.4705942090e+02   2.9135158807e+01     6.845484    0.6424821 -75.81   0.01123442    7.249    0.862
        25  -9.9380    183.2976    238.1978   1.2021941000e+02   6.4638156743e+00     0.149569   0.09968259  36.80 0.0007890026    1.156    0.135
        26  -9.5894    172.1792    238.6268   1.2193689197e+02   8.0418884621e+00    0.1466403   0.07172598  38.82 0.0003678421    1.590    0.371
        27 -11.0564    233.3316    236.6658   1.1272826200e+02  -6.3393731451e-01    0.3039141    0.2045643 -59.96  0.001732251    4.615    0.783
        28 -13.9501     50.4131    224.3245   1.3964466213e+02   2.6105711556e+01    0.8841436    0.5404916  72.47    0.0058007    1.303    0.233
        29  -9.9620     35.1074    229.2048   1.4222947745e+02   2.7023813812e+01    0.2124678    0.1432602 -79.61  0.001385126    1.602    0.376
        30 -10.7945     18.8582    226.9228   1.4455476568e+02   2.8973816900e+01    0.3498062   0.07989109  54.22  0.001985281    2.703    0.630
        31 -10.8761    173.6348    222.0133   1.1980235603e+02   9.6408173623e+00    0.3168771    0.2357908  68.58  0.002282088    1.703    0.413
        32  -9.7624     27.6972    221.6887   1.4301049977e+02   2.8892924059e+01    0.1693324    0.1030627  62.47 0.0003992089    1.115    0.103
        33 -11.1629    196.5891    242.0070   1.1868979567e+02   4.1641665112e+00    0.3912554    0.2520638 -67.84  0.002296563    4.143    0.759
        34  -8.7649    152.4987    212.9362   1.2210899692e+02   1.3986289443e+01    0.1249649    0.1102192 -58.00 0.0003648653    1.452    0.311
        35 -11.3728     68.5430    198.7971   1.3495203395e+02   2.7958171891e+01    0.2453947    0.1887597 -54.18  0.001587334    1.855    0.461
        36 -10.1125    194.1448    197.4262   1.1322029674e+02   9.2111409545e+00      0.36168    0.1767466 -56.33  0.001537603    4.890    0.796
        37 -11.6073     73.7583    190.9648   1.3337777352e+02   2.8597609966e+01    0.2104073    0.1858867 -78.64 0.0007313552    1.377    0.274
        38 -12.6195     44.2523    233.5159   1.4106774958e+02   2.5438015830e+01    0.2516417      0.20601  81.27 0.0007902535    1.368    0.269
        39  -8.2994    105.4292    181.3804   1.2660318396e+02   2.5839784033e+01     0.115222   0.09038062  62.25 0.0001233758    1.050    0.048
        40 -13.2440     70.1310    176.1305   1.3268317065e+02   3.1617658759e+01    0.3789108    0.2464079 -47.38  0.001922934    2.281    0.562
        41 -10.8368     82.6118    178.3553   1.3054526606e+02   2.9590155787e+01    0.1985724    0.1649529  70.14 0.0002739846    1.070    0.065
        42  -9.0119    172.0228    173.9870   1.1335932416e+02   1.6022680255e+01    0.1813763    0.1401592  72.95 0.0006215665    1.627    0.385
        43 -11.9458     89.0574    168.7358   1.2824843830e+02   3.0400170557e+01    0.5804508    0.4664102  71.24  0.004114137    1.041    0.039
        44  -8.7081    250.6756    171.6897   1.0012320614e+02   2.5409814225e+00    0.1241137   0.07336883  18.81 0.0002246183    1.655    0.396
        45 -12.6993     66.9648    143.9186   1.2983430582e+02   3.8079505784e+01    0.9611407    0.5003515  80.32  0.004744372    2.470    0.595
        46 -11.8766     57.7742    131.8573   1.3038262972e+02   4.1653992206e+01    0.9916531    0.3514291 -80.51  0.003230249    5.428    0.816
        47 -13.7720     10.2889    207.2099   1.4510641274e+02   3.2796270952e+01    0.9379318    0.6023831 -75.76  0.003390529    1.668    0.401
        48  -9.8253    100.9898    152.4369   1.2373271430e+02   3.1621791672e+01    0.2283493    0.2003158  76.26 0.0006704151    1.036    0.035
        49 -11.9935     89.9802    151.8780   1.2594916640e+02   3.3377378167e+01    0.2236146    0.2165598  82.26 0.0005287327    1.272    0.214
        50  -9.1271    104.0119    147.8974   1.2243577390e+02   3.2000597108e+01    0.2158642    0.1597676 -30.49   0.00121498    2.094    0.522
        51 -13.0602     29.7506    139.3001   1.3745547406e+02   4.3178524005e+01    0.7972692    0.3264698  55.81  0.004314517    2.298    0.565
        52  -9.5829    111.3181    137.3194   1.1918179554e+02   3.2821424691e+01    0.2548378    0.2105886 -11.28  0.001349034    1.843    0.458
        53 -10.7365     98.9886    135.0479   1.2150982375e+02   3.5262774348e+01    0.2819765    0.2088579 -50.48 0.0008017516    1.489    0.329
        54  -9.6324    168.2029    132.0998   1.0640129728e+02   2.3160114766e+01    0.2255597    0.1859004  67.45 0.0005746802    1.332    0.249
        55  -8.5692    192.0019    143.9864   1.0438264351e+02   1.6591152297e+01    0.1532346    0.1399741  25.61 0.0004135861    1.030    0.029
        56 -10.2725    174.4314    137.8978   1.0639281056e+02   2.0984047802e+01    0.3866124    0.2649182  85.85  0.001768402    2.576    0.612
        57  -9.1692    108.1165    124.1460   1.1755098334e+02   3.5922766912e+01    0.1729816    0.1671508  67.68 0.0002857079    1.136    0.120
        58  -9.3814    155.7211    120.8909   1.0650961289e+02   2.7584570424e+01    0.4022842    0.2468785  81.46  0.001516381    3.386    0.705
        59 -10.3716    193.1869    156.9229   1.0666163509e+02   1.4540261081e+01    0.3055056    0.2388423 -75.14  0.001152138    1.977    0.494
        60 -10.6087    168.0435    113.2375   1.0228163027e+02   2.6332836554e+01    0.3400277    0.2780622 -88.20  0.001122103    1.550    0.355
        61  -8.9964    203.4789    111.5066   9.5253294858e+01   1.8949142307e+01    0.1417933    0.1271749  16.92 2.589831e-05    1.060    0.057
        62  -8.9192    126.0979     99.3764   1.0807491544e+02   3.7529501196e+01    0.1999025    0.1266991  60.74 0.0009264442    1.786    0.440
        63  -9.8497     29.7362     91.0513   1.3193526719e+02   5.3311495399e+01    0.2537296    0.1538409  43.84  0.001158052    1.807    0.447
        64  -9.5511    155.4806     75.4816   9.5029908014e+01   3.5632228314e+01    0.1465218    0.1436958  -3.17 0.0008100257    1.017    0.017
        65 -10.0731     21.0753     67.9076   1.3082483188e+02   5.9089605769e+01    0.1981407    0.1569057  50.01 0.0005302924    1.470    0.320
        66  -9.7690     19.4715     57.1521   1.2933031294e+02   6.1547999335e+01     0.225847    0.1435652  43.64  0.001141668    1.884    0.469
        67  -9.5850    162.2369    248.9755   1.2449697981e+02   8.3825814069e+00   0.09800047   0.08608489 -51.02 0.0006001458    1.618    0.382
        68 -10.4114     81.5278    248.5247   1.3640008267e+02   1.9129347627e+01    0.2049122    0.1145464  62.44  0.000904914    1.409    0.290
