#   1 NUMBER                 Running object number                                     
#   2 MAG_AUTO               Kron-like elliptical aperture magnitude                    [mag]
#   3 X_IMAGE                Object position along x                                    [pixel]
#   4 Y_IMAGE                Object position along y                                    [pixel]
#   5 X_WORLD                Barycenter position along world x axis                     [deg]
#   6 Y_WORLD                Barycenter position along world y axis                     [deg]
#   7 A_WORLD                Profile RMS along major axis (world units)                 [deg]
#   8 B_WORLD                Profile RMS along minor axis (world units)                 [deg]
#   9 THETA_WORLD            Position angle (CCW/world-x)                               [deg]
#  10 FWHM_WORLD             FWHM assuming a gaussian core                              [deg]
#  11 ELONGATION             A_IMAGE/B_IMAGE                                           
#  12 ELLIPTICITY            1 - B_IMAGE/A_IMAGE                                       
         1 -11.1830    222.0682     21.2038   3.5262371195e+01   2.7739077401e+01    0.6756155    0.5465362 -73.43  0.003307313    1.031    0.030
         2 -11.7245    206.0573     37.4856   4.0635606591e+01   2.9317808890e+01    0.9446209    0.8646787 -11.84  0.006015916    1.382    0.276
         3  -9.2076    246.8038      2.3811   2.9557834903e+01   2.4676793941e+01    0.3621004    0.2116836  63.74  0.002180023    1.871    0.466
         4  -9.1844    242.9716      2.0000   2.9724285913e+01   2.5479897297e+01    0.3107033    0.1473571  80.78  0.001501375    1.955    0.489
         5  -9.1260     99.3760    241.2926   1.0638492832e+02   1.0963433777e+01    0.2788549    0.1647631 -42.81  0.000824933    2.285    0.562
         6 -14.1036     35.7316    239.6580   1.1896267815e+02   1.9578565883e+01      1.53887    0.8257132  26.87   0.00375888    2.293    0.564
         7 -13.6703     40.0847    247.2917   1.1865656158e+02   1.7602646536e+01     1.236337    0.4266418  38.56  0.002259754    2.363    0.577
         8 -14.0755      2.1132    205.3272   1.2337648754e+02   3.0057878382e+01     1.684581    0.3278709 -71.38   0.00659606    3.802    0.737
         9 -14.1041     30.1585    247.8595   1.2052900465e+02   1.8615393776e+01    0.6145301    0.3371999  78.51  0.003754183    1.694    0.410
        10 -15.1612     16.0857    216.8015   1.2128270139e+02   2.6326942655e+01     2.004744    0.7068579  60.63  0.008860802    2.850    0.649
        11 -14.8610     20.3869    248.1872   1.2231447043e+02   1.9603160571e+01    0.8570583    0.4523244 -61.53  0.005235771    2.214    0.548
        12 -14.6807     14.3347    232.3032   1.2254419224e+02   2.3313212640e+01    0.5554935    0.2803677  48.50  0.003378666    1.626    0.385
        13 -15.5532      6.1048    223.8559   1.2362586107e+02   2.5812567130e+01     2.264681      0.31097  42.97  0.009277607    3.793    0.736
        14 -16.2583     11.6830    242.7637   1.2358432983e+02   2.1525446853e+01     2.421751     1.074955 -53.32   0.01241687    3.420    0.708
        15  -9.5863    113.1967    238.1733   1.0314643104e+02   9.4997728263e+00    0.2642367    0.1882954  60.78  0.001523982    1.469    0.319
        16  -7.4371     74.3187    237.2740   1.1112393978e+02   1.5256050580e+01    0.1085391    0.0964041  -2.25  0.000194286    1.569    0.363
        17 -10.4560     84.7518    231.8774   1.0840797919e+02   1.4883007155e+01    0.4454559    0.3444478  84.01  0.001658226    1.338    0.252
        18  -8.3025    201.5069    228.8342   8.3589586404e+01  -2.5832592069e+00    0.2209717    0.1770327  49.76 0.0005333274    1.662    0.398
        19  -8.6551    131.6025    229.2326   9.8071203372e+01   8.3204538792e+00    0.1732385    0.1225562 -39.67 0.0008138431    1.658    0.397
        20  -9.9236    121.8277    230.8120   1.0038051280e+02   9.5586304428e+00    0.3988387    0.2509264 -16.55  0.001742741    3.073    0.675
        21  -9.3903     60.8151    225.7711   1.1282863212e+02   1.9361415399e+01     0.321885    0.2513869 -36.54   0.00144451    1.837    0.456
        22  -9.1837     61.1969    219.7591   1.1217363765e+02   2.0573395969e+01    0.2874786    0.2103075 -69.54  0.001330657    1.397    0.284
        23  -8.0554     48.4153    225.0459   1.1534084935e+02   2.1056400845e+01    0.1729778      0.10816 -78.44 0.0004289782    1.556    0.357
        24  -9.6051    112.8352    224.0349   1.0142660482e+02   1.2270675135e+01    0.4629565    0.1934517  36.50  0.000958606    2.141    0.533
        25  -9.6895    221.1314    222.1140   7.8701425265e+01  -4.4391787847e+00    0.2021228    0.1717463 -10.34  0.001341033    1.142    0.124
        26  -8.3262    188.9835    222.9692   8.5079117404e+01   2.5958926358e-01    0.1834372     0.158121  60.31 0.0004338461    1.617    0.381
        27  -7.8413    134.3576    221.6830   9.6390923747e+01   9.3068729125e+00    0.3089364     0.183912 -77.69  0.001291873    3.111    0.679
        28  -7.3325    136.9663    220.0000   9.5570444953e+01   9.2054276728e+00    0.4979541   0.06663366  41.15  0.001225258    6.111    0.836
        29  -8.8669    190.6900    217.9512   8.3878069157e+01   8.1940114112e-01    0.2316346    0.1940067 -21.05 0.0005720684    1.188    0.158
        30  -9.4228    189.4067    210.8622   8.2894999321e+01   2.2240402572e+00    0.3802418    0.2649077 -64.36  0.001862733    2.393    0.582
        31  -7.5116     83.1373    218.1105   1.0722142265e+02   1.7935768187e+01     0.175947    0.1331668  70.43            0    1.303    0.233
        32  -7.2155    112.3475    217.3086   1.0062605772e+02   1.3698663390e+01     0.132568    0.1048375  -4.40 0.0003999733    1.706    0.414
        33  -8.5446     56.0059    216.9920   1.1302079739e+02   2.1824936343e+01    0.1861899     0.152426  67.64  0.001195293    1.037    0.035
        34  -8.0569    153.4570    214.4985   9.1108713226e+01   7.5268157806e+00    0.1365905    0.1228414  23.80 0.0001744254    1.009    0.008
        35  -7.6848     98.8454    214.2060   1.0323614980e+02   1.6437184506e+01    0.1630286    0.1533945  -6.73 0.0002415539    1.275    0.216
        36  -8.6989     75.6497    212.7392   1.0826598587e+02   2.0140397170e+01    0.2427886    0.2017705 -27.24 0.0009829127    1.649    0.393
        37  -9.0967     54.0988    211.9578   1.1295000440e+02   2.3152942063e+01    0.1814525    0.1512084 -32.47 0.0007525827    1.675    0.403
        38  -7.7210    101.3603    211.0943   1.0225304442e+02   1.6708725221e+01    0.1772701    0.1659818  84.20 0.0006613149    1.090    0.083
        39  -8.7076    118.3800    208.8466   9.8052589468e+01   1.4475838539e+01    0.2307483    0.2252087   9.12 0.0004405009    1.112    0.101
        40  -9.9894    123.9538    205.9580   9.6338858972e+01   1.4160409490e+01    0.2159105    0.1886136  57.97            0    1.148    0.129
        41  -8.6474    119.3018    205.2726   9.7302124770e+01   1.5073444223e+01    0.3878772    0.2336181  23.28  0.001758208    1.990    0.498
        42  -8.3978    115.6225    203.4780   9.7879141264e+01   1.6058469695e+01    0.2359563    0.2070468 -86.24 5.823498e-06    1.237    0.192
        43 -15.8796      2.8417    237.6418   1.2490962208e+02   2.3367483644e+01     1.144331    0.3147817 -77.91  0.005347897    3.210    0.688
        44  -8.2971    158.6904    207.1602   8.8739313347e+01   8.0344950087e+00    0.2192837    0.1742276  42.75 0.0004040361    1.237    0.192
        45  -7.8742    128.9191    206.7091   9.5321866906e+01   1.3177210930e+01     0.195349    0.1692873  41.35 0.0004497995    1.064    0.060
        46  -7.4344     62.4898    207.4939   1.1063478638e+02   2.3065713332e+01    0.1297266    0.1129624  71.42 0.0008105456    1.012    0.012
        47  -7.4798     73.8537    204.1303   1.0766783736e+02   2.2282395120e+01    0.1679535    0.1544175 -44.25 0.0004168145    1.308    0.235
        48  -8.4864     61.2760    200.9340   1.1019416626e+02   2.4692608082e+01    0.2515518    0.1622778  70.30  0.001321182    1.601    0.375
        49  -8.7048    109.0175    198.0551   9.8600303682e+01   1.8311547176e+01    0.2019455    0.1902663  48.09 0.0002978861    1.034    0.033
        50  -8.1749     78.7182    198.2162   1.0580016031e+02   2.2926529157e+01    0.2131132    0.1775825  43.13 0.0001723125    1.174    0.148
        51  -8.3923     90.1088    196.6238   1.0288417480e+02   2.1607105041e+01    0.3086959    0.2211508  -5.45  0.001459314    2.259    0.557
        52  -8.3423     98.9187    195.8647   1.0067278057e+02   2.0415687690e+01    0.4181702    0.1898255  28.84 0.0008722247    2.573    0.611
        53  -8.0100    180.8275    193.1958   8.1431917084e+01   6.8473856712e+00    0.1944501    0.1827652  29.28   0.00052431    1.143    0.125
        54  -7.2313     83.0116    193.0220   1.0408632526e+02   2.3488494089e+01    0.1631197    0.1458452  57.41 0.0003829682    1.053    0.050
        55  -8.7846     75.0471    188.9534   1.0546422100e+02   2.5581194605e+01    0.4736698    0.1992749 -48.22  0.001862945    2.774    0.640
        56  -9.3688     80.4794    187.1175   1.0388278234e+02   2.5228436332e+01    0.3412219    0.2451633  27.88 0.0003943777    1.536    0.349
        57  -8.3799     78.2322    182.7393   1.0381869760e+02   2.6585479578e+01    0.3046776    0.1961323 -53.12 0.0009979379    1.595    0.373
        58  -8.0801     64.1174    191.1584   1.0838793236e+02   2.6564236297e+01    0.2014091    0.1746339  75.71 0.0002530184    1.039    0.038
        59  -8.1041     67.4960    190.0161   1.0743373815e+02   2.6378345976e+01    0.1986864    0.1702942  60.64 0.0006300978    1.088    0.081
        60  -8.8031     91.2091    189.0341   1.0152812096e+02   2.3171559586e+01     0.361624    0.2553389 -23.63  0.001641148    2.110    0.526
        61  -8.0587     17.9083    190.0550   1.1900475950e+02   3.2031855074e+01    0.3487056    0.1242411  49.97  0.001562445    2.641    0.621
        62  -8.3538     18.3039    187.3015   1.1869611673e+02   3.2625137801e+01    0.1910751    0.1546055 -69.10 0.0008431536    1.250    0.200
        63  -7.6160     18.6497    184.3071   1.1837190111e+02   3.3283147267e+01    0.1671182    0.1057381  84.64 0.0004794913    1.408    0.290
        64  -7.4152    241.2708    240.3238   7.8170016264e+01  -9.6620063561e+00    0.1190275   0.07252958  -3.19 0.0003316838    1.573    0.364
        65  -8.7721    188.4041    185.2816   7.8307923847e+01   6.9964952154e+00    0.2317066    0.2241714  19.74 0.0003239599    1.159    0.137
        66  -7.7563     53.4985    183.4927   1.1003378596e+02   2.9723868751e+01    0.1337204    0.1176398  83.49 -0.0001338991    1.002    0.002
        67  -9.6339     49.5361    181.3042   1.1074552461e+02   3.0724334416e+01    0.3980978    0.3154588 -50.92   0.00141712    1.400    0.286
        68  -9.7241     43.6068    180.0179   1.1204944853e+02   3.1721894046e+01    0.2552775    0.2337023 -82.42 0.0002345423    1.115    0.103
        69 -10.5098     61.8685    179.2483   1.0743415900e+02   2.9674490203e+01    0.4555546    0.4251083 -59.93  0.001812887    1.175    0.149
        70  -9.7946     67.6944    173.5085   1.0517072610e+02   3.0280544235e+01    0.3277717    0.2827415 -31.55 0.0007836227    1.402    0.287
        71  -9.0889     23.1231    177.9880   1.1677766776e+02   3.4339047262e+01    0.2858313     0.148636  85.79  0.001399949    1.957    0.489
        72  -9.7332     17.4468    171.2310   1.1751640728e+02   3.6455104785e+01    0.4256545    0.2334499 -86.84  0.001964165    1.659    0.397
        73  -7.1690    103.2997    178.2866   9.6823676389e+01   2.3736176403e+01    0.1398163    0.1143287 -16.25 0.0001844711    1.555    0.357
        74  -7.1415     76.5536    176.4545   1.0332836765e+02   2.8326758544e+01    0.1378078    0.1304938 -85.51 4.766817e-05    1.056    0.053
        75  -8.0514     47.8176    173.7005   1.1026685404e+02   3.2752240461e+01    0.2864355     0.158279 -63.21  0.001408027    1.651    0.394
        76  -9.4671    175.4673    172.3475   7.8460468489e+01   1.1874237920e+01    0.3050439    0.2799467  23.66  0.000694379    1.070    0.065
        77  -7.7347    124.4672    172.9314   9.0555461844e+01   2.1304842372e+01    0.2130009    0.1472384 -55.83 0.0004460475    1.500    0.333
        78  -7.4259    117.5002    173.4476   9.2393820226e+01   2.2430005992e+01    0.1455572    0.1425517  37.93 4.208781e-05    1.030    0.029
        79  -8.0159     89.4456    172.8123   9.9448065062e+01   2.7264239572e+01    0.4140821    0.2037555  51.07  0.001243876    2.250    0.556
        80  -8.4664     37.4854    169.9458   1.1243293004e+02   3.4816180055e+01    0.3535614    0.1138925 -68.82  0.001360916    2.730    0.634
        81  -9.8480     24.6649    169.6050   1.1559945244e+02   3.6184806259e+01    0.3186052    0.2387396   9.06  0.001883698    1.814    0.449
        82  -8.7970     24.8338    165.8376   1.1517378963e+02   3.7074128505e+01    0.3628589     0.216702  77.38  0.001893143    1.720    0.419
        83 -10.2658      5.0951    164.1167   1.1988014043e+02   3.9144509401e+01    0.4820729    0.4373766  21.15  0.002748038    1.415    0.293
        84  -9.3660      6.8563    170.0372   1.1994166809e+02   3.7617950697e+01    0.2427342    0.1969279  57.16 0.0003239348    1.249    0.200
        85  -8.7045     10.7472    168.0307   1.1884737030e+02   3.7779391494e+01    0.2227159    0.1529896 -71.18 0.0009995049    1.254    0.202
        86  -7.7296     75.2103    170.0282   1.0270620333e+02   3.0073516293e+01    0.1925481    0.1723769 -72.86 0.0003731327    1.070    0.066
        87  -9.0914     43.7062    169.1415   1.1075653378e+02   3.4329910381e+01    0.2605865    0.1948277  57.67 0.0005018655    1.324    0.245
        88  -7.7193    111.6685    168.3302   9.2927869043e+01   2.4646222167e+01    0.1561647    0.1145873  73.58  0.000221524    1.719    0.418
        89  -8.6252     85.2153    165.3947   9.9323743329e+01   2.9712832984e+01    0.2018783    0.1276118  47.31 0.0003807083    1.603    0.376
        90  -7.9796     42.3662    164.8547   1.1057477688e+02   3.5525239992e+01    0.3072775    0.1720144 -31.18  0.001302233    2.937    0.660
        91  -8.7793     77.4362    164.0461   1.0117155371e+02   3.1211321030e+01     0.260499    0.2098993  40.05 0.0004575597    1.270    0.212
        92  -8.1759     57.5771    163.5127   1.0639056018e+02   3.4053628053e+01     0.276195    0.2159352  80.92  0.000607132    1.287    0.223
        93  -7.7633     53.5273    162.8832   1.0737861959e+02   3.4711456844e+01    0.3405609    0.1644379  45.52    0.0015023    2.122    0.529
        94  -9.2849     18.2571    163.3902   1.1657689037e+02   3.8255107244e+01    0.3885689    0.2299702  17.12  0.001351655    2.217    0.549
        95  -7.2084    106.5497    163.5657   9.3363429172e+01   2.6663773288e+01     0.148186    0.1409455  75.40  8.86452e-05    1.047    0.045
        96  -7.8488     96.1630    163.3753   9.6066056986e+01   2.8460728192e+01    0.2056102    0.1295779  47.99 0.0003574821    1.625    0.385
        97  -9.5642     65.3198    160.2758   1.0383076452e+02   3.3843559345e+01    0.3344673    0.2623918 -39.94 0.0005642977    1.436    0.304
        98  -7.4919     28.5050    162.5132   1.1388513369e+02   3.7530340401e+01    0.1319797    0.1097212  87.61 -3.829602e-05    1.060    0.056
        99  -7.3207    171.7882    159.0087   7.6448318045e+01   1.5302624395e+01    0.1888354     0.118615 -43.08 0.0003095649    1.572    0.364
       100  -7.4322    104.2490    159.6600   9.3228983251e+01   2.7995272598e+01    0.1486092    0.1149543  84.86 0.0002667251    1.568    0.362
       101 -10.2079     84.7123    157.2405   9.8046002399e+01   3.1785988120e+01    0.5928419    0.4138253 -26.18  0.001646275    1.947    0.486
       102  -8.5156     34.6788    156.5954   1.1157501208e+02   3.8367482541e+01    0.4287889    0.2166996 -73.12  0.002023131    1.787    0.440
       103  -8.9629     12.8340    157.6042   1.1738225296e+02   4.0096389149e+01    0.2745925    0.1333831  59.69 0.0008306716    2.270    0.560
       104  -7.8109     23.2714    157.8335   1.1472384739e+02   3.9155356140e+01    0.1941487     0.147427  79.24   0.00051804    1.235    0.190
       105  -8.5720     51.9608    156.8933   1.0695218602e+02   3.6381867290e+01    0.3085296    0.2282404 -14.36  0.001416723    1.906    0.475
       106 -10.2005      1.8907    148.4440   1.1932799800e+02   4.3092098150e+01    0.6175732     0.476541 -38.31  0.004010029    1.549    0.355
       107  -9.4808      6.6613    141.3631   1.1738558911e+02   4.4469504139e+01    0.4045609    0.2887305 -38.10  0.002458117    1.627    0.385
       108  -9.6534      5.2111    138.2085   1.1745513855e+02   4.5328292400e+01    0.4246348    0.2108899 -62.97  0.002227827    1.623    0.384
       109  -9.1534      8.8296    154.9583   1.1814915767e+02   4.1041757009e+01    0.1932694     0.161376  65.59  0.000262209    1.207    0.172
       110  -7.6950     80.4501    151.5563   9.8199599591e+01   3.3841530812e+01    0.1444133    0.1371786 -68.86 -5.664494e-06    1.027    0.026
       111  -8.7936      1.8508    155.3900   1.1994599452e+02   4.1442132476e+01    0.4294834    0.1183802 -75.15  0.001698257    2.913    0.657
       112  -8.3123     15.4373    152.0000   1.1614798814e+02   4.1240215268e+01    0.2451923   0.07324917  22.75 0.0009397383    3.975    0.748
       113  -8.9235    111.4168    149.9038   8.9361360687e+01   2.9066789613e+01    0.2671216    0.2191995  41.42 0.0004688184    1.228    0.186
       114 -10.9719     68.3099    144.5768   1.0038262451e+02   3.7340596960e+01    0.7661066    0.5026298  67.28  0.003366795    1.924    0.480
       115  -8.9178     62.1808    136.2004   1.0065998204e+02   4.0261868464e+01    0.3112083    0.2190795 -54.38  0.001194859    1.309    0.236
       116  -9.3466     88.5231    146.9102   9.5060821441e+01   3.3727522941e+01    0.3672636    0.2679707  38.63 0.0005716386    1.408    0.290
       117  -8.8781     86.1417    143.1368   9.4992301909e+01   3.5039321813e+01     0.459033    0.2411872 -54.35  0.001918276    1.799    0.444
       118  -7.7823    126.7409    147.3969   8.4766211151e+01   2.6781872800e+01    0.2045422    0.1480964  28.28 0.0002952333    1.507    0.337
       119  -7.3982     31.6251    146.2841   1.1109371740e+02   4.1213572694e+01    0.1386388   0.08960412  64.70 0.0004925863    1.713    0.416
       120  -8.1099    133.5811    144.7779   8.2417372813e+01   2.6046329537e+01    0.2240157    0.1484652 -60.29 0.0009516377    1.708    0.415
       121  -7.6635    118.8233    145.1658   8.6363606665e+01   2.8819501380e+01    0.2031209    0.1765628 -21.60 0.0002492706    1.268    0.211
       122  -8.2574     15.4712    145.4239   1.1543230008e+02   4.2835695199e+01    0.2015788    0.1651864 -72.24 7.015625e-05    1.057    0.054
       123  -7.7534     15.9954    142.2401   1.1493059683e+02   4.3570872638e+01    0.1598292    0.1246578  -6.15 0.0009614521    1.692    0.409
       124  -7.1304    112.7149    144.7224   8.7910402420e+01   3.0066497513e+01    0.1485737    0.1202285 -13.92 0.0001735196    1.512    0.339
       125  -9.3608     98.6857    143.1312   9.1441041199e+01   3.2958069347e+01     0.414099    0.3147184 -29.43   0.00151217    1.531    0.347
       126  -8.0195     82.3281    142.4324   9.5945642496e+01   3.5813287246e+01     0.256929    0.1314082 -57.67 0.0007369239    1.861    0.463
       127  -8.5389    186.2564    139.8432   6.9026836837e+01   1.6291252784e+01    0.2191002    0.2035081  60.94 0.0002919497    1.199    0.166
       128  -7.4146    152.4146    139.5727   7.6539422302e+01   2.3379894428e+01    0.1518968    0.1488041 -27.54 0.0001447827    1.015    0.014
       129  -7.7029    130.2465    138.6422   8.1876866447e+01   2.8119042938e+01     0.293652    0.1899243  57.57 0.0007929512    1.865    0.464
       130  -7.5606     25.5126    138.9660   1.1185698869e+02   4.3584400531e+01    0.2001182    0.1130175 -71.10 0.0004220689    1.519    0.341
       131  -7.1731     93.2276    138.0006   9.1908151850e+01   3.5140529265e+01     0.195026    0.1211341 -55.06 0.0003263885    1.553    0.356
       132  -8.7697     83.1254    138.0797   9.4846114174e+01   3.6765367610e+01    0.2548887    0.2109533  58.60 0.0002576374    1.303    0.233
       133  -8.9654     13.3834    136.5544   1.1500096753e+02   4.5156994556e+01    0.4235891    0.1212462 -56.65  0.001082567    2.714    0.632
       134  -7.3905    109.7335    137.6960   8.7181715465e+01   3.2295133626e+01     0.151072    0.1191733 -19.96 -0.0001541599    1.528    0.345
       135  -7.4035     52.7854    137.4144   1.0366572477e+02   4.1142201095e+01    0.1707245    0.1377399   4.52 0.0003033842    1.527    0.345
       136  -8.1309     29.0606    134.0459   1.1015522153e+02   4.4483208818e+01    0.1912624    0.1732768 -79.87 0.0005552302    1.066    0.062
       137  -9.1398      9.4341    132.2323   1.1561881997e+02   4.6489886754e+01    0.2971902    0.1829479 -59.04  0.001171003    1.381    0.276
       138  -8.4227    109.8488    131.8955   8.5826919740e+01   3.3655559960e+01     0.241776    0.2098746 -17.05   0.00121295    1.283    0.220
       139  -8.5287     66.9974    130.0169   9.8027461524e+01   4.1150793439e+01    0.1726771    0.1674343 -63.82 0.0004836421    1.048    0.046
       140  -7.7165     19.9234    126.8537   1.1186243267e+02   4.7030802118e+01    0.1774108    0.1397907  79.69  0.001062314    1.314    0.239
       141  -7.7452      1.3851    125.8074   1.1720540514e+02   4.8550939514e+01    0.1862404   0.08618847 -63.14 0.0005399089    1.673    0.402
       142  -7.4421     94.9275    121.0491   8.7585385045e+01   3.8950866798e+01    0.1762418    0.1743044  21.28 0.0003098795    1.048    0.046
       143  -8.0029     64.3137    120.9649   9.7006760136e+01   4.3756020299e+01    0.2022282    0.1746822 -58.06 0.0004361387    1.070    0.065
       144  -8.0795      5.5687    119.4861   1.1522517295e+02   4.9821706389e+01    0.2225128   0.08128426 -61.01 0.0006655813    2.037    0.509
       145  -9.4239    248.0377    116.0580   5.2958535913e+01   8.5792297018e+00    0.2978951    0.1623193 -39.07  0.001213331    1.550    0.355
       146  -7.2640    104.4404    120.5317   8.4655644878e+01   3.7352007217e+01    0.1522325    0.1475084 -62.24 0.0002571675    1.048    0.046
       147  -7.5556    127.2741    111.6606   7.5974538831e+01   3.4828445265e+01    0.1554681    0.1246606 -81.84 0.0006996203    1.611    0.379
       148  -7.5074     59.2660    110.9688   9.6470916438e+01   4.6866393202e+01    0.1892106    0.1156683 -57.82 0.0006808352    1.504    0.335
       149  -9.0237     50.6462    110.4332   9.9210047905e+01   4.8067032670e+01    0.2445476    0.2190497 -51.13 0.0003294225    1.005    0.005
       150  -7.5372     27.4791    110.4566   1.0692147260e+02   5.0416765547e+01    0.1322139    0.1145159 -65.29 0.0001384037    1.048    0.046
       151  -8.0091    242.0263    109.0000   5.2292692994e+01   1.0845578695e+01    0.1990627   0.07782299  53.63 0.0008062562    2.969    0.663
       152  -9.4916    248.9234    106.5195   5.0809164576e+01   9.9790278903e+00    0.2949356      0.21103 -50.09  0.001430313    1.275    0.216
       153  -7.0741    196.2955    107.6467   5.9374181117e+01   2.0386039339e+01    0.1529227    0.1117477 -68.21 0.0007033168    1.688    0.408
       154  -7.8935      7.9969    106.7117   1.1273601594e+02   5.2736670163e+01    0.1711129    0.1508853 -57.47 0.0005830984    1.098    0.089
       155  -8.5726     68.6431    103.4241   9.1580758520e+01   4.7372562139e+01    0.3281989    0.2602858 -88.95  0.001661307    1.633    0.388
       156  -7.4518     58.4801    102.4892   9.4782301041e+01   4.8997338525e+01     0.140775     0.130264 -53.85 0.0008093898    1.066    0.062
       157  -8.5337     99.4077     96.4213   7.9799233052e+01   4.3784182631e+01    0.2575197    0.2461248  63.23 0.0009820374    1.153    0.133
       158  -7.5228    123.4881     96.4596   7.2832663659e+01   3.8890779306e+01    0.1516571    0.1502934 -14.35 5.736163e-05    1.025    0.025
       159  -7.3321     25.9796     94.0111   1.0433239711e+02   5.4469239220e+01    0.1606363    0.1272992 -54.99 0.0003861902    1.066    0.062
       160  -8.4269     43.0639     93.0273   9.7944906659e+01   5.3063187031e+01    0.2013599    0.1800653 -49.58 0.0004651893    1.056    0.053
       161  -9.3566     94.9717     89.9947   7.9329862259e+01   4.6007255305e+01     0.241914    0.2106104  41.54 -0.003769674    1.198    0.165
       162  -7.2289     75.6905     88.3078   8.5162523862e+01   4.9731058548e+01    0.1389537    0.1165853  82.33 0.0002080147    1.617    0.381
       163  -7.2402    156.7120     82.3218   6.0646389683e+01   3.4108769972e+01    0.1525092    0.1172227 -73.27  0.000385106    1.601    0.376
       164  -7.4478     38.5472     82.6070   9.7069267261e+01   5.5922157534e+01    0.1316558    0.1155986 -37.81 9.135522e-05    1.026    0.026
       165  -7.7885     81.5164     77.6103   7.9985404537e+01   5.1020781719e+01    0.2775816    0.1749355   6.35  0.001141811    2.400    0.583
       166  -7.2020     11.6358     74.7087   1.0569537800e+02   5.9918533278e+01    0.1346873   0.07341345 -35.18 0.0007027062    1.704    0.413
       167  -7.1095     74.4604     71.3977   8.0459307571e+01   5.3469279215e+01    0.1392683    0.1287955  -7.75 0.0001206851    1.034    0.033
       168  -8.3888     23.0881     69.9351   9.9934931062e+01   6.0141958708e+01    0.1907115     0.152787 -38.60 -0.0009232552    1.031    0.031
       169  -7.1378     88.4548     60.5040   7.2048202620e+01   5.3016400418e+01    0.1405135    0.1316766   2.03 0.0008085062    1.046    0.044
       170  -7.3799    114.0203     54.9755   6.2546095641e+01   4.8639811025e+01    0.1682021    0.1558975  32.45  0.000322298    1.018    0.018
       171  -8.2096    202.2565    245.9646   8.6219502567e+01  -5.2177725348e+00    0.1640225    0.1467054   8.40 0.0004514481    1.226    0.184
       172 -11.1128    197.8919     43.2175   4.3039487806e+01   3.0444889212e+01    0.4878365     0.399465 -78.29  0.001751137    1.152    0.132
       173  -9.9682     91.4320    243.5030   1.0825211340e+02   1.1688344539e+01     0.907603          nan  39.25  0.002285794    7.082    0.859
       174  -7.1647    125.2822     36.7290   5.3619671306e+01   4.8675549413e+01    0.1300101    0.1064259 -78.32 0.0006901022    1.496    0.332
       175 -10.5045    214.4094     29.0461   3.7749360613e+01   2.8491780668e+01    0.6057632    0.3397487  48.50  0.001488684    2.220    0.549
       176  -7.4394    242.5083     20.9869   3.3509142057e+01   2.3474490416e+01    0.1302842    0.1041255   8.06 0.0003700478    2.131    0.531
       177  -7.7837     94.6490     15.0072   5.3170628005e+01   5.8035008354e+01    0.1717051    0.1482311  19.58 0.0003769462    1.111    0.100
       178  -9.7185     96.9267    240.1773   1.0676782037e+02   1.1528616838e+01    0.4213789    0.1892772 -48.48  0.001951546    2.809    0.644
