#   1 NUMBER                 Running object number                                     
#   2 MAG_AUTO               Kron-like elliptical aperture magnitude                    [mag]
#   3 X_IMAGE                Object position along x                                    [pixel]
#   4 Y_IMAGE                Object position along y                                    [pixel]
#   5 X_WORLD                Barycenter position along world x axis                     [deg]
#   6 Y_WORLD                Barycenter position along world y axis                     [deg]
#   7 A_WORLD                Profile RMS along major axis (world units)                 [deg]
#   8 B_WORLD                Profile RMS along minor axis (world units)                 [deg]
#   9 THETA_WORLD            Position angle (CCW/world-x)                               [deg]
#  10 FWHM_WORLD             FWHM assuming a gaussian core                              [deg]
#  11 ELONGATION             A_IMAGE/B_IMAGE                                           
#  12 ELLIPTICITY            1 - B_IMAGE/A_IMAGE                                       
         1 -13.0939     68.7240    146.5181   1.2524300820e+02   3.7212723990e+01     3.208947     1.538369 -85.71  0.008926553    5.533    0.819
         2 -13.6805    193.8542     28.6215   6.5411495327e+01   3.3631443929e+01     2.046309     1.563871  19.97   0.01122977    1.961    0.490
         3 -11.5300    203.2009     17.8477   6.1726552220e+01   3.2699004222e+01    0.4461611    0.3473423  50.79  0.001052819    1.479    0.324
         4 -11.7145      7.8959     10.9720   1.0998011564e+02   7.0617075967e+01    0.4385593    0.1911011 -31.77  0.002652766    1.855    0.461
         5 -10.6810      2.9413      4.2960   1.0952811697e+02   7.1882641520e+01    0.3180348     0.232435 -16.29  0.002579203    1.105    0.095
         6 -11.4059     13.9707      3.4970   1.0380943341e+02   7.1024515916e+01    0.3127533    0.2281901  19.68  0.002438637    1.432    0.302
         7 -10.1825    173.4784      9.7722   6.3335165627e+01   4.0553239811e+01    0.2954597    0.1353639  71.61 0.0008742273    1.937    0.484
         8 -12.9397    209.5721      9.3728   5.9145300654e+01   3.2164090598e+01    0.9398928    0.7370734  78.25  0.003081287    1.128    0.114
         9  -9.7362    194.4048    243.2233   1.1330758109e+02  -5.3351123403e+00    0.1612958    0.1233963 -53.01  0.000823911    1.671    0.402
        10 -11.1108    164.9943    249.9057   1.2007163236e+02  -1.5180344852e+00    0.7623727    0.1801089  36.03  0.002244567    4.965    0.799
        11 -11.0589    178.5607    248.5385   1.1722067938e+02  -3.5583352775e+00    0.3238884    0.2423166  49.15  0.001944815    1.329    0.247
        12 -10.6965    133.6654    248.7884   1.2606021781e+02   3.9276472950e+00    0.4505306    0.2437126  46.26  0.002321287    1.566    0.361
        13 -11.8265    152.9614    245.6893   1.2183232235e+02   1.2222088587e+00    0.8363927    0.4263624  53.86  0.003886797    2.117    0.528
        14  -9.5790    121.4240    248.4306   1.2840809302e+02   6.0173502645e+00    0.2840546    0.1983019 -82.69  0.001101406    1.725    0.420
        15  -9.1974     62.8927    250.5922   1.3965482766e+02   1.4511226607e+01    0.2579779    0.1119481  36.02 0.0006576711    2.562    0.610
        16 -10.2643     63.2016    246.5342   1.3924359887e+02   1.5256337949e+01    0.3420998    0.1747791  73.00  0.001759739    2.080    0.519
        17 -13.0110     53.4036    235.8598   1.4010082369e+02   1.8713211063e+01     2.092445     1.616742 -13.64  0.008272293    2.878    0.653
        18 -12.3068     48.1959    217.3073   1.3939421972e+02   2.3294481585e+01    0.4338163    0.3511308 -67.04 0.0009772375    1.371    0.271
        19 -14.7038     56.3700    206.4554   1.3663189244e+02   2.4627765771e+01     6.770678     1.590182  51.14   0.01923831    4.860    0.794
        20 -15.4549      5.1595    239.4465   1.4878571347e+02   2.3610754527e+01     8.134866    0.9241956 -70.60    0.0293998    5.369    0.814
        21 -10.7674    155.0762    228.1029   1.1877191430e+02   4.0201645071e+00    0.4093568    0.2343858  42.17  0.002000794    1.558    0.358
        22  -9.5791    191.9981    193.9583   1.0499802161e+02   3.7200378741e+00    0.5148112    0.2677804 -65.55  0.001527464    5.095    0.804
        23 -11.1633     71.6152    186.8144   1.3088047932e+02   2.7048317639e+01    0.4286776    0.2815822 -45.42  0.001348828    1.851    0.460
        24 -11.0468     76.0880    180.6547   1.2896173479e+02   2.7856435378e+01    0.3448309    0.2715591 -43.01 0.0006215475    1.530    0.347
        25 -12.8827     29.2996    206.2381   1.4209928615e+02   2.7970354528e+01     2.652958    0.5292718  51.43  0.008667331    5.273    0.810
        26  -8.6102    200.8685    182.3367   1.0084329785e+02   4.2714294824e+00    0.2549689    0.2008217 -52.60  0.001317279    1.380    0.275
        27  -9.1178     45.0098    174.1602   1.3535062436e+02   3.3550227289e+01    0.2432091    0.1689344 -75.77  0.001384562    1.225    0.184
        28 -12.5426     72.2535    166.4556   1.2771033340e+02   3.1842984883e+01    0.5148376    0.3324184 -45.96  0.001275722    1.714    0.416
        29 -10.6657     84.3163    170.0550   1.2531987296e+02   2.9153985716e+01    0.2934162    0.2650499 -73.18 0.0004208475    1.070    0.065
        30 -12.2755     89.6153    163.4064   1.2285916003e+02   2.9924776479e+01     2.182624     1.060628  59.10  0.005637349    2.865    0.651
        31 -14.0355     36.3542    223.9133   1.4225498462e+02   2.3340080038e+01     3.113889     1.433273 -56.15   0.01579459    2.544    0.607
        32 -10.5814     36.1969    162.4075   1.3593940024e+02   3.7341825145e+01     0.365516    0.2256289 -89.99  0.001798308    1.607    0.378
        33  -8.8820    108.7661    157.2122   1.1683959874e+02   2.8135731013e+01    0.2096929    0.1920391 -85.64 0.0003853685    1.051    0.049
        34  -8.3597    174.1689    151.8956   9.9946136143e+01   1.6053230707e+01    0.2221916    0.2026516 -87.39 0.0003868578    1.188    0.158
        35  -8.3894     98.5230    151.5135   1.1833590640e+02   3.1331280393e+01    0.1508185    0.1379925 -82.81 2.399333e-05    1.043    0.041
        36  -9.0393     38.6564    151.6760   1.3389020139e+02   3.9650695465e+01    0.1336509   0.08921313 -41.83 0.0007050596    1.734    0.423
        37 -11.0034     53.7333    148.2656   1.2949744759e+02   3.8750050268e+01    0.4173629    0.2604188 -64.37  0.001715458    1.385    0.278
        38 -10.2424    220.8565    146.6211   8.9265292535e+01   7.2775874220e+00    0.2474996    0.2373047 -54.53 0.0003826178    1.076    0.071
        39  -9.3355    102.5171    146.5367   1.1627707976e+02   3.1840452778e+01    0.2915815    0.2758478 -68.93 0.0009905458    1.027    0.026
        40  -9.6900    106.2061    142.5769   1.1446498235e+02   3.2133985504e+01    0.4203922    0.3048098  -4.92 0.0009914581    2.216    0.549
        41 -11.3979     91.3666    145.9677   1.1910781399e+02   3.3891286480e+01    0.2995414    0.2602673 -49.35 0.0004976033    1.151    0.131
        42 -13.4170     11.2917    206.9831   1.4562142466e+02   2.9685512218e+01    0.7961398    0.5704477  41.92  0.002449711    1.600    0.375
        43  -8.9136    112.4112    134.0190   1.1090800919e+02   3.3025441591e+01    0.2745807    0.2207936  13.30 0.0006777766    1.576    0.366
        44  -9.5144    227.5064    171.0014   9.3297204396e+01   1.3660743660e+00     0.372692    0.2154335 -59.29  0.001523325    2.602    0.616
        45 -10.5669     34.9939    133.3505   1.3209789736e+02   4.4413208578e+01    0.2896403    0.2189738 -21.53  0.001685126    1.717    0.418
        46 -10.0005     99.8428    130.7201   1.1355041991e+02   3.6118400598e+01    0.2974661    0.2494093  -7.77 0.0006365409    1.490    0.329
        47 -10.8682     43.8034    128.7782   1.2889424615e+02   4.4591630348e+01     0.456647     0.174469 -65.37  0.001838271    2.388    0.581
        48 -11.9025    247.6296    236.2234   1.0218465864e+02  -1.2485058511e+01    0.2400195    0.2118401  11.63 0.0006016511    1.228    0.186
        49  -9.4303    239.5896    128.2680   8.1955871549e+01   6.9896289008e+00    0.2238835     0.193441  54.33 0.0003682455    1.294    0.227
        50  -8.8507    108.5111    122.0267   1.0911783041e+02   3.6577226342e+01    0.2031069    0.2022367  26.83  0.001121757    1.057    0.054
        51  -9.7786    167.6450    113.0890   9.2028117801e+01   2.5853529840e+01    0.3664777    0.2901816 -71.28 0.0009183125    1.441    0.306
        52  -8.6122    103.6154    237.9320   1.3063249844e+02   1.0908120362e+01    0.1785154    0.1461971  82.21  0.001092302    1.167    0.143
        53  -8.7719     53.2947    103.6476   1.2100691249e+02   4.9371884684e+01    0.1320913    0.1023401  87.11 0.0007032333    1.684    0.406
        54  -8.9072    244.1839     92.8116   7.3473857813e+01   1.2401346459e+01    0.2898966     0.110409  64.82  0.001033693    3.520    0.716
        55  -8.5269    179.3062     82.8854   8.1717836152e+01   2.8964191391e+01    0.1974175    0.1835804 -44.82 0.0001844689    1.107    0.097
        56 -10.1613      3.8409     75.3662   1.3113404503e+02   5.9718277368e+01    0.2083175    0.1421972 -84.95  0.001131144    1.870    0.465
        57  -9.9498    235.2646     72.8475   7.0282151589e+01   1.7651355808e+01    0.2332036    0.2085813 -83.78 0.0002150816    1.088    0.081
        58  -8.1729    121.2706     67.0179   9.0231460595e+01   4.5248089745e+01     0.187224    0.1746059 -26.10 0.0002497168    1.089    0.082
        59  -9.9038    160.4633    214.6102   1.1543790176e+02   5.6238770868e+00    0.2337981    0.2203798  46.75 0.0006609146    1.030    0.029
        60  -8.2565     66.7979     47.8145   1.0025439618e+02   5.8482256280e+01    0.1545278    0.1465913  29.82 0.0003839498    1.314    0.239
        61  -9.2745     80.4990    248.9789   1.3628688708e+02   1.2315291501e+01     0.176983    0.1123258 -71.26  0.001045164    1.628    0.386
        62  -9.3880     60.4616     45.4689   1.0164715720e+02   5.9785642822e+01    0.3974739    0.1922286  49.67  0.001727642    3.213    0.689
        63 -10.4007    133.0515     44.3839   8.0315818332e+01   4.6094377044e+01    0.2242535     0.205328 -18.12 0.0003988808    1.172    0.146
        64  -8.1535     32.9053     36.4373   1.0889728161e+02   6.4620419938e+01    0.1416627   0.09578916  48.71 0.0008061768    2.532    0.605
        65  -8.3928     25.6499     34.2734   1.1110461905e+02   6.5684430770e+01   0.09439129   0.09025939  36.73 0.0007000627    1.632    0.387
        66  -9.1061      2.7417     34.7526   1.2108908565e+02   6.7380684935e+01    0.1472726   0.07569169  29.53 0.0008959108    2.425    0.588
        67  -9.5289    228.2420     24.3595   6.0533129925e+01   2.6201462392e+01    0.2918804    0.2027857 -41.13 0.0008862283    1.492    0.330
        68  -9.1942     84.0130    247.7060   1.3550306748e+02   1.2039464772e+01    0.1711242    0.1352868  63.60 0.0005574822    1.027    0.026
        69 -10.2629     73.5043    247.0112   1.3739493342e+02   1.3712924134e+01    0.2443529    0.1300509  58.07 0.0008500894    1.631    0.387
        70  -9.7513     89.0319    244.4802   1.3421704893e+02   1.1907461236e+01    0.2670362    0.2003757  85.90 0.0006970949    1.274    0.215
        71  -8.1055    166.3697    211.1709   1.1359247475e+02   5.2029524059e+00    0.1889119    0.1334506 -62.23 0.0004970586    1.716    0.417
