#   1 NUMBER                 Running object number                                     
#   2 MAG_AUTO               Kron-like elliptical aperture magnitude                    [mag]
#   3 X_IMAGE                Object position along x                                    [pixel]
#   4 Y_IMAGE                Object position along y                                    [pixel]
#   5 X_WORLD                Barycenter position along world x axis                     [deg]
#   6 Y_WORLD                Barycenter position along world y axis                     [deg]
#   7 A_WORLD                Profile RMS along major axis (world units)                 [deg]
#   8 B_WORLD                Profile RMS along minor axis (world units)                 [deg]
#   9 THETA_WORLD            Position angle (CCW/world-x)                               [deg]
#  10 FWHM_WORLD             FWHM assuming a gaussian core                              [deg]
#  11 ELONGATION             A_IMAGE/B_IMAGE                                           
#  12 ELLIPTICITY            1 - B_IMAGE/A_IMAGE                                       
         1  -8.8684     46.0770     20.9606   7.1263889986e+01   6.6571859611e+01    0.3867793    0.1696887 -34.72  0.001844334    2.289    0.563
         2 -11.3989     80.6948     23.1567   5.9279543501e+01   6.0229094274e+01    0.5123274    0.2403512  37.63 0.0006296821    2.057    0.514
         3  -9.0561     27.4118     20.9491   8.0057584884e+01   6.9057852509e+01     0.405347    0.2671077  10.20  0.002545132    1.405    0.288
         4 -10.0266     77.5277     13.1614   5.6196348098e+01   6.1960298579e+01    0.6849799    0.2146757  50.22  0.002671634    2.633    0.620
         5  -8.8667     64.5188     13.9201   6.0832547752e+01   6.4356563050e+01    0.2667392     0.161106  22.80 0.0009208398    1.702    0.412
         6  -8.8767    105.6921     13.3604   4.8785054164e+01   5.5976500513e+01    0.3535758    0.1726955  15.96    0.0012916    4.191    0.761
         7  -8.4350     88.0923     13.2102   5.3140590670e+01   5.9802220492e+01    0.2294529    0.1543271  20.99  0.001029323    1.603    0.376
         8  -9.2529     31.3914     11.2465   7.3589548465e+01   6.9906852341e+01    0.2966688    0.1839612   4.93  0.001778362    1.618    0.382
         9  -8.2677     96.8093     11.9614   5.0381295728e+01   5.8066090869e+01    0.2538595    0.1695773  21.93 0.0009941022    1.670    0.401
        10  -7.5250    155.9940     12.0126   3.9391641169e+01   4.4362238119e+01    0.1462035    0.1350015 -84.51 0.0003350799    1.107    0.096
        11  -7.8822    112.9542     11.3457   4.6487963120e+01   5.4529750853e+01    0.2614466    0.1427429  19.56     0.001166    2.766    0.638
        12  -9.6299     20.5691      8.4966   7.7861891115e+01   7.1591581085e+01    0.2596043    0.1735752  13.57 0.0002035197    1.294    0.227
        13  -8.4185     14.1431     10.8761   8.2581470809e+01   7.1944891896e+01    0.2705549    0.1388693  29.04  0.001192505    1.946    0.486
        14 -10.2565     13.4979      4.4737   7.9825780575e+01   7.2891237424e+01    0.3155051     0.205349  12.02 5.472912e-05    1.325    0.245
        15  -8.4829    125.3154      9.9601   4.3621045496e+01   5.1807521096e+01    0.2351703    0.1599324  59.88 0.0004020969    1.244    0.196
        16  -7.5774    142.7020      9.6973   4.0649933669e+01   4.7740076842e+01     0.128678   0.08674528  42.22 0.0003019463    1.583    0.368
        17  -7.8411    156.0036      7.3542   3.8093514739e+01   4.4806373045e+01     0.197188    0.1343863 -28.84 0.0006845468    1.700    0.412
        18  -8.6543      3.9299      6.6919   8.6639182441e+01   7.3466074810e+01    0.3051475    0.1481326 -12.33  0.001634873    2.293    0.564
        19  -8.3874    132.5025      6.7488   4.1359717148e+01   5.0414363520e+01    0.3045011    0.1794315 -64.53  0.001511499    2.210    0.548
        20  -8.3358    119.8190      6.7241   4.3561117048e+01   5.3371249160e+01    0.2181401    0.1305548  49.02 0.0007053774    1.475    0.322
        21  -9.2730     76.3570      6.6526   5.3824451486e+01   6.2825188755e+01    0.3327777    0.1484149  51.13  0.001194422    1.875    0.467
        22  -8.8219     41.2813      5.3266   6.6055942811e+01   6.9196790913e+01     0.279682    0.1663459   2.08  0.001412565    1.850    0.459
        23  -9.0938     32.0599      6.0803   7.0722273399e+01   7.0452065581e+01     0.210269     0.140612 -10.73 0.0002966459    1.372    0.271
        24  -9.7590     84.9703      5.3208   5.0835361435e+01   6.1188772322e+01    0.2499761    0.2105901  18.20 0.0009126608    1.172    0.146
        25  -8.3014     92.0051      5.4119   4.9059114203e+01   5.9695450966e+01    0.2782737    0.1033458  58.24  0.001221094    2.275    0.560
        26  -8.0773    125.6990      3.6516   4.1507754216e+01   5.2270121028e+01     0.180498    0.1743446  76.54 0.0004437275    1.142    0.125
        27  -8.2714    110.9740      2.9767   4.3968294451e+01   5.5709358152e+01    0.3358846    0.1632938 -26.74  0.001418608    2.334    0.571
        28  -9.2707     57.7812      3.3203   5.8460458450e+01   6.6651952235e+01    0.2613439    0.1816211  23.74 0.0005690106    1.259    0.206
        29  -8.1501    153.6665      3.0406   3.7197623833e+01   4.5749000561e+01    0.1620314    0.1503895  89.07 0.0004035617    1.124    0.110
        30  -7.1336    159.7183      1.2650   3.5963927876e+01   4.4480052719e+01    0.1216747   0.08270638 -74.07 0.0001813454    1.486    0.327
        31  -7.9854    104.9577      1.5310   4.4666322895e+01   5.7178695664e+01    0.1993623     0.103443  60.23  0.001029507    1.594    0.373
        32  -7.3846      3.3372      1.2877   8.4360804070e+01   7.4279675828e+01    0.1136032   0.06382778 -11.39 0.0006526964    1.634    0.388
        33  -8.6972      2.0271    109.5573   1.1394048743e+02   5.2642700808e+01     0.311301    0.1229479 -46.10  0.001427683    2.311    0.567
        34  -7.8780    247.3310    250.2990   7.6436157060e+01  -1.1616033642e+01    0.1170717   0.06854332  -1.14 0.0004256125    1.644    0.392
        35  -9.6595    224.2373    249.4626   8.0364598352e+01  -8.7484420175e+00    0.2754578    0.1601544  27.84  0.001673365    1.516    0.340
        36  -9.5311    196.2803    250.2118   8.5704506531e+01  -5.1792503020e+00    0.3005648    0.1806482  -2.01  0.001597052    2.059    0.514
        37  -9.3953    189.0077    249.5925   8.7020188518e+01  -4.0806004674e+00    0.2207407    0.1587227 -54.62  0.001320784    1.996    0.499
        38  -9.1232    121.6671    239.3843   9.9454735013e+01   7.6524035239e+00    0.3406113    0.2088768 -26.15  0.001592139    2.695    0.629
        39  -8.9727    114.6895    248.4935   1.0203425050e+02   7.0146779500e+00    0.4621096    0.2494337 -28.69  0.001862976    4.022    0.751
        40  -8.0523    134.1039    106.3298   7.0930846706e+01   3.4645524930e+01    0.2738799    0.2083772 -32.83 0.0009593963    1.405    0.288
        41  -7.6985    124.5238    106.9565   7.3637400783e+01   3.6559121228e+01    0.2361012    0.1510719 -43.34  0.001016583    1.562    0.360
        42  -7.8755    109.1789    106.5584   7.7861253475e+01   3.9785689363e+01    0.2185624    0.1469976  26.96 0.0009417669    1.732    0.423
        43  -9.1126     14.3705    105.7126   1.0925103816e+02   5.2818772290e+01    0.3416511    0.1468716 -35.16  0.001455657    2.740    0.635
        44  -9.8923    247.3977    103.4777   4.8895383687e+01   1.1234075512e+01    0.4014646    0.1901507 -52.40  0.001831517    2.111    0.526
        45  -7.9338     66.4950    104.9927   9.1020431359e+01   4.7512423805e+01    0.2137884    0.1055662 -36.36 0.0007769772    2.437    0.590
        46  -8.0004     93.7556    103.3612   8.1684528302e+01   4.3439943892e+01    0.2140073    0.1419471  26.43 0.0009434466    1.709    0.415
        47  -7.5043     64.4775    101.4630   9.0854759602e+01   4.8634404230e+01      0.14263    0.1336243 -42.06 0.0003667889    1.015    0.014
        48  -8.5425    187.3082     98.6950   5.7193954713e+01   2.4273416195e+01    0.3006644    0.2392052   4.27  0.001231787    1.748    0.428
        49  -6.9887     41.3270     98.3076   9.8308880829e+01   5.2256663377e+01    0.1441358   0.09331288 -31.30 0.0002997791    1.654    0.396
        50  -7.4722    130.3192     97.2909   6.9479893569e+01   3.7371882901e+01    0.1532082    0.1223323   6.59  0.000389918    1.602    0.376
        51  -9.9027     11.4487     94.2155   1.0839611326e+02   5.5742386038e+01    0.4942656    0.2353047 -28.77  0.001872521    2.497    0.599
        52 -10.2284     91.2274     93.4318   7.9786222089e+01   4.6117775498e+01    0.2680716    0.2566704  16.14 0.0002531652    1.047    0.045
        53  -8.6121     43.8099     92.4818   9.6076269698e+01   5.3352404041e+01    0.4018863     0.238831 -19.10  0.001818548    2.231    0.552
        54  -8.9179     19.4480     93.3062   1.0529552642e+02   5.5410014712e+01    0.2685343   0.09601589 -59.10  0.001143316    2.171    0.539
        55  -8.3032     56.2256     91.5667   9.1298898606e+01   5.2056236897e+01     0.354971    0.1494347 -40.71  0.000866764    2.486    0.598
        56 -10.2643     37.2889     81.2603   9.5826803959e+01   5.6607545742e+01    0.7420372    0.3681737 -21.78  0.002943442    3.066    0.674
        57  -8.7035     20.8898     84.5814   1.0300357992e+02   5.7323410797e+01    0.2232616    0.1420169 -50.31  0.001240567    1.306    0.234
        58  -8.4775     66.1719     83.9701   8.5647160352e+01   5.2355464144e+01    0.2252279    0.2001686   9.20 0.0003575966    1.137    0.121
        59  -7.6622    127.0434     82.8187   6.6243975083e+01   4.0989745174e+01    0.2517663    0.1722007  21.95  0.001075797    1.979    0.495
        60  -9.0964     49.4446     77.4903   9.0082068937e+01   5.6054338851e+01    0.6663254    0.3522131 -14.04  0.002468543    3.466    0.711
        61  -8.8562     88.3541     78.8770   7.6468446685e+01   4.9714983285e+01    0.5904632    0.2865175  26.79  0.002137771    2.884    0.653
        62  -9.7888      9.2167     76.5369   1.0595376067e+02   5.9929994230e+01    0.5883943    0.2390206 -31.98  0.002112245    2.698    0.629
        63  -7.8578    184.0655     78.0226   5.2627188121e+01   2.8686566825e+01    0.2278044    0.1645305 -73.58 0.0006487343    1.594    0.373
        64 -10.0642     23.8639     73.7060   9.9343666227e+01   5.9524372741e+01     1.191681    0.4699173 -24.23  0.003947538    4.753    0.790
        65  -8.2355     23.4786     69.4511   9.8442791223e+01   6.0480034884e+01    0.2132148    0.1832885 -42.31 0.0006532423    1.060    0.057
        66  -7.1778    120.2964     75.6833   6.5921920385e+01   4.3832452589e+01    0.1471063    0.1182607 -82.68 0.0003745245    1.608    0.378
        67  -8.3403     97.2462     90.0801   7.6930709132e+01   4.5716966763e+01     0.607859    0.3630637  -1.38  0.001899099    4.218    0.763
        68  -8.0326     75.0007     74.3003   7.9617905317e+01   5.2989227591e+01    0.1972858    0.1725233  23.36 0.0003810692    1.136    0.120
        69  -7.7019    128.2405     69.7593   6.2059905697e+01   4.3127046606e+01    0.2283515    0.1239712 -25.94 0.0008810647    2.441    0.590
        70  -8.2007    106.7673     67.0161   6.7022520674e+01   4.8331478073e+01     0.221182    0.1564932  24.37  0.001043784    1.640    0.390
        71  -8.9139     83.9967     64.1145   7.3229015956e+01   5.3374645709e+01    0.3679042    0.2398178  16.12  0.001250746    1.964    0.491
        72  -8.9696     17.6132     62.5289   9.9175954395e+01   6.2411863790e+01    0.5321457    0.1984722 -31.99  0.002128274    3.165    0.684
        73 -10.0012     62.4362     61.0205   7.9976246114e+01   5.7601920050e+01    0.4335799    0.2781265  17.94 0.0002785226    1.742    0.426
        74  -8.3240     11.2159     60.9071   1.0158360958e+02   6.3195858767e+01    0.2295823    0.1588706 -72.24 0.0009399711    1.645    0.392
        75  -9.1562     37.0959     59.4104   8.9787965274e+01   6.1255943850e+01    0.3176473    0.1653723 -23.58  0.001422966    2.391    0.582
        76  -7.3482     49.5204     58.5307   8.4280335896e+01   5.9921985924e+01    0.1310136    0.1171901 -15.59 9.556097e-05    1.046    0.044
        77  -9.3423     99.6554     54.9793   6.5161301392e+01   5.1883250149e+01    0.3596435    0.2898648 -14.82 0.0006733773    1.343    0.256
        78 -10.3355     75.2276     50.1557   7.1446429305e+01   5.7412269208e+01    0.3581776    0.2630486   1.40 0.0002276793    1.534    0.348
        79  -8.3131    118.7485     51.0091   5.8575225304e+01   4.8355323968e+01    0.2370716    0.1888209  47.67 0.0004612764    1.173    0.147
        80  -8.4582    106.3471     49.0297   6.1209209248e+01   5.1402315875e+01    0.4363843     0.268643   4.96  0.001756353    2.855    0.650
        81  -9.0332     45.1113     49.0694   8.2895105364e+01   6.2263797666e+01    0.3717217    0.2103309 -23.48  0.001694656    1.997    0.499
        82  -7.5217    172.2128     49.8566   4.7302300667e+01   3.5899428470e+01    0.1684977    0.1561421  26.37            0    1.298    0.230
        83  -7.2521    249.3119     49.3360   3.7651990506e+01   1.9096436849e+01    0.1064377   0.09660587  11.01  0.000704521    1.685    0.407
        84  -9.0773     55.1226     43.7476   7.6749937244e+01   6.1788348465e+01    0.6129055    0.2324708 -30.44  0.002228274    3.568    0.720
        85  -8.2709     58.4822     40.4680   7.4144533336e+01   6.1806225322e+01    0.2416523    0.1164806  33.37 0.0007214028    2.036    0.509
        86  -9.0710     10.1645     47.2246   9.8371497664e+01   6.6041728389e+01     0.360734    0.2229369   4.77  0.002106814    1.691    0.409
        87  -8.8717     13.5154     45.5012   9.6234387937e+01   6.6141912740e+01    0.2349709    0.2055038  51.20   0.00105474    1.624    0.384
        88 -10.8208     83.1985     40.2356   6.5072906955e+01   5.7477032084e+01    0.5227357    0.3517258  12.47            0    1.808    0.447
        89  -8.6349      2.6949     44.8685   1.0133296896e+02   6.6954936185e+01    0.2560563    0.1641804 -19.17  0.001617942    1.451    0.311
        90  -8.6235     92.6795     42.9228   6.3056159145e+01   5.5193659527e+01     0.382121    0.2360551  17.66  0.001488597    2.220    0.550
        91  -7.7155    154.1931     43.3906   4.8604008388e+01   4.1116155498e+01    0.1837639    0.1248598  75.32 0.0002619976    1.507    0.336
        92  -7.8468    113.4779     42.0086   5.6929637265e+01   5.0852792921e+01    0.2875667    0.1452968  27.74  0.001029309    3.342    0.701
        93  -8.1688    122.9190     40.0637   5.3990625219e+01   4.8969355912e+01    0.2808919    0.1922901  -2.85   0.00135225    2.028    0.507
        94  -7.6493     99.0266     42.0000   6.0842461129e+01   5.4007310683e+01    0.2309877    0.0728788  51.07 0.0007258275    2.953    0.661
        95  -7.6908    132.6848     40.6409   5.2003676895e+01   4.6613464449e+01     0.144901    0.1021777  26.76 0.0007043432    1.752    0.429
        96  -8.5629      3.8659     39.6785   9.9244313125e+01   6.7891495231e+01    0.2583835    0.1301528 -60.40  0.001412835    1.967    0.492
        97  -9.1522      5.8279     34.5653   9.6618778862e+01   6.8725600524e+01    0.3074082    0.2617695 -13.57  0.002272026    1.164    0.141
        98  -8.7412      1.8614     29.9412   9.7187780022e+01   6.9810250594e+01    0.3277706    0.1668184 -68.84  0.001604834    3.118    0.679
        99  -9.6167     20.0251     36.5892   9.0049827091e+01   6.7261457537e+01    0.4835924    0.3227446  -6.80  0.002078069    1.436    0.304
       100  -8.4147     22.0135     31.9422   8.7323347950e+01   6.7882190277e+01    0.1944527    0.1458281   2.20 0.0003255584    1.211    0.174
       101  -7.5731     18.6854     32.3073   8.9152902406e+01   6.8132108389e+01    0.1507778    0.1148708  27.57 0.0004434474    1.516    0.340
       102  -8.4942    105.4593     36.9430   5.7272090826e+01   5.3321157985e+01    0.3069288    0.1751012  31.95  0.001242099    2.030    0.507
       103  -9.6658     69.3268     36.1064   6.8298689311e+01   6.0655719017e+01    0.5312855    0.2908599  23.07  0.002430402    2.239    0.553
       104  -9.4557     37.5370     36.1692   8.1469458151e+01   6.5457368174e+01    0.4203677    0.2348579  -3.76  0.001995053    2.453    0.592
       105  -8.4102     91.9255     36.8507   6.1072669810e+01   5.6211138872e+01    0.2079197    0.1658244  22.91 0.0003812381    1.232    0.189
       106  -9.2118     62.5450     36.7057   7.1082237694e+01   6.1731398397e+01     0.238645    0.2060823 -75.21 0.0007229444    1.835    0.455
       107  -8.8053     55.8563     35.4236   7.3224787292e+01   6.3005249709e+01    0.2029014    0.1650695 -34.95 0.0004634909    1.328    0.247
       108  -9.1368     96.2100     33.0889   5.8435419345e+01   5.5819191993e+01    0.2537055    0.1930018  27.02 0.0003365461    1.308    0.236
       109  -7.9304    133.9053     31.2775   4.8810688961e+01   4.7521003585e+01    0.1824591     0.160258  54.07 0.0004369249    1.060    0.056
       110  -8.3270    227.8953     32.2653   3.6156263510e+01   2.5675563446e+01    0.1886573    0.1391022 -73.71 0.0005678484    1.166    0.142
       111  -8.2031    240.0195     27.6763   3.4150190889e+01   2.3760350565e+01    0.1640273    0.1301096 -84.32 0.0003782354    1.130    0.115
       112  -8.3588     42.0252     27.8462   7.6042308232e+01   6.6180386108e+01    0.2438519    0.1612983   6.22 0.0003543768    1.539    0.350
       113  -9.0469    205.2132    248.5936   8.3753658718e+01  -6.1579961074e+00    0.1797074   0.09616523  22.22 0.0009602957    1.748    0.428
       114  -9.4587     70.0362     26.1643   6.4059625324e+01   6.1892079806e+01    0.2135043    0.1769898 -18.74 0.0007427773    1.237    0.192
       115  -8.7149     61.6910     26.9363   6.7451723301e+01   6.3268072021e+01    0.2304466    0.1512203  23.42 0.0005376293    1.475    0.322
       116  -8.4191    109.5131     25.4159   5.2187709270e+01   5.3849374840e+01    0.2159095     0.187415 -22.61 0.0006241568    1.276    0.217
       117  -8.2349    173.3297    247.6632   8.9838363995e+01  -1.5454242378e+00    0.1196375   0.09359363  57.76 0.0007052019    1.732    0.422
       118  -8.3221      3.5568     24.7097   9.4408810751e+01   7.0624400851e+01    0.2086022   0.08430573 -47.17 0.0005872838    1.984    0.496
       119  -8.3859    235.2588    246.0021   7.7847401874e+01  -9.6469576616e+00    0.1600225    0.1248561  -4.88 0.0004983399    1.070    0.065
       120  -7.4292    136.9585     22.9816   4.5643521826e+01   4.7755048595e+01    0.1506479    0.1430459  70.54 0.0003261564    1.077    0.072
       121  -8.9713     92.2907     20.8571   5.4953353392e+01   5.8117458348e+01    0.2985246    0.2162212   9.30 0.0008302174    1.562    0.360
       122  -8.1611    128.9398     22.2352   4.6913565848e+01   4.9730413359e+01     0.205653    0.1529162  45.30  0.000625097    1.287    0.223
       123  -9.0876      8.4036     19.7051   8.9734594668e+01   7.1108366696e+01    0.2757892     0.228471  -2.39  0.001121871    1.201    0.167
       124  -9.0855     14.0856     17.8685   8.5776520134e+01   7.0911459897e+01    0.3656406    0.1819437  10.57  0.001029514    2.146    0.534
       125  -7.5548    140.4631     19.6011   4.3990482158e+01   4.7286564931e+01    0.1318237    0.1135514  71.16 0.0001223476    1.028    0.027
       126  -7.5798    112.2323     19.3760   4.9441197451e+01   5.3898360444e+01    0.1776172    0.1152789  67.81 0.0003666701    1.537    0.349
       127  -7.3448    146.7007     18.7602   4.2708927308e+01   4.5889326045e+01    0.1275622   0.08808478  45.99 0.0001650614    1.479    0.324
       128  -7.8939    127.7078     16.9317   4.5440245635e+01   5.0575968521e+01    0.1701874    0.1602136  64.11 0.0003741054    1.078    0.073
       129  -9.4742    195.4636    233.6624   8.3284560396e+01  -2.5572434230e+00    0.2789015    0.2378405 -63.30 0.0006646595    1.759    0.431
       130  -9.4322    188.0224    233.9815   8.4809897642e+01  -1.5193284306e+00    0.2973904    0.2569719  65.42  0.001297914    1.708    0.414
       131  -7.6258    146.7686     14.3796   4.1411012793e+01   4.6322057707e+01    0.1833166     0.102198  58.55 0.0006545357    1.550    0.355
       132  -7.9075    220.9726    233.9309   7.8466913959e+01  -6.1549242240e+00    0.1529826    0.1506469  36.58 0.0005025711    1.566    0.361
       133  -8.1375    129.2903    229.9883   9.6563804439e+01   8.2580138799e+00    0.2678706    0.1606809  10.88  0.001018517    2.668    0.625
       134 -10.3808    215.4202    227.5886   7.8444972762e+01  -4.4552983685e+00    0.2274082    0.1970536 -12.60 0.0009065426    1.161    0.139
       135  -9.4365    183.9544    227.6561   8.4612400270e+01   1.2827631596e-01    0.3671851    0.2079577  37.50  0.001388837    1.641    0.391
       136  -7.1520     56.0025    220.0228   1.1164061560e+02   2.0951357573e+01    0.1484382    0.1238254  62.81 0.0009382255    1.026    0.026
       137  -8.5670    185.5820    218.4984   8.2762752654e+01   1.4360624701e+00     0.220388    0.1878342  14.71 0.0004012428    1.038    0.036
       138 -10.2398    152.2803    212.4213   8.8844531144e+01   7.9478519793e+00    0.2378472    0.2280699  28.85 0.0002400787    1.079    0.073
       139  -7.8221    104.0583    208.3477   9.9275395540e+01   1.6683626270e+01    0.1908081    0.1617485  42.81 0.0004194201    1.093    0.085
       140  -7.9021     11.3270    206.6768   1.2026677451e+02   2.8815342407e+01    0.1313072   0.06918423  63.93 0.0007048749    1.691    0.409
       141  -7.2597    139.0082    199.0399   8.9630021620e+01   1.2909952710e+01    0.1701777    0.1468794  35.18            0    1.088    0.081
       142  -7.8953    132.8854    199.1003   9.1069322931e+01   1.3947355801e+01    0.1970902     0.181009  56.32            0    1.105    0.095
       143  -8.1994    175.0774    198.1301   8.1389683426e+01   6.8706086792e+00    0.2064655      0.17282  -0.78 0.0003060102    1.212    0.175
       144  -7.7303    223.0991    187.8867   6.9890523338e+01   8.3606361420e-01    0.1720513    0.1329412 -10.31 0.0009987646    1.240    0.193
       145  -8.2935     38.7951    180.6608   1.1175508222e+02   3.2103184625e+01    0.2090147    0.1550046 -65.47  0.000518839    1.294    0.227
       146  -7.1919    100.9945    176.0027   9.5062092739e+01   2.4616789073e+01    0.1688869     0.156899  52.52            0    1.047    0.044
       147  -7.5070    134.4869    167.4367   8.4938354721e+01   2.0699537055e+01    0.1490696    0.1456958  36.22 4.543184e-05    1.008    0.008
       148  -7.4954    169.2935    163.3585   7.5865794448e+01   1.4947921278e+01    0.1545205    0.1150349 -10.16 0.0007030586    1.696    0.410
       149  -9.0337     66.7141    144.3510   9.9070612445e+01   3.7739384714e+01     0.486073    0.3071119  68.72  0.002004962    2.066    0.516
       150  -8.8691    181.4396    144.9827   6.9249229540e+01   1.6382010353e+01    0.2704645    0.2178202  42.35 0.0003086595    1.288    0.224
       151  -7.2969     15.6116    138.7029   1.1332622121e+02   4.4642284241e+01    0.1356785   0.08409862 -41.25 0.0003491804    1.782    0.439
       152  -7.4215     55.3305    135.3197   1.0090571032e+02   4.1519879966e+01    0.1482387    0.1028589 -33.25 0.0007048296    1.691    0.409
       153  -7.9163    133.7684    124.3959   7.5616932824e+01   3.0740973605e+01    0.2263347    0.1488231  32.74 0.0009575377    1.687    0.407
       154  -8.3303     12.5336    120.9597   1.1205554931e+02   4.9239339633e+01    0.2009495   0.06643974 -51.34 0.0008095884    2.565    0.610
       155  -7.7863    119.6792    118.5796   7.7961498850e+01   3.4957572863e+01    0.3020852    0.1441145  27.93 0.0009515578    3.256    0.693
       156  -7.3054    238.6600    115.6784   5.2637225741e+01   1.0780514949e+01    0.1304361    0.1017625  -3.76 0.0007050461    1.719    0.418
       157  -8.0219     28.4823    112.1777   1.0551255825e+02   5.0151413965e+01    0.2597416     0.152124  61.28  0.001202022    2.312    0.568
