#   1 NUMBER                 Running object number                                     
#   2 MAG_AUTO               Kron-like elliptical aperture magnitude                    [mag]
#   3 X_IMAGE                Object position along x                                    [pixel]
#   4 Y_IMAGE                Object position along y                                    [pixel]
#   5 X_WORLD                Barycenter position along world x axis                     [deg]
#   6 Y_WORLD                Barycenter position along world y axis                     [deg]
#   7 A_WORLD                Profile RMS along major axis (world units)                 [deg]
#   8 B_WORLD                Profile RMS along minor axis (world units)                 [deg]
#   9 THETA_WORLD            Position angle (CCW/world-x)                               [deg]
#  10 FWHM_WORLD             FWHM assuming a gaussian core                              [deg]
#  11 ELONGATION             A_IMAGE/B_IMAGE                                           
#  12 ELLIPTICITY            1 - B_IMAGE/A_IMAGE                                       
         1 -16.6212     72.1710     67.7554   9.6405221408e+01   5.3537656738e+01     3.281046     2.634332  82.08   0.01449169    1.708    0.414
         2 -14.0454     48.5260     54.7232   1.0036256132e+02   5.9100955150e+01    0.6782145    0.6078306 -82.91  0.003729198    1.378    0.274
         3 -13.0692    139.7044     11.0481   5.7590316783e+01   4.9281138506e+01     1.099957    0.7106459  61.78  0.005178473    1.519    0.342
         4 -14.9016    162.7556     13.7674   5.4331189918e+01   4.3191248011e+01     2.040827     1.474762  70.37  0.009697223    1.391    0.281
         5 -15.0123    132.4217     56.2021   7.5500500475e+01   4.4683533736e+01     2.614589     1.394548  54.33  0.008393646    2.003    0.501
         6 -14.7323    158.5938     48.9713   6.7041250064e+01   3.9631434042e+01     1.577674     1.273973 -47.41  0.004883562    1.311    0.237
         7 -14.8801    173.9510     42.2133   6.1783769783e+01   3.6719417296e+01     1.809052     1.534639 -83.39  0.006652254    1.337    0.252
         8 -13.2569    103.3311     23.5289   7.1197934235e+01   5.5966777117e+01     1.040739    0.6583462  -3.35  0.004822846    1.872    0.466
         9 -14.7925    247.4216     11.0704   4.2986154968e+01   2.1666787309e+01     1.786444    0.5179021 -30.96  0.006643496    2.954    0.661
        10 -12.6081    200.0965     22.6384   5.1462093173e+01   3.2387620310e+01     0.547896    0.4614289  -1.98  0.002698218    1.341    0.255
        11 -14.3320     52.9857     15.0408   8.4269463624e+01   6.5610418477e+01     1.057622    0.8516538  18.28  0.006312582    1.297    0.229
        12 -14.2594     61.4629      8.9310   7.8282826017e+01   6.5281209164e+01     1.461782     1.015014 -57.93  0.007736787    2.714    0.632
        13 -13.0707    212.6588     20.1331   4.9090610466e+01   2.9389017091e+01    0.4892086    0.3092984 -69.74  0.002222298    1.851    0.460
        14 -14.5349    132.9476    163.6076   1.0204278653e+02   2.3030545385e+01     1.211077    0.9366555  82.53  0.005002435    1.412    0.292
        15 -13.0949    246.8782    248.5246   9.5066936407e+01  -9.0749456865e+00    0.5595418    0.2567688  32.18  0.002912668    1.727    0.421
        16 -12.2925    234.9082    249.8390   9.7113053429e+01  -7.3985885956e+00      0.25447    0.1497859  30.57  0.001703832    1.316    0.240
        17 -13.7148    237.0132    241.8507   9.5630253809e+01  -6.9580842728e+00    0.5859131    0.3475524  26.96  0.003124231    1.412    0.292
        18 -13.9345    142.9313    225.6152   1.0906358265e+02   1.0534828971e+01    0.8800778    0.3471254  52.12  0.004037117    2.207    0.547
        19 -13.7588    152.5457    248.7897   1.1012441120e+02   5.7493521360e+00    0.8481714    0.4245299  33.36  0.004400122    2.380    0.580
        20 -16.6233    132.3452    237.3904   1.1218007990e+02   1.0501552984e+01     2.174983     1.026066  50.63  0.008737352    1.647    0.393
        21 -15.5828     66.6104    245.8988   1.2329749536e+02   1.8578131077e+01     2.346368    0.4662486  52.41   0.01036881    3.662    0.727
        22 -16.8575     45.0253    200.4964   1.2351098917e+02   2.8886011490e+01     2.657162     1.685945  60.06   0.01892269    1.285    0.222
        23 -15.7063    140.1126    152.5151   9.8524272397e+01   2.3871261749e+01     2.072396     1.508271 -81.75  0.007929781    1.699    0.411
        24 -10.1999     87.7423    163.9979   1.1159268092e+02   3.0477102114e+01    0.1533251   0.09942205 -67.50 0.0003634733    1.463    0.316
        25 -12.1974     76.1242    159.6407   1.1344565818e+02   3.3040586478e+01    0.3184837    0.2152577 -47.46 0.0008950888    1.851    0.460
        26 -11.6763     68.5262    143.6015   1.1290457565e+02   3.7472334780e+01    0.5391401    0.2324113  64.74   0.00201896    3.874    0.742
        27 -11.0024     94.0346    141.3738   1.0676400584e+02   3.4301705900e+01    0.2031881    0.1676342 -58.10  0.000412637    1.230    0.187
        28 -14.6884     40.9949     83.0827   1.0971585487e+02   5.3911684711e+01     1.509281     1.137428   0.05  0.007347195    1.834    0.455
        29 -13.8605     54.8119     87.1565   1.0651612656e+02   5.1584779925e+01    0.7138883    0.6461303  74.48  0.003514132    1.244    0.196
        30 -13.9293     69.1072    227.6617   1.2160453138e+02   2.1172255978e+01    0.4895137    0.2717733  79.85  0.002201985    1.701    0.412
        31 -13.0031     76.8071    226.9553   1.2030810718e+02   2.0276364708e+01    0.2928691    0.2222545  54.11  0.001234939    1.271    0.213
        32 -11.0554     92.0969    234.1704   1.1844223149e+02   1.7007525341e+01    0.1516775    0.1217159  61.95 0.0003861375    1.169    0.144
        33 -19.0970      3.4025    136.1624   1.2627243616e+02   4.5544613639e+01     14.73342    0.7025959 -74.68   0.02789024   17.008    0.941
        34 -14.7426     78.6808    233.4039   1.2052572100e+02   1.8973360996e+01    0.6931038    0.4769728 -79.16    0.0034491    1.477    0.323
        35 -15.8918     35.4531    247.2345   1.2790321339e+02   2.2061518070e+01     1.068521     0.539149  49.60  0.007949153    1.587    0.370
        36 -14.2828    142.4648    203.9323   1.0636157079e+02   1.4027559853e+01     0.960259    0.7944086   3.84  0.005696907    1.826    0.452
        37 -12.5974    102.6079     36.0133   7.6313449384e+01   5.4282932729e+01    0.6028054    0.4259678 -40.80  0.002894984    1.442    0.306
        38 -15.4856    158.1001    193.7771   1.0196639725e+02   1.2927872441e+01     2.065988     1.431905  70.14   0.01133052    1.705    0.414
        39 -16.9563    183.7934    178.9981   9.4599905901e+01   1.0487797720e+01     3.158031     2.845502 -43.19   0.01476731    1.254    0.203
        40 -15.2330    190.0307    151.6166   8.8019667727e+01   1.3823341120e+01     1.400523     1.112627  80.50  0.005868439    1.659    0.397
        41 -17.1863     18.7426    226.1761   1.2925793328e+02   2.7211441655e+01     1.672644    0.6572677 -77.53   0.01088627    2.197    0.545
        42 -10.6371     80.2692    173.3829   1.1433378599e+02   2.9643371431e+01    0.1638071    0.1421528 -35.15 0.0008928087    1.731    0.422
