#   1 NUMBER                 Running object number                                     
#   2 MAG_AUTO               Kron-like elliptical aperture magnitude                    [mag]
#   3 X_IMAGE                Object position along x                                    [pixel]
#   4 Y_IMAGE                Object position along y                                    [pixel]
#   5 X_WORLD                Barycenter position along world x axis                     [deg]
#   6 Y_WORLD                Barycenter position along world y axis                     [deg]
#   7 A_WORLD                Profile RMS along major axis (world units)                 [deg]
#   8 B_WORLD                Profile RMS along minor axis (world units)                 [deg]
#   9 THETA_WORLD            Position angle (CCW/world-x)                               [deg]
#  10 FWHM_WORLD             FWHM assuming a gaussian core                              [deg]
#  11 ELONGATION             A_IMAGE/B_IMAGE                                           
#  12 ELLIPTICITY            1 - B_IMAGE/A_IMAGE                                       
         1 -16.4617    231.8523     91.6096   8.5435361710e+01   1.5366752777e+01     2.671913     1.836214 -43.38   0.01162718    1.508    0.337
         2 -15.4395    204.5948     74.2353   8.4979226766e+01   2.3743529027e+01     1.814525     1.122643 -49.12  0.007330933    1.763    0.433
         3 -15.0907    205.4168     43.1371   7.6210171964e+01   2.7683535313e+01     2.186241    0.9288477 -34.92  0.008090394    2.105    0.525
         4 -16.5575     11.3891     67.8339   1.4366789807e+02   6.2588206102e+01     2.164264      1.56235 -75.69   0.01142673    1.178    0.151
         5 -14.8823     87.0441     42.8341   1.0222030775e+02   5.8202043163e+01     1.311416     0.951961  73.05  0.005028539    1.861    0.463
         6 -15.9307     87.5055     29.5814   9.6144897116e+01   6.0431630902e+01     2.347386     1.859089  82.43   0.01130385    1.645    0.392
         7 -13.6860      5.2971     37.5668   1.4187973601e+02   7.0135638565e+01    0.7591044    0.5161597 -57.02  0.003918023    1.225    0.184
         8 -15.3435    242.8926     28.9042   6.8680957930e+01   2.0497723686e+01     1.489612     1.120598 -31.75  0.005686987    1.179    0.152
         9 -14.0084    244.2420      5.8121   6.2893640216e+01   2.2478534374e+01    0.8506573    0.7802694 -77.47  0.004422385    1.147    0.128
        10 -12.3216    183.0336      8.2914   6.8184765844e+01   3.7390572027e+01    0.3833747    0.2480993 -16.73  0.001714433    1.692    0.409
        11 -11.3576      2.1559      6.8453   1.3560536819e+02   7.7185449911e+01    0.3129654   0.05562875 -64.71  0.001120398    3.840    0.740
        12 -14.1631     83.6681    202.7896   1.3677493766e+02   2.4410829963e+01    0.4160455    0.3918871  15.78  0.001696595    1.386    0.279
        13 -14.9521    216.3271    239.0869   1.1564733585e+02   3.4661784208e-01     1.213676    0.5184119 -28.03   0.00723532    2.822    0.646
        14 -14.9597    227.8659    222.4100   1.1145141905e+02   4.0821402714e-01    0.8325763     0.534898 -21.53  0.004904534    1.680    0.405
        15 -17.8496    239.6472    197.8151   1.0575406658e+02   1.2286852396e+00     3.816303      1.74658 -35.89   0.02114465    2.640    0.621
        16 -15.7018    206.3834    185.8740   1.0931974889e+02   7.5965615621e+00     1.191827    0.9187279 -35.29  0.006008617    1.594    0.373
        17 -15.6070     33.0334    132.4258   1.4300450620e+02   4.5277830147e+01     1.301274    0.9665255 -30.80  0.007165406    1.895    0.472
        18 -13.1403     22.7770    176.4078   1.4871616907e+02   3.6620174224e+01     1.722095     0.876183 -62.43  0.009760525    2.275    0.561
        19 -15.9584     14.3038    128.6729   1.4826673180e+02   4.7762620443e+01      1.31243     1.221012  82.20  0.007158904    1.183    0.155
        20 -19.6688     56.1462    158.8485   1.3911933864e+02   3.6736373414e+01     18.29535     3.365908 -71.49   0.05268248    6.283    0.841
        21 -13.5182     81.8431    195.4710   1.3649098658e+02   2.5984332419e+01    0.3693722    0.2944252   0.00   0.00229072    1.896    0.473
        22 -11.9281    196.1079    194.3527   1.1257737105e+02   8.1800549562e+00    0.4459128    0.1788647  33.68  0.002082257    2.180    0.541
        23 -16.4884     72.5943    138.8606   1.3219150405e+02   3.9003864538e+01     1.654057     1.257575  54.85  0.005842722    1.187    0.158
        24 -11.3042     99.4915    180.5118   1.3080834161e+02   2.6228030461e+01    0.1316152    0.1076894  49.32  0.000810515    1.004    0.004
        25 -13.1341     98.4322    172.4010   1.3002676497e+02   2.7958623849e+01     0.634119    0.2726181 -44.03  0.002543006    3.516    0.716
        26 -14.1782    208.8179    158.0504   1.0380786788e+02   1.0803804426e+01    0.7367516    0.6347542 -46.58  0.003253898    1.550    0.355
        27 -14.1003     92.7538    187.6590   1.3320964812e+02   2.5889442720e+01    0.7275564    0.3440474  47.20  0.003623848    1.748    0.428
        28 -11.1627    103.9581    161.5099   1.2715149325e+02   2.9244358013e+01    0.1895415    0.1746963  68.31 0.0003673152    1.102    0.093
        29 -12.8111     93.5797    155.9514   1.2896814268e+02   3.2067737644e+01    0.3304412    0.2892607   0.17  0.000885438    1.490    0.329
        30 -11.9500    106.8521    155.9213   1.2557035768e+02   2.9896272453e+01     0.203063     0.185973  16.31 0.0006187938    1.261    0.207
        31 -11.6334     97.8742    151.1153   1.2712332944e+02   3.2393248636e+01    0.2137695    0.1669842  61.14 0.0003328095    1.220    0.180
        32 -11.8887    104.9957    139.6269   1.2331463555e+02   3.3629391983e+01    0.2589923    0.2296724  51.47 0.0006005278    1.019    0.019
        33 -11.2715    105.9595    130.7287   1.2139392333e+02   3.5380778300e+01    0.2149247    0.1855261  52.34  0.001179994    1.062    0.058
        34 -10.8294    108.5705    126.2091   1.1977262236e+02   3.5884555222e+01    0.1960089    0.1385178 -41.75  0.000940185    1.627    0.385
        35 -16.7896      9.9415    158.5063   1.5100738610e+02   4.1460430397e+01      3.24266    0.8475567 -72.01   0.01391746    3.415    0.707
        36 -10.4600    171.6724    117.3473   1.0222061284e+02   2.4480661632e+01    0.1475192    0.1183165 -82.99 0.0007049745    1.754    0.430
        37 -10.7162     17.4808    249.3955   1.5234555039e+02   2.4210188913e+01   0.09389861   0.06933514  48.59            0    1.197    0.165
        38 -11.9024     12.3859    246.2656   1.5315947189e+02   2.5160998285e+01    0.1351414   0.09316674 -86.94 0.0006583708    1.657    0.396
        39 -14.4420    211.9177     60.0323   8.0080772256e+01   2.3946482275e+01     1.251043    0.8714668   4.59  0.006002814    1.828    0.453
        40 -11.3746     22.1612    242.9903   1.5134848795e+02   2.4746165978e+01    0.1457274    0.1070316  50.00 0.0006842306    1.155    0.134
        41 -14.2970      3.7638     88.5330   1.4894727498e+02   5.7944924757e+01     1.717263    0.2652438 -75.38  0.005569931    4.417    0.774
        42 -10.6271     18.9669    240.9808   1.5186500313e+02   2.5366231351e+01    0.1150742   0.08973365  59.15 0.0004072391    1.208    0.172
        43 -14.3955    139.9054     72.0836   9.6999709806e+01   4.0186797157e+01     1.118093    0.8814051 -43.03  0.003400479    1.302    0.232
        44 -11.9508    114.9746     59.2339   9.9377777942e+01   4.8712853265e+01    0.2837558    0.2129755 -18.27  0.001287427    1.609    0.379
        45 -11.8366    157.2107     49.4312   8.5690303168e+01   3.9459359128e+01    0.3024999    0.2518516 -56.99 0.0009233126    1.261    0.207
        46 -12.2218    172.8052    240.4036   1.2321556408e+02   6.1258214353e+00    0.3808272    0.1558687  36.36  0.001533551    1.753    0.429
        47 -12.1242    110.0379    222.9725   1.3318578059e+02   1.7398796292e+01     0.185719    0.1387938  43.41 0.0006114054    1.012    0.011
        48 -11.2405     18.3189    218.1773   1.5131961539e+02   2.9185199502e+01    0.2011361    0.1574071 -52.78  0.001539342    1.974    0.493
        49 -11.5108    112.4314    210.7190   1.3144088504e+02   1.8980086373e+01    0.2089056    0.1329729  23.10  0.001188723    1.779    0.438
        50 -13.9888     93.1944    205.2501   1.3494854283e+02   2.2661944816e+01    0.4069704    0.3030365  55.85  0.002700549    1.161    0.138
        51 -13.0842    169.5699     34.0706   7.8358807304e+01   3.8226647557e+01    0.4933564    0.4754875 -36.89  0.002126541    1.072    0.067
        52 -12.2113    173.3023     26.6398   7.5334613119e+01   3.8110730759e+01     0.546174    0.3068359   5.66  0.001440909    2.858    0.650
        53 -11.4909      5.8180     13.8277   1.3515369152e+02   7.5512182832e+01    0.1577085    0.1381778  84.88  0.001084988    1.346    0.257
        54 -13.5880     92.2552    198.7267   1.3450150720e+02   2.3940076805e+01    0.5049669    0.2106206  55.23    0.0019711    2.558    0.609
