#   1 NUMBER                 Running object number                                     
#   2 MAG_AUTO               Kron-like elliptical aperture magnitude                    [mag]
#   3 X_IMAGE                Object position along x                                    [pixel]
#   4 Y_IMAGE                Object position along y                                    [pixel]
#   5 X_WORLD                Barycenter position along world x axis                     [deg]
#   6 Y_WORLD                Barycenter position along world y axis                     [deg]
#   7 A_WORLD                Profile RMS along major axis (world units)                 [deg]
#   8 B_WORLD                Profile RMS along minor axis (world units)                 [deg]
#   9 THETA_WORLD            Position angle (CCW/world-x)                               [deg]
#  10 FWHM_WORLD             FWHM assuming a gaussian core                              [deg]
#  11 ELONGATION             A_IMAGE/B_IMAGE                                           
#  12 ELLIPTICITY            1 - B_IMAGE/A_IMAGE                                       
         1 -15.2570      8.1143    153.2412   1.4439673727e+02   4.2053401705e+01     10.02147      4.36079  71.25   0.04617074    3.012    0.668
         2 -13.4457    194.7679     29.2822   6.8977795245e+01   3.3120757341e+01     1.339442     1.231765  89.94  0.007384003    1.063    0.059
         3 -13.6239    209.9657     10.4842   6.2519998229e+01   3.1601535758e+01     1.274622    0.9514792  40.73  0.007394457    1.712    0.416
         4 -11.9183      2.6497      5.0398   1.1469164805e+02   7.1555876681e+01    0.4862767    0.2351918 -44.88   0.00313195    1.972    0.493
         5 -10.9685     97.3353    246.0529   1.3608424570e+02   1.1326758211e+01    0.5247962    0.2737568 -88.62  0.002501442    2.734    0.634
         6 -11.1775    139.1699    249.9235   1.2878865010e+02   3.8087971886e+00    0.2930865    0.1807182  45.53   0.00166998    1.324    0.245
         7 -11.3377    123.7922    250.0762   1.3166839959e+02   6.3570866439e+00    0.5680438    0.1291998  43.00  0.002015349    3.556    0.719
         8  -9.8285    111.9274    250.5025   1.3389880001e+02   8.2202110708e+00    0.1906999    0.1012816  44.80 0.0005997878    1.572    0.364
         9  -8.6208     66.6666    250.2887   1.4190364756e+02   1.5075829069e+01    0.1234459    0.0665744  66.74 0.0002341468    1.628    0.386
        10 -10.2933     29.1789    249.8360   1.4804320063e+02   1.9949946332e+01    0.2311299    0.1828818  61.15   0.00111427    1.327    0.246
        11 -10.7723     33.9052    249.1624   1.4724867174e+02   1.9515216765e+01    0.2991864    0.1831275  62.63  0.002087255    1.232    0.188
        12 -11.6813     35.2343    244.0637   1.4669468429e+02   2.0299906465e+01     0.442308    0.3346837  28.69    0.0030565    2.130    0.531
        13 -11.5495     14.5982    248.3104   1.5022226378e+02   2.1865405253e+01    0.4465848    0.2288651  82.91  0.002968308    1.545    0.353
        14 -11.2345      2.8036    248.3631   1.5200326973e+02   2.3088664625e+01    0.4441309    0.2236352  69.24  0.003075767    1.455    0.313
        15 -10.8685    101.1428    246.1186   1.3539583707e+02   1.0718340083e+01    0.2857243     0.179485 -69.10 0.0009494738    1.741    0.426
        16  -8.9695     88.6806    249.3033   1.3797077292e+02   1.2064646104e+01    0.1266023   0.07309037  67.57 0.0002509873    1.628    0.386
        17  -9.5569     46.9877    249.4874   1.4514567503e+02   1.7841633197e+01    0.1580936   0.09129968  48.14 0.0003807118    1.533    0.348
        18 -10.5236    106.7044    247.0176   1.3447303939e+02   9.6739792932e+00    0.1753048     0.144428  72.25  0.001176301    1.094    0.086
        19 -10.9415    198.7242    246.2449   1.1706339402e+02  -5.7901567242e+00    0.2329917    0.1360128  41.40  0.001074928    1.448    0.309
        20 -10.7974     21.4698    244.1557   1.4891455436e+02   2.1874806593e+01    0.2815225    0.1346536  65.11  0.001372364    1.657    0.396
        21 -11.3441    125.7365    243.8452   1.3055746932e+02   7.1145212096e+00    0.4244618    0.1535508  55.18  0.001622644    3.162    0.684
        22 -11.9284     11.3531    239.2138   1.5022063036e+02   2.3888377719e+01    0.4449316    0.1760323  69.32  0.001906967    2.236    0.553
        23 -10.7130    119.8891    238.0264   1.3095372566e+02   9.1385657460e+00    0.2905766    0.1737468 -75.68  0.001510393    2.102    0.524
        24  -9.8395     22.8428    236.6014   1.4822711873e+02   2.3141064824e+01    0.2245757    0.1735656 -49.77  0.001592182    2.159    0.537
        25 -10.9223    232.5074    249.5125   1.1140561492e+02  -1.1642621879e+01    0.3048666   0.09978921  41.60  0.001328012    2.714    0.632
        26  -8.9660    152.5275    212.9307   1.2085590443e+02   8.0320650774e+00    0.1802986    0.1381326 -53.13 0.0003286656    1.454    0.312
        27 -14.2845     41.4280    223.9347   1.4414044190e+02   2.3451713758e+01     1.194952     1.132873  45.02  0.006204121    1.586    0.370
        28  -9.4803     34.5571    202.2472   1.4357057336e+02   2.8750728467e+01    0.1883694    0.1453284  58.20  0.000623243    1.273    0.214
        29 -11.6507     62.0774    197.9581   1.3767822079e+02   2.6252290487e+01     0.312217    0.2434567 -50.44  0.001109055    1.629    0.386
        30  -9.8091    193.6237    196.1384   1.0939566321e+02   3.2734937972e+00    0.6316559    0.3122147 -65.06  0.001453189    9.048    0.889
        31  -9.0330     50.3201    196.5323   1.3991928677e+02   2.8098472162e+01    0.1380675    0.1179527  46.86 0.0003459083    1.383    0.277
        32 -11.3981    229.4089    229.6385   1.0861144715e+02  -8.5164235682e+00    0.5589396     0.325199 -59.38    0.0023021    4.234    0.764
        33 -11.8891     68.0208    189.8845   1.3547510932e+02   2.7219570013e+01    0.2865976    0.2298092 -64.14 0.0004546008    1.297    0.229
        34 -10.8866     77.9626    177.2939   1.3159381847e+02   2.8642079061e+01    0.2370521    0.2167086 -83.60 0.0003431526    1.127    0.113
        35 -13.1772     64.8165    175.2844   1.3428891179e+02   3.0976381781e+01    0.4987678    0.2794003 -46.31  0.001709478    2.218    0.549
        36 -10.1462     98.2288    174.7453   1.2654059730e+02   2.6021342416e+01    0.3025842    0.2162715 -74.12 0.0005132213    1.393    0.282
        37 -11.8352     85.5111    167.9259   1.2841646461e+02   2.9663326792e+01    0.6449873    0.5917965  76.16  0.003894606    1.086    0.080
        38 -11.2536    151.6494    229.3016   1.2356356697e+02   5.1788912336e+00    0.5575629    0.1092714  41.11  0.001601327    4.689    0.787
        39 -10.0866     98.2940    151.7658   1.2246954128e+02   3.1377357409e+01    0.3323157    0.2618082 -51.34 0.0008889014    1.272    0.214
        40  -9.1327    100.9788    147.9827   1.2106142825e+02   3.1807864959e+01    0.2181214    0.1756246 -23.85 0.0003451503    1.631    0.387
        41 -12.0454     86.6749    151.2466   1.2528769469e+02   3.3406708114e+01    0.2960268    0.2486633 -48.69 0.0005610699    1.255    0.203
        42 -12.4089     67.5443    143.9828   1.2885640404e+02   3.7939944601e+01    0.7927279    0.5187543  73.30  0.003194652    1.873    0.466
        43 -11.5894     58.3800    133.2770   1.2937792661e+02   4.1656498087e+01    0.7608123    0.3451767 -77.96  0.002718495    3.463    0.711
        44  -8.6466    192.2227    143.9862   9.8658252532e+01   1.3722897969e+01    0.1960728    0.1251193 -42.36 0.0004110069    1.559    0.359
        45 -13.2047      8.8048    207.6130   1.4870428522e+02   3.0328136525e+01    0.8369101     0.705486 -77.44  0.004916677    1.395    0.283
        46  -9.7938    109.8508    136.9304   1.1649578827e+02   3.2813911277e+01    0.3800103    0.2578757 -23.06  0.001496543    2.250    0.556
        47 -10.3995    172.9919    222.6255   1.1827018557e+02   2.4670796590e+00    0.3242855    0.1147454  42.72  0.001253464    2.471    0.595
        48 -10.9086     33.5257    132.6850   1.3579634361e+02   4.4523774768e+01    0.2665433    0.2003745  60.55 0.0006176341    1.474    0.322
        49  -8.8629    106.8257    123.8406   1.1434010183e+02   3.6408316340e+01    0.2024756    0.1901419 -25.57 0.0003463197    1.149    0.130
        50 -10.5435     96.9219    134.4117   1.1933780110e+02   3.5703317554e+01       0.2635    0.2123799 -46.84  0.000602658    1.235    0.190
        51 -10.2789    167.8115    112.9358   9.6370047551e+01   2.5753369304e+01    0.3566194     0.295981 -88.15 0.0008356486    1.405    0.288
        52  -9.7722    203.6248    111.6467   8.8606531468e+01   1.7529761286e+01    0.2291022    0.1854798   9.77  0.001025497    1.609    0.378
        53  -9.7886    243.3251     92.6487   7.7403592101e+01   1.1919431137e+01    0.1523943    0.1009325 -67.17 0.0007048158    1.758    0.431
        54  -9.0582    184.5637     77.4795   8.3449506383e+01   2.8467496453e+01    0.1491318    0.1456358  73.65 0.0001465838    1.053    0.050
        55  -9.5026    157.5000     76.5281   8.8766009761e+01   3.5283513227e+01      0.15098    0.1466873  60.86  0.000167848    1.005    0.005
        56  -9.9700     34.7129     63.5225   1.2124789071e+02   5.9390416539e+01    0.2932964    0.1791209  44.67  0.001359292    2.303    0.566
        57 -12.7320     35.5421    231.9381   1.4578705503e+02   2.2577821505e+01    0.2886804    0.2389108 -79.26 0.0007245808    1.389    0.280
        58 -10.3445     16.6287     55.9509   1.2578072715e+02   6.2299921700e+01    0.1800571     0.159474   7.96 0.0005366825    1.347    0.258
        59 -11.1909      2.4292     39.7102   1.2683015399e+02   6.6130113845e+01    0.3739546    0.0867686 -52.97  0.001709468    2.863    0.651
        60 -11.9706    244.8271    246.8504   1.0878297849e+02  -1.3155228558e+01     0.425775    0.2760888 -33.29  0.002688006    1.713    0.416
        61 -10.7678    162.5131    249.2154   1.2430971672e+02  -6.4104476750e-02    0.2567362    0.1538049  43.19  0.001423802    1.365    0.268
