#   1 NUMBER                 Running object number                                     
#   2 MAG_AUTO               Kron-like elliptical aperture magnitude                    [mag]
#   3 X_IMAGE                Object position along x                                    [pixel]
#   4 Y_IMAGE                Object position along y                                    [pixel]
#   5 X_WORLD                Barycenter position along world x axis                     [deg]
#   6 Y_WORLD                Barycenter position along world y axis                     [deg]
#   7 A_WORLD                Profile RMS along major axis (world units)                 [deg]
#   8 B_WORLD                Profile RMS along minor axis (world units)                 [deg]
#   9 THETA_WORLD            Position angle (CCW/world-x)                               [deg]
#  10 FWHM_WORLD             FWHM assuming a gaussian core                              [deg]
#  11 ELONGATION             A_IMAGE/B_IMAGE                                           
#  12 ELLIPTICITY            1 - B_IMAGE/A_IMAGE                                       
         1 -15.4964      6.2690     69.1331   1.1198693357e+02   6.1081069218e+01     2.006046     1.020671 -62.98   0.01113891    1.517    0.341
         2 -13.8837     58.4387     64.4399   9.0698805021e+01   5.7241052768e+01     1.636578    0.8871732 -24.63  0.007023133    2.404    0.584
         3 -14.7753    119.6434     54.5892   6.7491672998e+01   4.7811356028e+01     1.203535    0.9146302  29.63  0.002419383    1.378    0.274
         4 -13.5965    131.9530     32.8156   5.6803625067e+01   4.8118260165e+01    0.9661929    0.5096144 -31.20  0.004075124    1.940    0.485
         5 -14.3380    121.8023     37.6223   6.0870696551e+01   4.9884343313e+01     1.045003    0.5822671  29.38  0.002638687    2.265    0.559
         6 -14.0739     86.0964     66.4424   8.1651040237e+01   5.2488362256e+01     1.846749     1.073447 -11.22  0.006783661    3.150    0.683
         7 -12.1310    232.5898      2.2126   3.4736300819e+01   2.7041387171e+01    0.4099162      0.22849  61.09  0.001651209    1.884    0.469
         8 -15.4751    218.2507     16.6726   3.9310301439e+01   2.8749880603e+01     2.191234     1.153793 -29.58   0.01082241    1.954    0.488
         9 -14.1081    189.2261     26.4728   4.5096466096e+01   3.4627995485e+01     1.878993    0.6319287 -54.69  0.005436812    4.959    0.798
        10 -14.4280    189.6769     15.0964   4.1895408516e+01   3.5800847778e+01      1.52471    0.7067775 -53.99  0.006503258    2.385    0.581
        11 -13.3943    139.7633     22.1628   5.1495407012e+01   4.7483862530e+01    0.7432173    0.3336379  57.21  0.001652658    1.971    0.493
        12 -14.8602    166.5309     29.8697   4.9360762291e+01   3.9908321773e+01     1.142537     1.091501  56.78  0.003916554    1.061    0.058
        13 -15.0060    147.2589     29.8073   5.2676120159e+01   4.4744929630e+01     1.496183    0.9634814  56.48  0.005832459    1.440    0.306
        14 -12.8755      7.8994      2.6616   8.8710486614e+01   7.3576256987e+01     0.429454    0.3759764 -51.65  0.002559063    1.880    0.468
        15 -13.2936      2.6968     10.7272   9.5649825106e+01   7.2733894029e+01    0.6591433     0.342117 -51.93  0.003936359    1.938    0.484
        16 -13.1539     17.0313     10.7067   8.7720904507e+01   7.1562967082e+01    0.3969279    0.2898733 -54.54  0.001157491    2.099    0.524
        17 -15.9577     11.4191     23.2396   9.6273405315e+01   6.9999519153e+01      1.83276     1.008428 -23.15  0.009988252    1.679    0.405
        18 -14.0830     24.4655     13.9312   8.5438562619e+01   7.0327903900e+01    0.7076485    0.2879018  28.40  0.002820104    2.586    0.613
        19 -12.0144     29.3678     32.2183   9.1133112821e+01   6.6837234086e+01    0.5054486    0.2920323  -6.72  0.002695689    2.063    0.515
        20 -13.0965    120.0909     26.4845   5.7165832837e+01   5.1711527875e+01    0.8135297    0.5062543  32.00  0.003893024    1.721    0.419
        21 -12.4162     71.5042     17.7189   6.7311862161e+01   6.2952035942e+01    0.4401014    0.2986619 -34.85  0.001617488    1.598    0.374
        22 -15.4452     97.6828     12.3436   5.7062932631e+01   5.8301711718e+01     1.677029    0.7650762  50.95  0.005335007    1.920    0.479
        23 -11.6768     60.0643     16.9501   7.1112203273e+01   6.5036835375e+01    0.3140493    0.1719423 -31.54  0.001663487    1.763    0.433
        24 -14.4250     42.4259      6.3885   7.3077840220e+01   6.9074496738e+01     1.025957    0.6545075 -11.33  0.004559868    1.408    0.290
        25 -11.8524    153.3666      8.5778   4.4701324937e+01   4.5488344393e+01    0.2528718    0.2148155  48.75 0.0006288733    1.144    0.126
        26 -11.1651     68.3173      5.3113   6.2549170885e+01   6.4900232127e+01     0.242251    0.1303796 -42.52   0.00117638    2.612    0.617
        27 -12.2257    118.6818      2.9019   4.8565163853e+01   5.4397974184e+01    0.5127902    0.2867053  85.82  0.002270291    2.552    0.608
        28 -11.2988    112.3230      1.8497   4.9420232096e+01   5.5960448510e+01    0.2558196    0.1679624  59.47  0.001401528    1.367    0.268
        29 -11.8755     78.3459      2.4664   5.8038959716e+01   6.3241493873e+01    0.3701465    0.2056586  47.99  0.001458183    1.588    0.370
        30 -11.1737     82.9953      1.0000   5.6034086433e+01   6.2430385869e+01    0.2518497    0.1278455  60.35  0.001230932    2.064    0.516
        31 -11.8044     61.7219      1.9811   6.3168555344e+01   6.6419515486e+01    0.2882428    0.2028254  51.57  0.001172538    1.594    0.373
        32 -11.7748    203.9124     12.1969   3.9589838622e+01   3.2641406192e+01    0.4237881     0.216067 -76.05  0.001861239    2.348    0.574
        33 -13.5598     74.0214    153.2289   1.0634792192e+02   3.4204820973e+01      0.70287    0.5026618  34.54  0.003008277    1.548    0.354
        34 -12.4896     57.3112    246.8420   1.2022779894e+02   1.6442316093e+01    0.4601178    0.1457282  40.33  0.002236809    2.568    0.611
        35 -13.5755     28.3127    246.0703   1.2513282321e+02   1.9984269736e+01    0.6100593    0.2900979  75.00   0.00369741    1.884    0.469
        36 -11.8526      2.6737    249.8290   1.2942220780e+02   2.1953890461e+01    0.2725861    0.1696913  48.88  0.001638097    1.414    0.293
        37 -13.8407      9.1172    245.6777   1.2823848834e+02   2.2058367381e+01    0.7188327    0.3433585  58.25  0.003334709    1.534    0.348
        38 -11.0793    154.8340    157.6153   8.7178096243e+01   1.8854965216e+01     0.224007    0.1380441  52.74 0.0009542761    1.771    0.435
        39 -12.0333    111.8349    155.8249   9.7173313521e+01   2.7493667507e+01    0.4484828    0.2312574 -71.78  0.001575671    3.011    0.668
        40 -12.7939    211.1211    155.1252   7.4743624404e+01   8.0254887155e+00    0.4982696    0.3721851 -47.46  0.002554487    1.449    0.310
        41 -12.1104     77.3509    156.9402   1.0609646384e+02   3.2830458068e+01    0.4308646    0.2870806  30.04  0.001629621    1.746    0.427
        42 -11.9127     85.9243    152.7192   1.0319463269e+02   3.2557971224e+01    0.4782816    0.2275384 -49.98  0.001981929    2.100    0.524
        43 -11.4651    133.1015    152.7018   9.1280118943e+01   2.4241860784e+01     0.262578    0.2123581 -45.74 0.0002450443    1.245    0.197
        44 -11.8435    103.1958    150.2115   9.8279858448e+01   3.0330808665e+01     0.414392    0.2713376 -38.14  0.001806299    1.801    0.445
        45 -11.5668     24.4552    150.5490   1.1854439943e+02   4.0617887126e+01    0.2694014    0.1967413 -58.52  0.001667798    1.355    0.262
        46 -11.6239     88.7772    139.7157   1.0003238765e+02   3.5256756630e+01      0.32451    0.2548905 -12.02  0.001303785    1.771    0.435
        47 -14.6880    230.2632    129.3855   6.5417315260e+01   8.8170288817e+00     1.266682     1.062127  58.12  0.007042476    1.418    0.295
        48 -12.9323    246.1784    133.2653   6.3698309871e+01   5.1156302363e+00    0.4899718    0.3665626 -38.49  0.002720917    1.218    0.179
        49 -12.1128    133.0758    128.3600   8.5770684415e+01   2.9780458439e+01    0.8114329    0.2999282 -41.13   0.00258182    2.917    0.657
        50 -12.7985    133.5582    102.9125   7.8997950460e+01   3.5344295410e+01     1.372654    0.3623832  50.38  0.003525065    4.637    0.784
        51 -13.9994     83.3943    114.4078   9.6139940866e+01   4.2258775859e+01     2.040012     1.312725 -11.53   0.00810301    2.789    0.641
        52 -13.7446    120.1088    102.3803   8.2443309419e+01   3.8319283391e+01    0.7943768    0.3949725  39.74  0.002865579    2.153    0.536
        53 -14.7096    105.3735    121.9227   9.1598516611e+01   3.6694778502e+01     1.721041     1.081702  34.34  0.007592472    1.757    0.431
        54 -15.4013    106.1356    106.2342   8.7424555030e+01   4.0219917966e+01     1.624673     1.394505 -20.61  0.006445735    1.271    0.213
        55 -11.0988     25.6694    127.0913   1.1537837497e+02   4.6143377375e+01    0.2086672     0.147663 -53.99 0.0008471999    1.331    0.249
        56 -13.0270     28.5437    122.4296   1.1390987962e+02   4.7021524829e+01    0.3663391    0.2577121 -71.51  0.002150951    1.167    0.143
        57 -11.1992     59.5897    125.6240   1.0549314631e+02   4.2909996586e+01    0.2071286    0.1527649 -36.12  0.000650886    1.547    0.354
        58 -12.0274    182.0543    121.7538   7.2676062394e+01   2.0508619915e+01    0.4947534     0.337191  87.78  0.001900163    2.626    0.619
        59 -11.9344      4.2789    119.8073   1.2038846390e+02   4.9467862844e+01    0.4748086    0.2017331  14.78  0.002306166    3.330    0.700
        60 -14.2702     17.9806    110.9675   1.1531183391e+02   5.0642535834e+01    0.8272583    0.5818969 -47.47  0.004024865    1.381    0.276
        61 -14.2653     10.8789    101.9766   1.1614536669e+02   5.3268961033e+01    0.7750832    0.6978037 -72.25  0.004955452    1.150    0.131
        62 -13.5653      2.1929     97.1993   1.1816230871e+02   5.4896512340e+01    0.8432971    0.2057491 -71.76  0.003170302    3.252    0.692
        63 -15.0087     26.2037     94.2973   1.0991517280e+02   5.3974108962e+01     1.326118     1.117114  -4.78  0.008594366    1.437    0.304
        64 -12.0277    176.8435    110.5700   7.0889784795e+01   2.3921439073e+01    0.4717634    0.3461612 -16.51  0.002101794    1.642    0.391
        65 -12.1360    121.1749    111.9096   8.4732940889e+01   3.5963418921e+01     0.328887    0.2211308  57.37  0.001420177    1.742    0.426
        66 -11.4685     62.7205    111.2942   1.0169134992e+02   4.6011004538e+01    0.3589317    0.2169757  50.34  0.001685637    1.972    0.493
        67 -11.9129     45.1764    110.3094   1.0690582158e+02   4.8344292917e+01    0.3685496     0.290583 -65.74  0.002150639    1.094    0.086
        68 -12.6430     32.8487    110.4400   1.1072646197e+02   4.9540006052e+01    0.2784503    0.2031348 -71.10  0.001503215    1.177    0.150
        69 -12.3131     45.5331    134.5945   1.1097813944e+02   4.2366198349e+01    0.4144328    0.2952928 -65.87  0.002334261    1.196    0.164
        70 -13.7383    171.2664    243.1609   9.8648206842e+01   3.3450556467e-01    0.8069172    0.4824735  30.40  0.004604548    1.488    0.328
        71 -11.8919     43.1634     91.2530   1.0356191672e+02   5.3112156558e+01    0.7264534    0.3242618 -72.33  0.002715294    3.122    0.680
        72 -12.6908     62.5539     99.4835   9.9060850630e+01   4.8867741357e+01    0.8806787    0.5327678  68.50  0.003590561    2.908    0.656
        73 -12.8594     52.8585     97.8444   1.0183337907e+02   5.0473349608e+01    0.8685116    0.5005707  -4.24  0.003535829    3.175    0.685
        74 -12.6859     49.4268     94.3892   1.0217295501e+02   5.1689379784e+01    0.4248145    0.3681764  68.91  0.001615839    1.373    0.272
        75 -13.2489    248.9659     95.9429   5.4751371053e+01   1.0687221069e+01    0.9194771    0.2446823 -36.59  0.003106278    3.114    0.679
        76 -12.3827    249.2071     84.6418   5.2098905652e+01   1.2430630243e+01     0.535523    0.2140799 -35.73   0.00220106    2.144    0.534
        77 -13.6752    239.1070     81.6429   5.2722102236e+01   1.5005052407e+01     1.064045     0.613641 -84.23   0.00418288    3.174    0.685
        78 -13.0585    137.0446     95.7723   7.6070699504e+01   3.6089621588e+01    0.5074004    0.3890647  64.26  0.001535886    1.517    0.341
        79 -12.6897    125.3460     92.6514   7.8229854967e+01   3.9318911407e+01    0.3734113    0.2688824 -61.72  0.001564983    1.649    0.394
        80 -12.1920     90.2506     88.3548   8.7208594971e+01   4.7162628726e+01    0.4299453     0.354413  46.09  0.002193346    1.336    0.252
        81 -12.7655    149.4008     85.1569   6.9911911575e+01   3.5380127875e+01    0.6270779    0.3812093  31.60  0.002482153    2.091    0.522
        82 -12.5062    127.1298     86.0059   7.5763878357e+01   4.0308683370e+01    0.4427556    0.3914775 -26.52  0.002271598    1.126    0.112
        83 -13.0814    132.3632     85.9257   7.4362242596e+01   3.9160720902e+01    0.3960744    0.3557219  26.34  0.001585467    1.161    0.139
        84 -13.1835    135.7188     79.9883   7.1683690179e+01   3.9570867209e+01    0.8170913    0.4784507  43.28  0.003409782    1.759    0.432
        85 -13.1764    188.5430     84.1862   6.1408121029e+01   2.6143626885e+01    0.8233755    0.3768504  40.85  0.002645737    2.749    0.636
        86 -14.7001    163.3048     70.7043   6.2485157183e+01   3.4673932685e+01      2.47952      1.22824  68.54  0.008569196    2.876    0.652
        87 -13.9211    160.9322     80.6966   6.5971678299e+01   3.3464797420e+01    0.9184414     0.663857  21.84  0.003065739    1.797    0.444
        88 -14.0612    169.4194     77.1052   6.3124768496e+01   3.2050109477e+01    0.6810119    0.6217553  -3.00  0.002321088    1.191    0.161
        89 -13.7719     96.6618    238.9068   1.1234640238e+02   1.2538779965e+01    0.5890328    0.3837703  52.44  0.002691917    1.268    0.212
        90 -13.2444     55.3753     81.8224   9.6975625680e+01   5.3881183020e+01    0.5705418    0.4203738 -35.06  0.001996983    1.284    0.221
        91 -14.0047     60.8943     75.7994   9.3320491619e+01   5.4499128544e+01    0.7423443    0.4312207 -38.98  0.001137786    1.598    0.374
        92 -13.0082     69.9829     76.0326   9.0205714489e+01   5.3153267594e+01    0.4963808    0.3772351 -45.09   0.00141501    1.187    0.158
        93 -12.5106     77.1383     73.8368   8.7073775841e+01   5.2506468249e+01    0.3725281    0.3400519  17.28  0.001222524    1.156    0.135
        94 -13.2893    213.1472     78.5373   5.5706787260e+01   2.1286237084e+01     1.074201     0.666013  77.02  0.004696774    2.101    0.524
        95 -12.4235    217.9955     74.4991   5.3933429988e+01   2.0825608532e+01    0.3776983     0.282583  71.56  0.001650725    1.469    0.319
        96 -12.2947    214.7051     72.0295   5.3787165946e+01   2.1983297311e+01    0.3874004    0.3609038  -5.47  0.001833851    1.213    0.176
        97 -12.2183    114.0142     80.1025   7.7555232572e+01   4.4327301599e+01    0.4543663    0.3747005 -53.66  0.001147344    1.285    0.222
        98 -11.5787     90.7812     80.7028   8.4745103210e+01   4.8728364132e+01    0.3934914    0.2546075 -27.77  0.001771289    1.728    0.421
        99 -10.7906     32.6975     80.8947   1.0482001322e+02   5.6532599564e+01     0.192413    0.1391851 -56.92 0.0008993446    1.152    0.132
       100 -14.0548    199.1262     69.6679   5.5587532351e+01   2.6059254349e+01     1.246504    0.7014072  37.64  0.004889091    2.363    0.577
       101 -12.6794    199.8840     62.3032   5.3466195121e+01   2.7047375395e+01    0.3754414    0.3466882 -37.82  0.001139675    1.088    0.081
       102 -11.4122     42.2415     76.9973   1.0038768051e+02   5.6479502591e+01    0.2520939    0.2104829 -26.22  0.001357107    1.187    0.158
       103 -13.5578      6.0697     43.8362   1.0590983775e+02   6.6458033302e+01    0.8544164    0.4585474  27.98  0.005015538    2.306    0.566
       104 -12.3492    241.8442     71.3753   4.9921158583e+01   1.6021023111e+01    0.4606796    0.2816672 -69.09  0.002145281    2.081    0.519
       105 -13.7194    133.3803     66.0923   6.7849809339e+01   4.2690249120e+01    0.9608698    0.7432892  -2.32  0.003608961    1.558    0.358
       106 -12.6002     38.3595     68.4007   9.9500473941e+01   5.8776820238e+01    0.6446748    0.2928035  28.84   0.00303253    2.506    0.601
       107 -11.7664    100.3491     64.7192   7.6534439156e+01   5.0127996637e+01    0.4309921    0.3226379 -26.07  0.002127388    1.332    0.249
       108 -13.9877    101.1310     49.3719   7.0817276679e+01   5.2672997678e+01    0.8614641    0.7639093  65.22  0.002611485    1.361    0.265
       109 -11.6654    147.4995    239.0451   1.0261025128e+02   4.7189781812e+00    0.1631953    0.1245531 -52.34  0.001028815    1.579    0.367
       110 -13.1024    135.6204     50.2863   6.2037733278e+01   4.4777295711e+01    0.5578254    0.3438542  31.25  0.002394479    1.950    0.487
       111 -12.1296     24.8889    217.5715   1.2404059721e+02   2.5768425114e+01    0.5335262    0.2925772  82.31  0.003275769    1.568    0.362
       112 -13.6308    112.1354     40.1703   6.4276012660e+01   5.1725592583e+01    0.8844338    0.5079193  21.15   0.00357801    2.500    0.600
       113 -11.4010     14.6065    224.0696   1.2626639589e+02   2.5539946711e+01    0.3578979    0.1923193  66.27  0.001357017    1.469    0.319
       114 -14.3126    178.0675     57.4726   5.5714652650e+01   3.3177983105e+01     1.020911     0.718564 -41.36  0.002987721    1.392    0.281
       115 -12.7780     79.4551     61.1679   8.2068706103e+01   5.4672806457e+01     0.571138    0.4512328 -28.23   0.00295104    1.169    0.145
       116 -13.0260     82.4788     54.7343   7.8739974831e+01   5.5346314198e+01     0.480219     0.368157 -17.04  0.001546674    1.297    0.229
       117 -11.5196     77.7097     53.9994   8.0105594127e+01   5.6313750607e+01    0.2788239    0.2295218 -13.09 0.0007302969    1.151    0.131
       118 -12.0232     24.4825     59.7084   1.0253275856e+02   6.1909155233e+01    0.3616494    0.1930776 -47.98  0.001321605    1.462    0.316
       119 -10.8424     38.7752     60.0054   9.6864949527e+01   6.0519046432e+01    0.2003285    0.1485961 -81.41  0.001079124    2.029    0.507
       120 -13.7034     25.7527    227.4528   1.2449970451e+02   2.3733444170e+01    0.5945359     0.323873 -61.77  0.003681443    2.098    0.523
       121 -13.2896    248.1473     51.8375   4.4634797928e+01   1.7541293777e+01    0.7020963    0.4107184 -34.53   0.00362003    1.559    0.359
       122 -11.8572    230.0556     55.4876   4.7546508994e+01   2.0984205837e+01    0.4768021    0.2139513  63.94  0.002040707    2.358    0.576
       123 -13.3323     66.0254     48.9294   8.2421711293e+01   5.9142179307e+01    0.5113224    0.4915465  85.28  0.003211939    1.422    0.297
       124 -10.8310     39.2148     52.6003   9.4304510280e+01   6.1980034581e+01    0.1677527    0.1144454   2.80 0.0003310735    1.659    0.397
       125 -11.9113     24.1595     49.2626   9.9561117527e+01   6.4094964778e+01    0.3933895    0.1557584 -29.03  0.001289942    3.366    0.703
       126 -13.5048    157.9690     44.1084   5.5309292180e+01   4.0192899931e+01     0.786042    0.5983442  26.58  0.003502514    1.533    0.348
       127 -13.4352     20.5888    225.3642   1.2528864660e+02   2.4681043079e+01     0.430058    0.3141683  89.66  0.002450775    1.190    0.160
       128 -11.7888     40.1960    243.5620   1.2297634021e+02   1.9097591430e+01    0.2540089    0.1359181  87.84   0.00158188    1.759    0.431
       129 -15.1580    212.5676     41.1049   4.6071836617e+01   2.7068198410e+01     2.766937    0.8126633  71.48  0.008324006    4.572    0.781
       130 -13.1193     66.5657    223.1574   1.1659294634e+02   1.9697882094e+01    0.6393116     0.567203  36.56  0.004504826    1.407    0.289
       131 -12.8353     95.1549    218.3897   1.1041663915e+02   1.6606138536e+01    0.4618722     0.198927  41.29  0.002169428    2.031    0.508
       132 -12.6514     76.0400     37.4200   7.4261871957e+01   5.9408319793e+01     0.345782    0.2480071  36.82 0.0009814946    1.399    0.285
       133 -12.3365     69.7122     36.7319   7.6239752333e+01   6.0609958736e+01    0.4401204    0.2242627  33.92 0.0009650664    2.031    0.508
       134 -13.7828    241.7851     34.5300   4.1299192380e+01   2.1245704386e+01    0.8536668    0.6101938  83.20  0.003083885    1.417    0.294
       135 -11.3220    104.4893     37.0078   6.5164266723e+01   5.3852383721e+01    0.2164309    0.1347552 -28.88  0.001039927    1.611    0.379
       136 -12.1711    185.8495    213.5237   9.1236613385e+01   2.5307861294e+00    0.2009179    0.1931477 -84.46  0.001304317    1.357    0.263
       137 -13.0695      9.0554    210.9553   1.2653492478e+02   2.8676102275e+01    0.6216013     0.424041  40.79  0.004420165    1.588    0.370
       138 -11.2202    136.7236    211.3790   1.0088972407e+02   1.1303358981e+01    0.2214944    0.1648189 -71.33 0.0009297439    1.634    0.388
       139 -12.3006     46.1962     33.8715   8.4337019987e+01   6.4595682539e+01    0.4710408    0.2834696 -27.80  0.002585111    1.498    0.332
       140 -13.8165     63.0783    214.6486   1.1648859479e+02   2.1861703335e+01    0.6895624    0.4114315  63.47  0.003957137    1.528    0.346
       141 -12.1040     41.8678    206.9573   1.2002506130e+02   2.6069486495e+01    0.2636689     0.131443  85.80  0.001353874    2.063    0.515
       142 -12.8167      2.0184     21.6765   1.0056575476e+02   7.0907737283e+01    0.2636301    0.1392159 -52.58    0.0011461    1.617    0.382
       143 -11.0213    150.7704    206.9713   9.7272621913e+01   9.7153729133e+00    0.2600808    0.1649507  27.82  0.001289295    1.686    0.407
       144 -12.4305     57.3272    203.2085   1.1655851247e+02   2.4987459271e+01    0.4729159    0.2300135 -85.76  0.002259496    2.293    0.564
       145 -12.7550     16.7182    195.7466   1.2414891393e+02   3.1107632963e+01    0.8726664    0.2275816 -69.53   0.00381725    3.044    0.671
       146 -13.4211     30.0462    169.2915   1.1915134432e+02   3.5686639857e+01    0.7023206    0.4934575 -55.12  0.001933257    1.554    0.356
       147 -10.8760     89.1596     30.1803   6.6952422581e+01   5.7982447384e+01    0.1992239    0.1618152  14.72  0.000262196    1.154    0.133
       148 -11.5575     38.4455     29.9906   8.6082010372e+01   6.6213359415e+01    0.1816484     0.103455 -37.62 0.0003404932    1.511    0.338
       149 -12.8921     56.3381     27.4929   7.7403046447e+01   6.4171648926e+01     0.585416    0.2894415  43.05  0.001998668    2.256    0.557
       150 -12.8354     67.9132     24.6627   7.1721360032e+01   6.2694051815e+01    0.6436917    0.3247924  40.78  0.003161841    1.941    0.485
       151 -11.7009     58.6339     35.3250   7.9856431005e+01   6.2603611067e+01    0.4657107    0.2166401  35.52  0.002178288    2.231    0.552
       152 -11.0005     97.9229     27.1501   6.3114519501e+01   5.6575800663e+01    0.1982632    0.1909517  71.25  0.001223276    1.264    0.209
       153 -13.5782     22.5024    180.8522   1.2184918095e+02   3.3803069199e+01    0.6964179    0.4034085 -59.23  0.003433776    1.774    0.436
       154 -12.0877     46.4235     21.0779   7.8600757854e+01   6.6564657907e+01    0.3298314     0.223588 -18.81  0.001150537    1.294    0.227
       155 -14.7478      8.3651    183.5034   1.2498589371e+02   3.4513201510e+01     1.013734    0.8412812  79.05  0.007552167    1.150    0.131
       156 -14.9015     16.1591    175.7811   1.2279366634e+02   3.5532941262e+01     2.105495    0.9699233  63.93   0.01032964    2.156    0.536
       157 -10.3920    212.3298    200.3400   8.3755438844e+01   1.5745045552e-01    0.1403464    0.0931986   3.45 0.0006753509    1.740    0.425
       158 -12.9512    164.3102    194.4271   9.2294830800e+01   9.6428398808e+00    0.6247434    0.3253155 -57.04  0.002626648    2.566    0.610
       159 -10.8732     54.1345     19.9160   7.4841021198e+01   6.5593622436e+01    0.1968771    0.1285336   4.92 0.0006617755    1.590    0.371
       160 -12.6314     40.4933    195.2084   1.1929827957e+02   2.8736839265e+01    0.4026254    0.1679594 -88.82  0.001736981    2.824    0.646
       161 -12.4116    201.0741    192.1207   8.4364398468e+01   3.4267717587e+00    0.3678421    0.2709174 -19.64  0.001379404    1.397    0.284
       162 -12.1598    169.9394     43.5941   5.2990146083e+01   3.7258695368e+01    0.3617289    0.2391389  50.15  0.001437913    1.508    0.337
       163 -11.7540     49.0225    181.5005   1.1612612572e+02   3.0795907674e+01    0.3685941    0.2156177 -54.80  0.001967445    1.839    0.456
       164 -13.3562    197.2054    179.7783   8.2702944762e+01   6.2559890281e+00    0.6998459     0.450197 -68.43  0.002776089    3.277    0.695
       165 -10.3310     55.4979     41.3955   8.3564306782e+01   6.2042438196e+01    0.1314303      0.10957 -12.50 0.0001278652    1.036    0.035
       166 -12.3965     85.2981    180.4920   1.0771855649e+02   2.6136288488e+01    0.2987857    0.1968412  80.80  0.001482784    1.741    0.426
       167 -12.3910    130.6207    173.5973   9.5984794080e+01   2.0068858401e+01    0.2946781    0.2601437  71.60  0.001623211    1.174    0.148
       168 -13.1307    124.6059    167.8147   9.6330281017e+01   2.2445724789e+01    0.6600112     0.274579 -50.35  0.002503064    2.421    0.587
