#   1 NUMBER                 Running object number                                     
#   2 MAG_AUTO               Kron-like elliptical aperture magnitude                    [mag]
#   3 X_IMAGE                Object position along x                                    [pixel]
#   4 Y_IMAGE                Object position along y                                    [pixel]
#   5 X_WORLD                Barycenter position along world x axis                     [deg]
#   6 Y_WORLD                Barycenter position along world y axis                     [deg]
#   7 A_WORLD                Profile RMS along major axis (world units)                 [deg]
#   8 B_WORLD                Profile RMS along minor axis (world units)                 [deg]
#   9 THETA_WORLD            Position angle (CCW/world-x)                               [deg]
#  10 FWHM_WORLD             FWHM assuming a gaussian core                              [deg]
#  11 ELONGATION             A_IMAGE/B_IMAGE                                           
#  12 ELLIPTICITY            1 - B_IMAGE/A_IMAGE                                       
         1 -14.2009     54.4835    147.1860   1.0349705009e+02   3.8680922770e+01     7.151031     4.475852  59.70   0.03383268    1.803    0.445
         2 -13.2620    200.3327     42.3629   4.2117053060e+01   3.0302616968e+01      1.05363    0.9716266 -62.74  0.003247844    1.155    0.134
         3 -13.5770    210.6057     32.6127   3.8663907106e+01   2.9271747365e+01    0.9112657    0.8219314  -5.37   0.00166297    1.569    0.363
         4 -12.8394    236.1190      6.6814   3.0971802679e+01   2.6892579149e+01    0.8166482     0.607948 -78.04  0.005185469    1.069    0.064
         5 -10.1146     44.4938      5.9950   6.5105571447e+01   6.8741151651e+01    0.1664672    0.1057006 -22.62 0.0006270279    1.576    0.366
         6 -10.6846    191.6490    192.2919   7.7629290099e+01   4.8544905046e+00     0.549889    0.3044764 -63.61  0.002033843    3.646    0.726
         7 -10.7941    139.8822    249.8176   9.7551086170e+01   2.8561594786e+00    0.3160343    0.1940767  49.54   0.00173534    1.600    0.375
         8 -10.8632    129.1708    248.8744   9.9619476174e+01   4.6351432281e+00    0.2922029     0.246251  23.30  0.001839253    1.197    0.165
         9 -11.4848    125.9090    244.9739   9.9808555512e+01   5.8229867321e+00    0.5552488    0.2969984 -52.86    0.0028699    2.168    0.539
        10  -9.9183    102.0000    249.0639   1.0521387236e+02   8.6443157380e+00    0.2329315    0.1865627 -73.67 0.0007163182    1.421    0.296
        11 -11.9443    101.1529    242.9200   1.0471846084e+02   9.9233909500e+00     0.870947    0.5447703  86.27  0.001794937    2.165    0.538
        12 -12.8162     54.6047    185.9853   1.0875906583e+02   2.8989336231e+01     2.179877     1.216638  82.57    0.0098559    2.102    0.524
        13 -10.5496    203.3376    199.8908   7.6723139227e+01   1.5483381423e+00     0.235958    0.1811653  41.33  0.001346705    1.401    0.286
        14 -10.6043    122.3199    198.6810   9.4074861480e+01   1.5672823185e+01    0.3764296    0.2647046 -75.02  0.001357753    1.720    0.419
        15 -10.4686    111.2858    197.4264   9.6486665844e+01   1.7812732822e+01    0.3560793    0.2127509  16.00  0.001427262    2.675    0.626
        16 -10.9898    107.5235    204.0070   9.8358524812e+01   1.6966356317e+01    0.3508154    0.2025895 -61.99  0.001638452    1.856    0.461
        17 -14.1298     40.8778    195.1383   1.1303745684e+02   2.8483258651e+01     4.282705     1.583096  67.06   0.01045554    4.837    0.793
        18 -10.4914    147.3203    187.3447   8.6305624338e+01   1.3721530991e+01    0.6871712    0.3997972 -77.23  0.002371855    3.689    0.729
        19  -9.6755    118.3371    191.0027   9.3777436246e+01   1.8064048301e+01    0.2030205    0.1833695 -73.04  0.001117972    1.144    0.126
        20 -17.1021     14.3331    242.5847   1.2200650059e+02   2.1074781452e+01     6.283393     2.265861  25.34   0.02654535    4.279    0.766
        21  -8.8959     79.5584    182.2517   1.0201948808e+02   2.6425494308e+01    0.3093951    0.1879116 -89.09  0.001358334    2.038    0.509
        22  -8.3385     82.5604    182.4574   1.0128957993e+02   2.5922110143e+01    0.1430289    0.1295349  77.38 0.0001494531    1.011    0.011
        23  -9.9086     99.3340    180.7360   9.6782184802e+01   2.3668384681e+01    0.2506817    0.2481698  -6.62 0.0005795681    1.145    0.127
        24 -10.9686     41.4574    177.3221   1.1104340810e+02   3.2696892842e+01    0.6688426    0.4064872 -28.02   0.00160124    2.905    0.656
        25 -16.1434      7.6347    203.1485   1.2108340847e+02   3.0092704298e+01     14.58974     1.256931 -76.44   0.01448825    9.744    0.897
        26 -10.6087    110.9651    203.2089   9.7435273154e+01   1.6579843106e+01    0.3002568    0.2209774  69.56 0.0006960432    1.518    0.341
        27  -8.1942     88.6611    178.7394   9.9176328695e+01   2.5875013624e+01    0.1369434    0.1148447 -14.00 0.0006965399    1.585    0.369
        28 -10.4345    186.8440    174.9917   7.5256483918e+01   9.0135824853e+00    0.3856543    0.3024141 -52.52  0.001101559    1.371    0.271
        29 -10.8171    120.1365    245.3053   1.0104581473e+02   6.6382285278e+00    0.3208582    0.2410511  67.02  0.001406605    1.479    0.324
        30 -11.4010     72.8798    166.9751   1.0148044593e+02   3.1173610786e+01    0.3778562    0.3070192 -57.03  0.001600194    1.240    0.194
        31  -8.9677     34.5120    171.5718   1.1216903980e+02   3.4881717877e+01    0.2660418    0.1408876  61.06  0.001149961    2.006    0.502
        32 -10.7905    240.9220    170.0239   6.4243661158e+01   7.0821898181e-01    0.3388226    0.1913265 -59.87  0.001415304    3.236    0.691
        33  -9.0412    110.7134    167.9130   9.1659560913e+01   2.4790349732e+01    0.2132166    0.1918905 -74.43 0.0004778321    1.109    0.098
        34  -9.0126     80.4902    167.5101   9.9532799368e+01   2.9903368468e+01    0.1450905    0.1354166  89.58 0.0008104012    1.025    0.024
        35  -8.4610    120.4818    165.5598   8.8715264404e+01   2.3585163371e+01    0.1513306    0.1433764  72.50 0.0001357437    1.038    0.037
        36 -11.6237     88.5345    152.0582   9.4656940153e+01   3.2487331880e+01    0.6940313    0.4763128 -22.73  0.002985458    2.190    0.543
        37 -10.6425    133.7326    145.1999   8.1129317591e+01   2.5832877926e+01     1.248239    0.3319119 -55.29  0.002969008    5.408    0.815
        38  -8.9392    111.5523    149.6792   8.7884314156e+01   2.9050597432e+01    0.3581786     0.214839  68.78  0.001318763    2.610    0.617
        39  -9.2564    174.7146    149.0480   7.2371255617e+01   1.6643587703e+01    0.2176947    0.1899969 -43.42 0.0005305894    1.111    0.100
        40 -12.0857     81.2058    158.8763   9.7904686871e+01   3.1948137416e+01     1.023539     0.578104  65.15 0.0007597546    2.422    0.587
        41 -10.2741    102.0015    138.6599   8.8187399261e+01   3.3492677397e+01    0.5312754    0.3709899 -15.54  0.002202173    2.236    0.553
        42 -10.1613    106.0193    131.0846   8.5376930163e+01   3.4600054217e+01    0.4488546    0.3176251 -58.38  0.001643963    1.411    0.291
        43 -11.5861     89.7190    137.7914   9.1510787028e+01   3.5855020045e+01    0.2960471    0.2670413 -48.47 0.0004966186    1.118    0.106
        44 -11.2188     28.0574    129.6488   1.0868555466e+02   4.6008648341e+01    0.3259032    0.2882382  64.63  0.002029626    1.201    0.167
        45  -9.6061    111.5406    129.3112   8.3419014441e+01   3.3976731452e+01    0.2900484    0.2631312  -3.24 0.0008708736    1.265    0.209
        46 -12.8753     69.5328    153.6602   1.0026288855e+02   3.5006214349e+01    0.6634546    0.4249502 -53.92  0.001436234    1.513    0.339
        47  -9.9843    135.4183    128.5572   7.6866893533e+01   2.9331790599e+01    0.4277007    0.1908203 -50.80  0.001381168    2.268    0.559
        48 -13.9854     68.7374    144.3912   9.8892489140e+01   3.7468206049e+01     2.963156     1.492004  70.38  0.009251473    4.179    0.761
        49 -10.1433     98.7724    125.0266   8.6064812407e+01   3.7406004819e+01     0.330125     0.262116 -18.86  0.001568778    1.573    0.364
        50  -9.2132     67.2902    124.9411   9.5603581690e+01   4.2578935801e+01    0.2123233    0.1842836 -62.42  0.001155342    1.072    0.067
        51  -9.5982    117.8806    123.2473   8.0221271259e+01   3.4163198202e+01    0.4161499    0.1866059  32.27  0.001370432    2.942    0.660
        52  -8.7850    163.4398    121.1848   6.8383180587e+01   2.4919677758e+01    0.2224634    0.1415672 -56.06 0.0009398129    1.688    0.408
        53  -9.1419     87.0614    120.5153   8.8513518017e+01   4.0566143061e+01    0.3377446    0.2257116  80.91   0.00137312    2.312    0.567
        54  -9.1764    135.0000    119.9972   7.4879911740e+01   3.1358430611e+01    0.2603489   0.08797844 -46.73 0.0007143968    2.917    0.657
        55 -11.5914     33.3714    118.3935   1.0522799110e+02   4.8310551017e+01    0.4094335    0.2725297 -55.64  0.001604887    1.315    0.240
        56  -9.3074    107.8500    118.2025   8.1798017072e+01   3.7327063233e+01    0.2183286    0.2046081  78.85 0.0002928101    1.107    0.097
        57 -10.1923     44.8965    118.0950   1.0141575707e+02   4.7168955581e+01    0.2095025    0.1817729  84.06 0.0004301514    1.216    0.178
        58  -9.9120    231.2646    113.8232   5.4197524308e+01   1.2161804679e+01    0.2605506    0.2392777 -42.44 0.0007647849    1.077    0.071
        59 -10.7282     40.2236    113.3017   1.0205161469e+02   4.8869247239e+01    0.3558836    0.1607101 -72.92   0.00139504    2.529    0.605
        60  -9.7468    135.0000    112.0587   7.2865594156e+01   3.3120826894e+01    0.4403633    0.0877856 -45.58  0.001053494    4.954    0.798
        61 -10.9489     33.4868    108.8746   1.0348926892e+02   5.0641897162e+01    0.3819623    0.2122623 -71.38  0.001810309    1.762    0.432
        62  -9.3468    205.5927    110.1353   5.7471147762e+01   1.7980960230e+01     0.257484    0.2116536  45.37  0.000678638    1.356    0.262
        63 -10.6351    115.8267    108.1919   7.6982058215e+01   3.8037453205e+01    0.3834058    0.2772394  -6.54  0.001608652    2.112    0.527
        64 -11.1681     41.7454    103.9561   9.9668448896e+01   5.0983256133e+01    0.3812352     0.294905  50.90  0.001347665    1.490    0.329
        65  -8.7660    137.5239    104.4431   7.0232538072e+01   3.4212870816e+01    0.1546343    0.1484466 -85.31 0.0002796772    1.041    0.040
        66 -10.7622    135.5902    211.4074   9.3037570862e+01   1.0731667438e+01    0.2977675     0.235075  -6.19  0.001582379    1.622    0.384
        67 -10.7121    241.3280    101.8888   5.0228099489e+01   1.2299064329e+01     0.221279    0.1812494 -87.72  0.001330494    1.371    0.271
        68 -11.1212     32.5768     99.7700   1.0203458242e+02   5.2928408326e+01    0.4449439    0.1851065  32.15  0.001935905    2.574    0.611
        69  -8.5763    124.6661     92.7655   7.0356155084e+01   3.9494721881e+01    0.2139872    0.1388083 -51.63 0.0005434698    1.600    0.375
        70 -11.4057     68.6974    171.4833   1.0326474269e+02   3.0651441313e+01    0.4709309     0.303942 -33.78  0.002126072    2.209    0.547
        71  -9.9360     14.7479     89.5043   1.0652241781e+02   5.6821553310e+01    0.2646451    0.1185363  23.50 0.0009733778    2.509    0.601
        72  -8.9476     74.9174     85.1815   8.3325336799e+01   5.0787050241e+01    0.2036457     0.192309  76.60 0.0004233842    1.214    0.176
        73  -8.5873    158.7023     83.3026   5.9622174097e+01   3.3562291679e+01    0.1521948    0.1145432 -77.25 0.0002723742    1.582    0.368
        74  -8.3910    150.8462     82.8255   6.1183468638e+01   3.5492852974e+01    0.2035693    0.1709447 -84.74 0.0004016592    1.304    0.233
        75  -9.5700    112.6839     82.3022   7.0610604139e+01   4.4203202088e+01    0.4666457    0.2698998  69.44   0.00165608    3.067    0.674
        76  -8.7751     70.0589     81.8477   8.4050696845e+01   5.2289482334e+01    0.2012679    0.1877948  77.17 0.0004759608    1.265    0.209
        77  -9.0509     55.8192     66.1416   8.4537688363e+01   5.7680153691e+01    0.1853543    0.1759237 -39.35 0.0003093527    1.150    0.130
        78 -12.7597    189.8121     50.3147   4.5459667664e+01   3.1620012218e+01     0.917145     0.657913  56.07  0.001283015    1.454    0.312
        79 -11.9329    113.4949    245.1009   1.0239928949e+02   7.6760746076e+00    0.6654902    0.5011496  70.36  0.004013136    1.469    0.319
        80  -9.8409     92.6562    249.2369   1.0713954759e+02   9.9622373308e+00    0.3020662    0.1412497  35.87  0.001097081    1.883    0.469
        81  -8.9433     88.9794    210.4207   1.0354260872e+02   1.8456447130e+01    0.1917493    0.1696212  89.72 0.0001285829    1.117    0.105
        82  -8.8677    198.1827     23.7892   3.7934980278e+01   3.3178663611e+01    0.1595528    0.1491534  57.23 0.0006825125    1.329    0.248
        83  -9.6319    142.6813    208.9206   9.1059412032e+01   1.0039114826e+01    0.1902016    0.1829942 -60.46 0.0009452971    1.132    0.116
        84  -8.6763    189.5979     15.1497   3.6776796394e+01   3.6148402661e+01    0.1543413     0.124707 -17.42 0.0006024932    1.647    0.393
        85 -11.0480    194.8616    198.5312   7.8143051287e+01   3.1732332226e+00     0.349813    0.2630329 -60.86  0.001864024    1.777    0.437
