#   1 NUMBER                 Running object number                                     
#   2 MAG_AUTO               Kron-like elliptical aperture magnitude                    [mag]
#   3 X_IMAGE                Object position along x                                    [pixel]
#   4 Y_IMAGE                Object position along y                                    [pixel]
#   5 X_WORLD                Barycenter position along world x axis                     [deg]
#   6 Y_WORLD                Barycenter position along world y axis                     [deg]
#   7 A_WORLD                Profile RMS along major axis (world units)                 [deg]
#   8 B_WORLD                Profile RMS along minor axis (world units)                 [deg]
#   9 THETA_WORLD            Position angle (CCW/world-x)                               [deg]
#  10 FWHM_WORLD             FWHM assuming a gaussian core                              [deg]
#  11 ELONGATION             A_IMAGE/B_IMAGE                                           
#  12 ELLIPTICITY            1 - B_IMAGE/A_IMAGE                                       
         1 -11.7925     76.6552     22.0174   7.4070154493e+01   6.1571521128e+01    0.5976498    0.3616018 -31.00  0.002453798    1.571    0.363
         2 -11.2893     42.8426     18.1357   8.5513118036e+01   6.7334568488e+01    0.5448792    0.2499196 -26.06  0.002458928    2.197    0.545
         3 -11.9365     34.8182     13.0364   8.6712079689e+01   6.9081227790e+01    0.5031236    0.2439567 -47.43  0.002497081    2.532    0.605
         4 -11.8201     30.0678      7.1987   8.6057311953e+01   7.0480713797e+01    0.3825456    0.3053174  24.88  0.002214818    1.490    0.329
         5 -10.1094     22.4162      9.4801   9.1007683885e+01   7.0947216972e+01    0.3246223    0.1988582 -11.43  0.001712735    1.559    0.358
         6 -10.2755     23.7829      5.0231   8.8065494391e+01   7.1474766301e+01    0.1887332    0.1210858 -32.46            0    1.299    0.230
         7  -9.5648     26.5457     16.0188   9.2058786722e+01   6.9511187653e+01    0.2612246    0.1375893 -44.43  0.001480147    1.720    0.419
         8 -10.9630     13.8819     16.1025   9.8382516543e+01   7.0612769425e+01    0.2734383    0.1737242  20.37  0.001061257    1.798    0.444
         9 -11.6347    234.6234     14.9612   4.2099873501e+01   2.4394493258e+01    0.2884697    0.2197434  82.50 0.0001071258    1.268    0.211
        10 -10.2998     88.7110      7.4176   6.3555748420e+01   6.0981277731e+01    0.2767961    0.1940075 -19.79  0.001132353    1.406    0.289
        11 -11.4871     89.4737     14.0311   6.6338431956e+01   6.0114880281e+01    0.3895919    0.3279017 -43.46  0.001279451    1.491    0.329
        12 -10.3781     93.0947      8.8206   6.2943831425e+01   5.9931881192e+01    0.3800367    0.1958821  -9.80  0.001533249    2.174    0.540
        13  -9.7353    203.0340     11.9408   4.4456984127e+01   3.2501753012e+01    0.1642342    0.1493461 -83.45 0.0003789819    1.006    0.006
        14 -10.3348    125.9878     11.0258   5.5895024693e+01   5.2264413744e+01    0.1694091    0.1454654  46.46 0.0003308915    1.065    0.061
        15 -10.2882     14.8623      9.2162   9.4780634734e+01   7.1671931200e+01    0.2985713    0.1200161 -25.60 0.0007967582    2.827    0.646
        16 -10.9713     40.5971      7.3964   8.1220491199e+01   6.9164084122e+01    0.3536138    0.1939548 -16.90  0.000621277    1.761    0.432
        17  -9.6266      4.1408     10.1196   1.0091851198e+02   7.2312387539e+01    0.1662951    0.1050672 -33.20 0.0003849323    1.149    0.129
        18 -11.7205    152.2579      9.4171   5.0464507539e+01   4.5860353140e+01    0.4146247    0.3239255 -82.24  0.002215681    1.449    0.310
        19 -12.0427     17.9716      3.0153   9.0046297758e+01   7.2343538433e+01    0.4148715    0.2158423  14.61  0.001079472    2.108    0.526
        20  -9.9765    210.5034      7.5006   4.2471373043e+01   3.1078563063e+01    0.1350662    0.1215788 -81.81 8.720433e-06    1.007    0.007
        21 -10.9778     70.8430      5.7906   6.8414539612e+01   6.4601261938e+01    0.3190018    0.2394634 -20.58  0.001562272    1.299    0.230
        22  -9.7487     64.9753      6.7270   7.0952061867e+01   6.5534340152e+01    0.1778416    0.1415377  12.53 0.0004418675    1.058    0.055
        23  -9.4422     11.1817      7.0439   9.5708245858e+01   7.2316819834e+01    0.1487254    0.1360925 -57.61  0.001132121    1.734    0.423
        24  -9.5324      7.0903      5.0000   9.6969584114e+01   7.2952238888e+01    0.1897785   0.07415919  27.01  0.001028806    2.926    0.658
        25 -11.7877     57.2820      3.0041   7.1928370410e+01   6.7240609099e+01    0.4001555     0.257855   1.08  0.002338679    1.462    0.316
        26 -10.6490      2.1910      5.7243   1.0004256595e+02   7.3168598785e+01    0.2920922    0.1754072 -48.03   0.00176916    1.464    0.317
        27 -10.3953    194.0000      4.9762   4.3494252310e+01   3.5506462710e+01    0.2108219   0.07793643 -23.20 0.0004566504    2.911    0.657
        28 -10.0207    235.5836      4.2226   3.9413564187e+01   2.5328788385e+01    0.1675333    0.1248054 -12.87  0.000947687    1.668    0.400
        29 -11.0209    130.2926      3.3757   5.2099680096e+01   5.1914491534e+01    0.2491657    0.2201272  69.57 0.0007382588    1.164    0.141
        30  -9.9304    120.8724      3.9509   5.4170367317e+01   5.4141918378e+01    0.2121322    0.1581566  32.61 0.0004028154    1.248    0.199
        31 -10.7624    174.1812      2.6101   4.5110692803e+01   4.0828747058e+01    0.4570273    0.1587162  60.99  0.001774014    2.381    0.580
        32 -10.5172     90.6974      2.7417   6.0841928916e+01   6.1021203913e+01    0.2624355    0.2038682  70.45  0.001513025    1.651    0.394
        33  -9.7159    100.9962      2.2891   5.7954099474e+01   5.8850414994e+01    0.1911289    0.1536316  43.70 0.0006645023    1.131    0.116
        34 -11.2115     80.0596      1.7417   6.3449901071e+01   6.3268846942e+01    0.3087787    0.1609825  47.79  0.001519559    1.755    0.430
        35 -10.2756     10.0509      1.8206   9.3745085798e+01   7.3218511958e+01    0.1704296     0.120318 -21.46 0.0007039934    1.038    0.037
        36  -9.9559    187.0451      1.3538   4.3218991184e+01   3.7626498049e+01     0.198332    0.1190605  74.81            0    1.537    0.349
        37  -9.4787    153.9389      1.1754   4.7388881932e+01   4.6163453087e+01    0.1885192   0.09571543  69.01 0.0004846836    1.811    0.448
        38  -9.7479     67.0807      1.5042   6.7559294846e+01   6.5725881805e+01    0.1726343    0.1118168  42.16 0.0003819143    1.482    0.325
        39 -10.2983     22.5346    142.9217   1.2261990551e+02   4.2547742012e+01    0.2318672   0.08879143 -68.25 0.0006727296    2.031    0.508
        40 -11.8430     17.8463    249.0190   1.3071070456e+02   2.1936062922e+01    0.3623144    0.1916868  27.79   0.00217688    3.349    0.701
        41 -10.8515      1.7820    239.5091   1.3270978796e+02   2.5112328683e+01    0.2495375    0.1184479  71.00  0.001768278    1.526    0.345
        42 -11.0366      1.5927    226.1283   1.3220704728e+02   2.7454220190e+01    0.2826752   0.08826595  88.17  0.001442463    3.017    0.669
        43 -11.4697      2.7520    248.7884   1.3291310384e+02   2.3472716904e+01    0.3664449     0.186803  54.31  0.002804542    1.422    0.297
        44 -11.8680      9.1737    245.1923   1.3183723641e+02   2.3445108283e+01    0.3992615    0.1966435  27.60   0.00231801    3.684    0.729
        45 -11.8104      6.4524    241.3177   1.3208556010e+02   2.4361101974e+01    0.3781551    0.2081494 -53.44  0.002403453    3.359    0.702
        46 -12.0966      4.2607    232.6379   1.3206414738e+02   2.6059921499e+01    0.2910114    0.1357159  60.81  0.002023205    1.546    0.353
        47 -12.4961      9.8501    228.3676   1.3101096114e+02   2.6276541466e+01    0.3994214    0.2412135  84.14  0.001220327    1.255    0.203
        48 -10.0752     11.9836    141.3082   1.2492276715e+02   4.3780287974e+01    0.1604372    0.1258452 -87.87  0.000501915    1.045    0.043
        49  -9.2199    236.3587    139.3099   7.2872497780e+01   5.5813826771e+00    0.1503928    0.1031278   9.72 0.0006841951    1.737    0.424
        50 -10.5707    213.4421    134.4169   7.5864344330e+01   1.1134396316e+01    0.4578227    0.2725873  69.09  0.001716335    3.005    0.667
        51 -11.0572      2.3692    132.8446   1.2640024281e+02   4.6366066083e+01    0.3008929    0.1661587  55.53  0.001771701    1.881    0.468
        52  -9.6590     35.2211    130.8550   1.1807870027e+02   4.4159583038e+01    0.1710729    0.1233483 -56.00 0.0005149005    1.344    0.256
        53 -11.2507     11.4747    129.5910   1.2389823810e+02   4.6463542324e+01    0.3380722    0.1756571  42.72  0.001962173    2.106    0.525
        54 -10.6339    248.4958    129.4890   6.8580275817e+01   4.7386843668e+00    0.1411153     0.123581 -15.61  0.000810563    1.009    0.009
        55  -9.4623     20.4569    125.4226   1.2117957768e+02   4.6727795400e+01    0.1220525   0.09516035 -84.18 -6.362218e-05    1.058    0.055
        56 -11.0707     20.0030    112.7181   1.1968442482e+02   4.9700168848e+01     0.179586    0.1375189  89.91 0.0003198142    1.200    0.167
        57 -12.3085     23.4010    121.1223   1.1987880953e+02   4.7482469045e+01    0.6048903    0.2890478  70.02   0.00232265    2.882    0.653
        58 -10.0695      7.9329    121.1283   1.2389632483e+02   4.8635475250e+01    0.1754332    0.1264462  84.09 0.0003434731    1.243    0.195
        59 -10.0374     72.1354    112.9839   1.0494235275e+02   4.4059414331e+01    0.2044687    0.1797107 -64.93 0.0003660543    1.011    0.011
        60 -11.0934     65.7799    110.8638   1.0633241116e+02   4.5422153934e+01    0.3085259    0.2392867  87.11 0.0009512431    1.442    0.306
        61 -11.8705      4.3960    108.8290   1.2345793396e+02   5.1656347340e+01    0.3691184    0.2521684   1.85  0.002396823    2.144    0.534
        62 -10.6051     17.9795    121.9950   1.2140816186e+02   4.7712704864e+01    0.1779772    0.1392966 -75.40  0.001201802    1.033    0.032
        63 -11.3385     56.8642    108.2051   1.0839463733e+02   4.7170739850e+01    0.2665327    0.2250432   7.23  0.001562434    1.501    0.334
        64  -9.9590     40.1936    106.8369   1.1302989129e+02   4.9312349026e+01    0.1748504    0.1309297 -47.78 0.0003763054    1.300    0.231
        65 -10.1881     52.3906    105.1667   1.0911394298e+02   4.8410152739e+01    0.1936767    0.1140286 -72.37 0.0009427835    1.692    0.409
        66  -9.6453    187.0131    103.2820   7.3152028998e+01   2.2825095235e+01    0.2173207    0.1972949  51.89 0.0005348292    1.139    0.122
        67  -9.9248     66.6640    102.2897   1.0422998711e+02   4.7322739950e+01    0.1365342    0.1033805  79.01 0.0003388509    1.635    0.389
        68 -10.3418     61.9977     97.9798   1.0467836034e+02   4.8937147043e+01    0.2267642    0.1489556 -35.13   0.00113795    1.693    0.409
        69  -9.9426    100.8960     96.5616   9.2620717730e+01   4.3244668165e+01    0.2530192    0.2048823 -67.25  0.001281666    1.345    0.257
        70 -10.4191      3.3493     95.6156   1.2212122388e+02   5.4712492696e+01    0.2106004    0.1502188 -61.48 0.0004722538    1.147    0.128
        71 -11.0094     78.7673     94.9237   9.8788505702e+01   4.7307754503e+01    0.2267519    0.2166831 -29.08 0.0002154904    1.100    0.091
        72 -11.2208     17.7722     94.9363   1.1771936667e+02   5.3967907141e+01     0.231177    0.1683313  46.35 0.0009692315    1.658    0.397
        73 -10.1649    119.4342     94.4731   8.6802280469e+01   4.0108518723e+01    0.1530826    0.1455309 -39.14  9.20369e-05    1.008    0.008
        74 -11.5440     10.8271     91.1921   1.1925286251e+02   5.5280579339e+01     0.362484    0.1680813 -67.28 0.0003503502    1.614    0.380
        75 -10.2407     11.4041     85.1948   1.1811994139e+02   5.6604799335e+01    0.2197011    0.1262695 -76.17 0.0006819154    1.515    0.340
        76  -9.6908    125.0183     93.2977   8.4947908320e+01   3.9193180975e+01    0.2111727    0.1964893  44.05 0.0001851124    1.116    0.104
        77 -10.2910     38.9695     85.9535   1.0932243254e+02   5.4284766981e+01    0.3101523    0.1783821 -85.71  0.001413199    2.518    0.603
        78 -10.9563     57.3362     92.0263   1.0476496144e+02   5.0896741101e+01    0.2629234    0.1906684  12.29 0.0009735879    1.777    0.437
        79  -9.9286     29.4720     92.0542   1.1360370024e+02   5.3733210573e+01    0.2477525    0.1610791  48.02  0.001037652    1.878    0.468
        80 -10.2836     24.8085     89.8833   1.1467518612e+02   5.4608575538e+01    0.2518167    0.1595275 -73.22  0.001450766    1.391    0.281
        81 -10.1575     76.4938     89.0403   9.7961690270e+01   4.8988095649e+01    0.2384009    0.1982331  -3.49 0.0006675458    1.423    0.297
        82 -10.0144     64.9426     88.4923   1.0148192352e+02   5.0742355750e+01     0.224499    0.1620084 -53.35 0.0006061782    1.206    0.171
        83 -10.5067     18.4473     87.4967   1.1626854044e+02   5.5622464386e+01     0.347758    0.2024043 -52.28  0.001568074    1.413    0.292
        84  -9.3262    150.0408     88.0186   7.7011069980e+01   3.4639340415e+01    0.1875782    0.1825063  31.66 0.0004198152    1.040    0.039
        85 -10.9512    124.4999     82.8430   8.1969216933e+01   4.1478916321e+01    0.6888705    0.2640257 -39.67  0.001770862    2.561    0.610
        86 -10.8450     54.7523     84.3335   1.0375054046e+02   5.2966959308e+01    0.2959706    0.1913937 -58.03 0.0008355018    1.351    0.260
        87 -10.6316      3.9743     82.6636   1.2008216761e+02   5.7594969064e+01    0.3259622    0.1565778 -73.00  0.001782872    1.662    0.398
        88 -10.1164     89.4141     80.6223   9.1536184274e+01   4.8777663428e+01    0.2715579    0.2058092 -70.85 0.0005601223    1.664    0.399
        89 -11.0785     64.3807     79.5928   9.9323270410e+01   5.2819559799e+01    0.3934591    0.2704708 -55.29  0.001717328    1.320    0.242
        90 -10.3954     10.0382     79.0748   1.1752459171e+02   5.8063168702e+01    0.2238641    0.1343609 -64.64 0.0007515705    1.255    0.203
        91 -11.0375     27.4353     77.4025   1.1133618209e+02   5.7238125292e+01    0.3509281    0.2053203 -13.14  0.000622986    2.472    0.595
        92 -10.5719     18.5235     75.0114   1.1389611479e+02   5.8434797601e+01     0.275616    0.1302221 -47.10 0.0006558549    1.761    0.432
        93 -10.5034     15.1899     75.4077   1.1511779752e+02   5.8567272740e+01    0.3764069    0.2250591  60.66  0.002050752    2.410    0.585
        94 -10.2702    176.8170     76.8779   6.7741270081e+01   3.0150386466e+01    0.2470492    0.2195355  13.89  0.001234847    1.220    0.180
        95 -11.0189      5.9546     75.6558   1.1829012201e+02   5.9053309131e+01    0.3352728   0.09959205 -51.58  0.001543687    2.406    0.584
        96 -10.0329    168.2441     76.2812   6.9345004502e+01   3.2404869746e+01    0.4999232    0.1671462  49.46  0.000809272    2.932    0.659
        97 -10.4341    160.5868     75.1350   7.0661097512e+01   3.4515845054e+01    0.3188412    0.2331637  34.82 6.662681e-05    1.485    0.327
        98 -10.5940     71.4249     75.1892   9.5724650005e+01   5.2801779904e+01    0.4525281     0.221737  31.33  0.001963278    2.382    0.580
        99 -10.8091     55.6865     75.1689   1.0104983622e+02   5.4905710302e+01    0.3292397    0.2924329 -33.88  0.001244875    1.089    0.082
       100 -10.2587     36.9887     75.2246   1.0754088774e+02   5.6897697622e+01    0.2203676    0.1767101   4.57 0.0008487498    1.506    0.336
       101 -10.4371     36.0225     71.9936   1.0709233984e+02   5.7705066737e+01    0.4370247    0.2441443 -18.98  0.001828305    2.603    0.616
       102  -9.4456    136.5114     74.4665   7.6181272535e+01   4.0433562755e+01    0.1552046    0.1494474  -7.25 2.892373e-05    1.012    0.012
       103  -9.7523     92.7584     72.7883   8.8073741575e+01   4.9845159604e+01    0.1954115    0.1732849 -71.28 0.0008899654    1.340    0.254
       104  -9.4333    216.9613     72.0719   5.9204848916e+01   2.0943958758e+01    0.1825633    0.1597066 -37.03  0.000449981    1.081    0.075
       105 -10.3451    106.2962     71.9760   8.3686055977e+01   4.7453564077e+01    0.3126812    0.2035345  42.96  0.001440859    1.615    0.381
       106  -9.2583     99.8150     70.5804   8.5178274488e+01   4.8992421232e+01     0.181563    0.1432235  54.87 0.0003416691    1.486    0.327
       107  -9.4160     81.4225     73.2219   9.1833479735e+01   5.1686148284e+01    0.1990748    0.1285222 -55.31  0.000929411    1.606    0.377
       108 -10.1178     79.9755     69.0248   9.0987728897e+01   5.2797137633e+01    0.2245625    0.1957046 -28.49  0.000565613    1.048    0.046
       109 -10.3675     46.4814     69.2278   1.0264448023e+02   5.7263216240e+01    0.2429473    0.1875755  15.59 0.0007953041    1.522    0.343
       110 -10.2954     10.5338     67.8603   1.1525003709e+02   6.0520481314e+01    0.3082587    0.1359526 -70.32  0.001541375    2.004    0.501
       111 -11.5743      7.1722     63.8165   1.1564199092e+02   6.1589297132e+01    0.2757676    0.1953624 -50.24   0.00186702    1.132    0.117
       112 -10.8438      9.7593     60.0332   1.1388101636e+02   6.2264240457e+01    0.1947541    0.1535114 -32.64 0.0003618956    1.282    0.220
       113 -11.3188     14.5149     64.1554   1.1302500276e+02   6.1089382646e+01    0.3433537    0.2445013 -77.87  0.001144376    1.459    0.314
       114 -13.8872     20.0107     57.6707   1.0941253913e+02   6.2117878587e+01    0.4109972    0.2788697 -61.87  0.001118728    1.278    0.218
       115 -10.1126    133.3117     65.5500   7.4090152199e+01   4.2828054854e+01    0.2736082    0.1916422  -9.85  0.001183621    1.790    0.441
       116 -10.4915     34.4914     64.8232   1.0580921645e+02   5.9413213856e+01    0.4772773    0.2158627 -39.41  0.002254188    2.100    0.524
       117 -10.7010     39.0484     62.9291   1.0360348548e+02   5.9389080978e+01    0.2842447    0.1494126 -37.13 0.0007811125    1.812    0.448
       118  -9.5883      1.4643     66.5011   1.1821005002e+02   6.1290937407e+01    0.1180807   0.08701468 -61.05 8.829988e-05    1.007    0.007
       119  -9.6853     75.9525     64.6957   9.0933821962e+01   5.4324826955e+01    0.1806616    0.1670031  -1.54 0.0002235381    1.115    0.103
       120 -10.7142     63.5198     62.2178   9.4448852399e+01   5.6658778247e+01     0.457766    0.2929453 -14.71  0.002196855    2.050    0.512
       121 -10.8250     53.3925     62.1861   9.8091100718e+01   5.7974146924e+01    0.2277046     0.203234 -39.13 0.0003585957    1.084    0.077
       122  -9.5778    193.4747     62.0303   6.0232180330e+01   2.8389758598e+01    0.2217656    0.1482071 -31.68 0.0002981425    1.477    0.323
       123  -9.5933    192.7992     58.6370   5.9354647158e+01   2.9089452234e+01    0.2145355     0.175471 -63.57  0.000324945    1.314    0.239
       124 -10.3218    100.8564     60.8429   8.1569772690e+01   5.0686360936e+01    0.3004325    0.1977308 -49.70  0.001394954    1.648    0.393
       125  -9.3553    177.9585     58.9775   6.2109346116e+01   3.2849531315e+01    0.1781262    0.1750418 -32.95            0    1.016    0.016
       126  -9.7043    130.8295     58.0741   7.2192769357e+01   4.4722376659e+01    0.3007482    0.2021113  84.38  0.001173905    2.588    0.614
       127 -10.8288     91.8011     55.2156   8.2407207115e+01   5.3458985000e+01    0.2483068    0.2164191  22.14 0.0003377351    1.167    0.143
       128 -10.9940     83.4975     56.8412   8.5707847549e+01   5.4636406510e+01    0.2573985    0.2103849 -51.81 0.0009176013    1.349    0.259
       129 -11.7126     87.7488     53.4449   8.3079005571e+01   5.4524219947e+01    0.4806526    0.3519037  -4.25  0.001855675    1.566    0.362
       130  -9.2216     48.4648     58.3963   9.8737063524e+01   5.9342325905e+01    0.1301169     0.108468 -35.66 0.0001165516    1.022    0.022
       131  -9.4782     71.6209     56.7830   8.9759379221e+01   5.6575033445e+01    0.1901215    0.1202831 -50.50 0.0007431106    1.597    0.374
       132  -9.6350    158.2014     56.2113   6.5179537657e+01   3.8342286474e+01     0.209383    0.1796383 -72.01 0.0004578191    1.339    0.253
       133  -9.7925     33.1285     55.3544   1.0368315643e+02   6.1547157246e+01    0.2757048   0.09978203 -34.67  0.001030889    3.505    0.715
       134 -11.8130    114.3624     53.7335   7.5078175027e+01   4.9177083002e+01    0.3410164    0.3066797  24.81 0.0006377831    1.095    0.087
       135  -9.8711     96.5040     55.4929   8.1017729360e+01   5.2521253301e+01    0.1459427    0.1317031 -12.63 -7.688943e-05    1.015    0.015
       136  -9.6229    164.5876     54.2577   6.3228256851e+01   3.7024378585e+01    0.2725187    0.1306899  57.40 0.0005568457    2.061    0.515
       137 -10.5001     14.6673     35.0633   1.0510584476e+02   6.7091353011e+01    0.3688265    0.1556865 -32.18  0.001275507    2.341    0.573
       138 -10.4655     19.5108     31.9861   1.0186560033e+02   6.7326946437e+01     0.231439    0.1415179 -13.48   0.00058619    1.770    0.435
       139 -10.4781     19.5306     44.9609   1.0609537883e+02   6.4790491535e+01    0.3193018     0.209869 -46.47  0.001607939    1.154    0.134
       140 -11.2436     12.9287     41.1651   1.0776896511e+02   6.6003318141e+01    0.4399954    0.3154837  67.02  0.001847239    2.376    0.579
       141 -13.2321      5.6388     50.7692   1.1335153820e+02   6.4451496331e+01    0.3689477    0.2071343 -45.42 0.0005388182    1.382    0.276
       142 -11.2204     13.0937     48.5932   1.0978858612e+02   6.4481100778e+01    0.3852031    0.2576485  25.74 0.0009308216    1.877    0.467
       143 -10.0554    105.7920     53.1483   7.7339197424e+01   5.1090847668e+01    0.2479777    0.1981181  53.82 0.0008571219    1.414    0.293
       144 -12.1118     66.2143     52.5062   9.0187389495e+01   5.8212514719e+01    0.5723523    0.2393933  33.02  0.002389853    2.725    0.633
       145 -10.5990    122.6042     51.4523   7.2006540848e+01   4.7731048394e+01    0.3232078     0.251372  72.95 0.0009550399    1.653    0.395
       146  -9.7695     76.1333     49.6097   8.5598079664e+01   5.7222927998e+01    0.2760257    0.1938264 -15.79  0.001042375    1.516    0.340
       147 -10.5474     78.9890     45.9007   8.3206585449e+01   5.7414740901e+01    0.2828147    0.2008784  30.04 0.0004373626    1.470    0.320
       148  -9.6395     98.2058     48.8965   7.8061765311e+01   5.3358052162e+01    0.2443862    0.1582939  -9.79  0.001085431    1.945    0.486
       149 -10.8282     57.5664     47.2152   9.1497301280e+01   6.0433135328e+01    0.3349659    0.2037379 -54.98 0.0009493029    1.888    0.470
       150  -9.1584    193.4338     47.4725   5.5964933751e+01   3.0581058842e+01    0.1490643    0.1407724 -65.42 6.547637e-05    1.043    0.042
       151  -9.4927    154.5806     47.5605   6.3085798830e+01   4.0598928335e+01    0.1486392     0.145403  23.79 7.499817e-05    1.007    0.007
       152  -9.5007    135.5420     46.4670   6.6966027349e+01   4.5488262861e+01     0.149109    0.1427511  14.10 0.0001261119    1.009    0.009
       153 -12.0549     27.0531     43.6749   1.0253936727e+02   6.4456107160e+01    0.4035128    0.3417759 -28.48  0.002822534    1.120    0.107
       154 -10.0530     25.7700     29.6997   9.8170629682e+01   6.7229833044e+01    0.1806806    0.1343217 -54.70 0.0005211713    1.483    0.326
       155 -10.6271     22.7272     38.5602   1.0270382955e+02   6.5816599395e+01    0.1917985    0.1753755 -44.97 0.0004481616    1.266    0.210
       156 -11.6273     26.7314     35.1846   9.9778499988e+01   6.6127722262e+01    0.3690621    0.1901076 -34.10 0.0008067663    1.687    0.407
       157  -9.6904    159.5837     41.8000   6.0151205950e+01   4.0156306707e+01    0.2099203    0.1362458 -40.74  0.000339559    1.586    0.370
       158  -9.9249     69.9944     41.8986   8.4842843762e+01   5.9590934087e+01    0.2544035    0.1857689 -21.53 0.0009049238    1.265    0.209
       159 -10.8858      3.5668     41.9651   1.1200100865e+02   6.6370750174e+01    0.2896916    0.1621402 -10.40  0.001749594    2.156    0.536
       160 -11.2601    139.8694     40.4402   6.3823404494e+01   4.5323405695e+01    0.3894402    0.2980438 -46.07  0.001191957    1.427    0.299
       161  -9.7401     43.0368     40.8331   9.4901795057e+01   6.3429400632e+01    0.1682434    0.1576237 -23.98 0.0006782863    1.240    0.193
       162 -10.0378     34.9946     41.3929   9.8438070873e+01   6.4173191011e+01    0.2627029    0.1441424  25.36  0.001110856    2.099    0.524
       163 -10.4435    127.9744     38.6692   6.5972028921e+01   4.8455008447e+01    0.3016414    0.2111172  59.97 0.0003774056    1.516    0.340
       164 -12.0673    121.6002     37.3213   6.7059347420e+01   5.0140935031e+01    0.4816242    0.4433314 -60.45  0.002148111    1.283    0.221
       165  -9.8464    115.2158     38.9910   6.9367341805e+01   5.1350739425e+01    0.2045846    0.1820233  -7.42 0.0005197065    1.074    0.069
       166  -9.7545     99.7996     39.1815   7.3836137634e+01   5.4625330354e+01    0.1961097    0.1553346   8.50  0.000446142    1.279    0.218
       167 -10.6401      2.7480     35.8337   1.1067769160e+02   6.7640924855e+01    0.3322408    0.1308527 -30.35  0.001660808    2.638    0.621
       168 -10.9279     38.8296     35.5562   9.4674744213e+01   6.4872594359e+01    0.2499093    0.1745185  -1.40  0.001312072    1.535    0.349
       169 -12.0933     40.8855     29.9947   9.1583404752e+01   6.5634814664e+01    0.6621871    0.3657658   5.33  0.003239209    2.515    0.602
       170 -11.0940     96.6327     32.9352   7.2287172435e+01   5.6208821703e+01    0.3596477    0.2141061 -33.23  0.001731024    1.636    0.389
       171  -9.5489    134.2363     34.3268   6.2895581171e+01   4.7551998983e+01    0.2075909    0.1524403  39.14 0.0003131458    1.325    0.245
       172  -9.2738     81.9304     34.3378   7.7584214510e+01   5.8821515850e+01    0.1955161    0.1135279  30.74 0.0009248481    1.829    0.453
       173  -9.6878     50.4576     33.8169   8.9136835296e+01   6.3801867766e+01     0.181527     0.108633 -39.95 0.0007563593    1.458    0.314
       174 -10.0320    145.0247     33.0225   6.0078423311e+01   4.5051656866e+01    0.2115859    0.2095115  88.56 0.0003728667    1.082    0.076
       175  -9.7667    166.5051     30.9056   5.5283927318e+01   3.9811191742e+01    0.2144909    0.1454977 -27.15 0.0005547915    1.528    0.346
       176 -10.2463    128.8612     31.0230   6.2911544622e+01   4.9289975020e+01    0.3152335    0.1970212  55.29  0.001278758    1.555    0.357
       177 -10.8673      8.0258     28.5757   1.0600240685e+02   6.8759595892e+01    0.2402578     0.211984  86.30  0.001774255    1.691    0.409
       178  -9.7804     69.7775     28.9676   7.9586902850e+01   6.1751158684e+01    0.1735299   0.09758201 -32.08 0.0004719121    1.620    0.383
       179  -9.7867    146.9209     26.6299   5.7437626544e+01   4.5374050360e+01    0.2020011    0.1790776  53.39 0.0005506921    1.073    0.068
       180  -9.8170    229.5282    248.0019   9.4839829154e+01  -8.0123649026e+00    0.1714737    0.1195798  28.28  0.000598463    1.099    0.090
       181 -10.5816    114.1497     24.9388   6.4146741022e+01   5.3506574009e+01    0.3658994    0.2270757  35.94  0.001687593    1.587    0.370
       182  -9.8666    101.4756     26.4762   6.8199074846e+01   5.6098884193e+01    0.1387418    0.1261361   8.56 6.996134e-05    1.044    0.042
       183  -9.3435     18.3224     26.3033   1.0032198114e+02   6.8470741295e+01    0.1236381   0.06837103 -27.82 0.0007029877    1.635    0.388
       184  -9.5456    153.7375     25.5915   5.5780837422e+01   4.3759085181e+01    0.1991007    0.1379955  76.57  0.000695077    1.589    0.371
       185  -9.9912    120.8715     24.6144   6.2352408955e+01   5.1993878374e+01     0.391656    0.1308618  47.70  0.001399196    2.692    0.628
       186 -10.3487     58.6808     24.3847   8.1783592547e+01   6.4194803304e+01    0.2725836    0.1932214  -0.88  0.001581596    1.388    0.280
       187 -10.4839      1.9592     21.8811   1.0663554732e+02   7.0355066102e+01    0.2240215    0.1302022 -56.15 0.0007694312    1.473    0.321
       188 -11.4674     30.5159     21.2593   9.2520243253e+01   6.8250068291e+01    0.2589986    0.1824927 -26.85 0.0008996955    1.111    0.100
       189 -11.1891     15.0130     21.6227   1.0009053336e+02   6.9565526834e+01    0.3541057    0.1911573  33.77  0.002080434    2.442    0.590
       190  -9.5216     84.7640     21.3804   7.1084556458e+01   6.0147538546e+01    0.1884272     0.112152  35.70 0.0006593099    1.624    0.384
       191  -9.7049    100.8555     19.7969   6.5571754349e+01   5.7070965027e+01    0.1783943    0.1639622 -47.67 0.0008273986    1.344    0.256
       192  -9.7104     57.6532    248.0251   1.2446490465e+02   1.7584793292e+01    0.1874941   0.08962013  44.93  0.001171328    1.701    0.412
       193  -9.5285     58.3990     19.2308   7.9534178298e+01   6.4997981173e+01    0.1802316    0.1062702 -40.35 0.0009491583    1.798    0.444
       194  -9.6147    224.9938    246.6974   9.5407432234e+01  -7.2041239343e+00    0.1668971    0.1153195  26.44  0.001136072    1.095    0.087
       195  -9.5922    136.4951    245.5641   1.1076816137e+02   6.7976610860e+00    0.1189024   0.09061062  50.78 0.0008065624    1.054    0.051
       196  -9.4643     45.0261    244.7828   1.2629100545e+02   1.9648734376e+01    0.1293352   0.06666075  46.34 0.0002959452    1.593    0.372
       197  -9.4689    202.4282    240.3145   9.8348209259e+01  -3.0044186341e+00    0.1808874    0.1123939 -28.20 0.0007671401    1.927    0.481
       198  -9.6459    199.5422     17.4701   4.6405633606e+01   3.2797167730e+01     0.139163    0.1287765 -84.72  0.000111352    1.002    0.002
       199 -10.4068    108.3046     16.4735   6.2185246260e+01   5.5821662223e+01    0.2161442    0.1725349 -12.37  0.001165706    1.241    0.194
       200 -10.0054     82.9077     17.0642   6.9747973584e+01   6.1050638980e+01    0.2271894     0.141718  16.12 0.0007642038    1.748    0.428
       201  -9.7135     60.7085    241.0032   1.2348122118e+02   1.8381244184e+01    0.1887559   0.08575748  43.29 0.0009671419    1.850    0.459
       202 -10.2310     20.0808     16.9432   9.5638629986e+01   6.9962416475e+01    0.1847749    0.1573281   6.84  0.001036657    1.355    0.262
       203  -9.8496     49.8490    240.9715   1.2527278137e+02   1.9722761114e+01    0.1802808   0.08823516  73.61  0.001081784    1.922    0.480
       204 -10.0107    148.5356    239.0184   1.0783244064e+02   5.8603611557e+00    0.1538087    0.1203409 -53.44 0.0009504416    1.599    0.375
       205  -9.3115     94.9599     13.7208   6.4600725892e+01   5.9019887335e+01    0.1730364    0.1289073  59.68 0.0006331341    1.539    0.350
       206 -11.1897     14.1578    238.7237   1.3081039384e+02   2.4043679355e+01    0.1714431   0.09615638  77.89 0.0004902327    1.334    0.250
       207 -12.3139     26.0007    235.7217   1.2881473205e+02   2.3336417817e+01    0.3479081    0.2771682  53.78  0.002868054    1.393    0.282
       208  -9.2754     91.2300    236.7414   1.1788857475e+02   1.5007851527e+01    0.1545099    0.0828318 -53.65 0.0008802954    2.402    0.584
       209  -9.4098    250.6762     15.2928   4.0805247903e+01   2.0649785178e+01    0.1378654   0.08124782 -61.45 0.0002875543    1.616    0.381
       210  -9.9426    175.6162     15.1679   4.8821535636e+01   3.9240730086e+01    0.1868186    0.1366223  -2.20 0.0003271899    1.643    0.391
       211 -10.6119    154.5906     14.9898   5.1993071067e+01   4.4711475774e+01    0.3040729    0.1936969  58.71 0.0005092734    1.426    0.299
       212 -10.3478    191.1869     13.6161   4.6307821246e+01   3.5361692250e+01    0.2582175    0.1627448  60.73  0.001212713    1.483    0.326
       213  -9.4668     64.6740     14.6738   7.4961598573e+01   6.4619062548e+01    0.1358299   0.08585346   7.23 -0.0001541599    1.696    0.410
       214  -9.6270    162.4491     13.4314   5.0205301979e+01   4.2841827443e+01    0.1410228    0.1296042  58.74 9.345663e-05    1.016    0.016
       215  -9.1027     42.6515    236.2824   1.2615488668e+02   2.1383020731e+01    0.1147683   0.05630467  63.76 0.0007015593    1.648    0.393
       216  -9.9447    249.1114    234.0249   8.9357271231e+01  -9.3767223097e+00    0.1752138    0.1284628  16.43 0.0004586862    1.017    0.016
       217  -9.5989    209.5195    229.5072   9.5439080750e+01  -2.7907145530e+00    0.1222986    0.0976949  26.38 0.0001978942    1.031    0.030
       218  -9.4341    104.5459     10.4807   6.0614801696e+01   5.7294719059e+01    0.1383828    0.1170786  24.08 2.658685e-05    1.042    0.040
       219  -9.7802     56.5058     10.4920   7.6061018787e+01   6.6470882761e+01    0.1265911    0.1013957  -2.05 0.0001654782    1.007    0.007
       220 -10.8365    140.2596    228.1602   1.0798696969e+02   8.8809453877e+00    0.3145441    0.2344815 -79.43  0.001950488    1.732    0.423
       221  -9.8744     57.4702    229.4696   1.2319049396e+02   2.0802294468e+01    0.1128876   0.08298502  68.22 0.0002948702    1.014    0.013
       222  -9.9350     34.2054    225.4422   1.2688683739e+02   2.4274842924e+01    0.1550091   0.07190696  52.64 0.0009512526    1.685    0.406
       223 -11.4723      8.7210    218.3831   1.3072433799e+02   2.8188985911e+01    0.2273383    0.1821405  15.29   0.00173774    2.278    0.561
       224  -9.5456     24.5807    139.1746   1.2173237802e+02   4.3221394009e+01    0.1779975   0.08623117 -62.43 0.0009411425    1.720    0.419
       225  -9.1317    224.3258    210.3396   8.9575145719e+01  -2.7404264453e+00    0.1335115    0.0843108  10.58 0.0007051398    1.729    0.422
       226 -10.2787     20.1355    209.8310   1.2834824302e+02   2.8677882260e+01    0.1750408    0.1029175  67.34 0.0009341047    1.315    0.240
       227  -9.4619    247.0000    207.0775   8.5026332557e+01  -5.9845133199e+00    0.1854499    0.0644231 -32.03 0.0007996418    2.923    0.658
       228 -11.3103      9.5461    203.7179   1.2983817260e+02   3.0874577662e+01    0.2072214     0.122662  35.56  0.001287374    1.973    0.493
       229  -9.9510     23.0996    197.1663   1.2702505281e+02   3.0853784363e+01    0.1580662    0.1284735 -87.00 0.0005273286    1.238    0.193
       230 -11.0411     13.9206    192.6864   1.2842064266e+02   3.2638947741e+01    0.1930584    0.1181259  84.39 0.0004355205    1.255    0.203
       231 -10.8599      6.5467    191.5691   1.2969607597e+02   3.3530209280e+01    0.1979198    0.1408585  80.35  0.001492606    1.002    0.002
       232  -9.1434     19.3307    192.6604   1.2742137380e+02   3.2129908843e+01    0.1220345   0.06075108  68.52 -0.0001281754    1.742    0.426
       233  -9.5243     22.5304    179.5901   1.2588095794e+02   3.4511512394e+01    0.1138259   0.08688807  83.22 5.222936e-05    1.025    0.025
       234 -11.1560      5.4637    167.4577   1.2840594111e+02   3.8585071624e+01    0.2598604    0.1385166  87.53  0.001260404    1.497    0.332
       235  -9.5266    226.5149    164.0000   8.0115988264e+01   3.5764886646e+00    0.2041193     0.129411 -30.09 0.0006357837    1.536    0.349
       236  -9.1689     41.2907    157.6855   1.1987262091e+02   3.7372160990e+01    0.1276983   0.07875665  74.35 0.0003057506    1.592    0.372
       237  -9.7559    247.4832    155.5129   7.4598148074e+01   9.6171181320e-01    0.1378261    0.1168082  -3.87 4.696474e-05    1.014    0.014
       238 -10.6899      2.7868    153.5518   1.2797622723e+02   4.1774307545e+01    0.2307083    0.1001294  32.26  0.001305826    2.617    0.618
       239 -10.2267     23.9756    150.5246   1.2305631520e+02   4.0703478189e+01    0.1541336    0.1156599  38.33 0.0007297359    1.570    0.363
       240  -9.9739     16.4596    150.2960   1.2472876691e+02   4.1410820732e+01    0.1785914    0.1028275  32.63  0.001074139    2.058    0.514
       241  -9.9380      2.5052    148.4971   1.2765732659e+02   4.2895764760e+01    0.1155661   0.08417989  89.54  0.000810507    1.028    0.027
