#   1 NUMBER                 Running object number                                     
#   2 MAG_AUTO               Kron-like elliptical aperture magnitude                    [mag]
#   3 X_IMAGE                Object position along x                                    [pixel]
#   4 Y_IMAGE                Object position along y                                    [pixel]
#   5 X_WORLD                Barycenter position along world x axis                     [deg]
#   6 Y_WORLD                Barycenter position along world y axis                     [deg]
#   7 A_WORLD                Profile RMS along major axis (world units)                 [deg]
#   8 B_WORLD                Profile RMS along minor axis (world units)                 [deg]
#   9 THETA_WORLD            Position angle (CCW/world-x)                               [deg]
#  10 FWHM_WORLD             FWHM assuming a gaussian core                              [deg]
#  11 ELONGATION             A_IMAGE/B_IMAGE                                           
#  12 ELLIPTICITY            1 - B_IMAGE/A_IMAGE                                       
         1 -14.8750      9.7891    206.6432   1.4862699558e+02   3.0995085461e+01     10.11353     3.714797 -81.81   0.03381047    2.319    0.569
         2 -14.3391     43.5610    224.6313   1.4381272954e+02   2.4042267745e+01     6.020872     3.461379  78.73   0.01322729    1.523    0.343
         3 -13.1892    192.9083     28.6525   6.9957524797e+01   3.3314199052e+01     1.339061      1.24114 -31.68  0.007100023    1.146    0.127
         4 -13.4140    207.5931      9.7364   6.3012437730e+01   3.1708001990e+01     1.491309     1.080219  37.85  0.008064854    1.685    0.406
         5 -12.0602      2.1926     11.9210   1.2102268334e+02   7.2329964783e+01     1.361093    0.1406659 -53.42  0.003823845    7.944    0.874
         6 -10.7060     34.3472    245.2476   1.4662800435e+02   2.1471958788e+01    0.4467526    0.2418401 -65.17  0.003045205    2.151    0.535
         7 -11.2195    139.5872    249.6235   1.2908057556e+02   6.3675837758e+00    0.3782682    0.1560203  43.99  0.001962079    1.868    0.465
         8 -10.3753    126.2110    250.1568   1.3148508612e+02   8.3415559352e+00    0.3899309   0.05365584  42.85  0.001224515    5.141    0.806
         9  -9.6028    111.7895    250.6664   1.3404874734e+02   1.0423548181e+01    0.1690597   0.07785077  48.73 0.0006880029    1.679    0.404
        10  -9.8995     97.8556    249.2846   1.3632810442e+02   1.2661641125e+01    0.1831277    0.1485943 -27.72  0.001251047    2.181    0.541
        11  -9.3875     29.3806    249.0336   1.4761297150e+02   2.1388232814e+01    0.2812482    0.1373764 -84.40  0.001895749    1.895    0.472
        12 -10.4253      2.7013    248.7987   1.5165690491e+02   2.4164899735e+01    0.2392388    0.1745972 -84.74  0.002055087    1.449    0.310
        13  -9.3709    183.4462    238.4934   1.1987187851e+02   9.4166588170e-01    0.1201543   0.09564883  33.28 9.001034e-05    1.015    0.015
        14  -9.6793    249.5029    249.0424   1.1023194360e+02  -1.0210627981e+01    0.1506853   0.09688056 -20.80  0.001041691    1.631    0.387
        15 -10.2242    173.7066    222.4312   1.1931964059e+02   4.8163609281e+00     0.369411    0.1967348  46.63  0.001929709    1.654    0.395
        16  -9.5022    162.4985    249.4842   1.2503605981e+02   2.8061260970e+00    0.1177221   0.09126376  41.08 -6.77317e-05    1.003    0.003
        17  -8.5503     83.3183    219.3268   1.3612149441e+02   1.9867443504e+01    0.1024828   0.09506113 -11.86 0.0007046067    1.679    0.404
        18  -8.5399    152.4123    212.7983   1.2194750307e+02   9.9907316142e+00    0.1485124    0.1231195 -30.52 0.0003136478    1.484    0.326
        19 -10.9852     20.8054    200.1379   1.4625985023e+02   3.1191158068e+01    0.2120778    0.1532204  70.40 0.0003937125    1.076    0.071
        20 -11.1847     17.0577    197.9977   1.4681464091e+02   3.1982938490e+01    0.2492631    0.1579117  57.39 0.0004279077    1.330    0.248
        21 -11.2051     63.7042    198.4823   1.3786099228e+02   2.6577225599e+01    0.2975966    0.2228666 -49.45  0.001296287    1.789    0.441
        22  -9.6948    193.2254    195.6371   1.1122920918e+02   5.4828388313e+00    0.6166089    0.3104413 -61.43  0.001863823    6.474    0.846
        23  -9.6066    229.5559    230.2157   1.1056393974e+02  -5.3120720014e+00    0.1981532    0.1090842 -37.26  0.001139194    2.161    0.537
        24  -8.4330     51.5208    197.4549   1.4018277147e+02   2.8324949732e+01    0.1211764   0.09152573  73.49  0.000172739    1.061    0.057
        25  -8.6793     69.0354    234.6778   1.4009593550e+02   1.9066321284e+01    0.1587817    0.1196948  56.65   0.00114463    1.121    0.108
        26  -9.4765    232.7827    235.3719   1.1084317972e+02  -6.3888918799e+00    0.2067141    0.1432854 -65.08  0.000962886    4.647    0.785
        27 -11.4785     69.4590    190.5027   1.3585582421e+02   2.7437484112e+01    0.2525896    0.2304745 -75.68 0.0005123126    1.277    0.217
        28 -12.8893     66.1321    175.7738   1.3487574410e+02   3.0997323914e+01    0.4637534    0.2638772 -47.12  0.001557887    2.286    0.563
        29 -10.4226     79.1348    177.7286   1.3226133336e+02   2.8770188121e+01    0.2192485     0.196592  81.54 0.0003902813    1.089    0.081
        30 -11.5232     86.5283    167.8965   1.2924669276e+02   2.9802892638e+01    0.6375708    0.5721672 -70.60  0.004006091    1.163    0.140
        31  -9.7648     32.6085    155.7595   1.4014784613e+02   3.9347761001e+01    0.2378447   0.09283725 -67.81  0.001136868    2.119    0.528
        32  -9.6573     98.8025    152.2879   1.2384215949e+02   3.1309997661e+01    0.2898348    0.2308323 -62.85 0.0009699977    1.224    0.183
        33 -11.7398     87.4643    151.5668   1.2647630194e+02   3.3294292504e+01    0.2799554    0.2519306 -43.82 0.0003933118    1.296    0.228
        34 -12.2225     67.1956    143.9899   1.3027466825e+02   3.7966499676e+01    0.7325273    0.4941808  76.18  0.003873563    1.632    0.387
        35  -8.6389    101.5096    148.0679   1.2242390576e+02   3.1801008355e+01    0.2048261     0.133091 -55.97 0.0004206985    1.508    0.337
        36 -11.4014     28.8380    144.6888   1.3983636764e+02   4.2199218232e+01    0.4461206    0.1615196  43.16  0.002098975    2.729    0.634
        37  -8.3028    192.2116    143.9740   1.0097579083e+02   1.4504160713e+01     0.186243    0.1171078 -38.59 0.0003971317    1.604    0.377
        38  -9.2770    110.0407    137.1951   1.1818550977e+02   3.2748633017e+01    0.3614444    0.2286826 -27.30  0.001373944    2.509    0.601
        39  -8.4170    185.6432    148.3607   1.0328821642e+02   1.5092776776e+01     0.151935    0.1182027 -85.77 0.0007017215    1.881    0.468
        40 -10.1312     97.3952    134.5485   1.2087035546e+02   3.5560620667e+01    0.2590015    0.2260474 -29.06 0.0002964481    1.365    0.267
        41 -10.0448     82.6762    133.8394   1.2455965522e+02   3.8089434178e+01    0.2652358    0.2138986  69.88 0.0006786209    1.283    0.221
        42  -9.1724     92.9630    132.7856   1.2166872170e+02   3.6702236606e+01    0.2153041    0.1731705  74.94 0.0007224041    1.328    0.247
        43 -10.9447     32.8197    130.7809   1.3715786068e+02   4.4986828830e+01    0.5134525   0.06870297 -67.08  0.001464371    5.464    0.817
        44  -8.8528    106.9995    123.9785   1.1612810540e+02   3.6279605906e+01    0.2037685    0.1957118 -81.50            0    1.016    0.016
        45  -8.4671    181.5916    144.8358   1.0333530702e+02   1.6608268305e+01    0.1969922    0.1388176 -52.54 0.0004380518    1.594    0.373
        46 -12.3198     37.7595    232.8944   1.4534839080e+02   2.3223606654e+01    0.2672692    0.2213983  87.83 0.0007526192    1.305    0.234
        47 -10.0118    167.7881    112.8438   9.8555898612e+01   2.5859632952e+01    0.3454165    0.2843705 -83.14 0.0008273615    1.502    0.334
        48  -9.0279    203.5396    111.2374   9.0915028873e+01   1.7889823892e+01    0.2072643    0.1430477 -21.73 0.0007547347    1.596    0.373
        49  -8.7219     71.8919     85.6281   1.1688738370e+02   5.0716621625e+01    0.1945329    0.1226289  50.60  0.000934236    1.919    0.479
        50  -8.2134     66.9910     82.7436   1.1769052915e+02   5.2050366428e+01    0.1516959    0.1194368  31.74   0.00027255    1.421    0.296
        51  -9.5102    157.0085     76.4907   9.0761866148e+01   3.5308124389e+01    0.2377097    0.1520061  53.86 0.0004739109    1.570    0.363
        52  -9.9882     12.7037     64.5902   1.3219929644e+02   6.1496636509e+01    0.1855823     0.115661   6.98 0.0009621372    2.053    0.513
        53  -9.2982     32.5365     62.0394   1.2414323225e+02   6.0493465336e+01    0.1877761    0.1697181 -87.34 0.0006149472    1.348    0.258
        54 -10.1098     27.2023     60.3422   1.2571019368e+02   6.1321119451e+01     0.297912    0.1998459  47.10  0.001073724    1.995    0.499
        55 -10.4833     22.5159     58.5024   1.2702653818e+02   6.2086863394e+01    0.3492284    0.1933967  43.19  0.001901381    2.434    0.589
        56  -9.3844      7.6652     62.7036   1.3366660356e+02   6.2203454237e+01    0.1221984   0.06662058 -40.97 0.0004594652    1.647    0.393
        57 -10.0375    238.4310    247.7125   1.1181924432e+02  -8.5370506070e+00    0.1819339    0.1017006 -33.75  0.001142894    2.135    0.532
        58  -9.9684    198.5889    245.8224   1.1824879452e+02  -2.3867332234e+00    0.1355245    0.1122161 -50.42 0.0007201251    1.718    0.418
