#   1 NUMBER                 Running object number                                     
#   2 MAG_AUTO               Kron-like elliptical aperture magnitude                    [mag]
#   3 X_IMAGE                Object position along x                                    [pixel]
#   4 Y_IMAGE                Object position along y                                    [pixel]
#   5 X_WORLD                Barycenter position along world x axis                     [deg]
#   6 Y_WORLD                Barycenter position along world y axis                     [deg]
#   7 A_WORLD                Profile RMS along major axis (world units)                 [deg]
#   8 B_WORLD                Profile RMS along minor axis (world units)                 [deg]
#   9 THETA_WORLD            Position angle (CCW/world-x)                               [deg]
#  10 FWHM_WORLD             FWHM assuming a gaussian core                              [deg]
#  11 ELONGATION             A_IMAGE/B_IMAGE                                           
#  12 ELLIPTICITY            1 - B_IMAGE/A_IMAGE                                       
         1 -13.6198    237.8672     32.5924   3.0908302132e+01   2.3608537008e+01    0.7343777    0.6305388 -76.49  0.003678121    1.152    0.132
         2 -12.1050    138.0531    236.5622   9.0739201782e+01   6.0530662550e+00    0.3345514    0.2227152 -28.28  0.001713974    1.783    0.439
         3 -12.6537    141.4494    248.8720   9.1664730754e+01   3.4792011027e+00    0.6106827    0.2809977  37.26  0.003036246    1.849    0.459
         4 -11.8125    132.2759    247.6700   9.3433003345e+01   4.9410026689e+00    0.2874047    0.2252843  10.00 0.0008102448    1.267    0.211
         5 -13.0315    123.8391    248.5718   9.5326744645e+01   5.9469046342e+00     0.636877    0.4408044  44.87  0.003520026    1.378    0.274
         6 -13.1260    117.4398    243.7496   9.6110373320e+01   7.6770587478e+00    0.4920718    0.4190625  20.75  0.002686372    1.104    0.094
         7 -14.2210    104.1148    247.0319   9.9351782678e+01   8.9093105405e+00     1.720311    0.4771923  41.24  0.006679758    2.968    0.663
         8 -12.7974     51.2639    242.0312   1.1019195099e+02   1.6590697310e+01    0.8573731    0.3333388  32.55  0.004070863    2.222    0.550
         9 -12.9096     42.9491    249.0093   1.1241039339e+02   1.6177919232e+01    0.8022662    0.3568469  35.35  0.001808031    1.856    0.461
        10 -13.1765     60.9563    249.2212   1.0871531282e+02   1.4045415072e+01    0.8314859    0.4401679  30.42   0.00300232    1.734    0.423
        11 -11.0256     52.5213    250.4781   1.1055490279e+02   1.4803964463e+01    0.5175221    0.1292296  34.71  0.002133147    2.953    0.661
        12 -13.6251      6.0904    241.6055   1.1936324211e+02   2.1396866063e+01     2.149964    0.9087002  89.38   0.01150434    2.297    0.565
        13 -14.3218      6.9702     65.4801   1.0120572482e+02   6.3480754418e+01     2.825338    0.3642106 -59.23  0.009218329    3.918    0.745
        14 -14.8659      8.7085    201.9437   1.1682525610e+02   2.9611045768e+01     1.565969     1.017264 -73.67  0.009437999    1.453    0.312
        15 -13.1073     22.7188    191.2565   1.1276882292e+02   3.0826645932e+01    0.7014251    0.5096404 -70.25  0.003526418    1.329    0.247
        16 -13.3636      4.7585    163.2582   1.1521613336e+02   3.9186119527e+01     1.481467    0.5175059 -79.77  0.006076119    2.537    0.606
        17 -15.4355      5.2422    139.5783   1.1305780200e+02   4.5136925735e+01     5.432658     1.310612 -78.90    0.0170733    4.089    0.755
        18 -11.8372    126.4590    230.8390   9.2488697928e+01   8.7599147237e+00    0.2595867    0.2379488 -71.56   0.00167204    1.321    0.243
        19 -11.2473     57.9702    236.4706   1.0831346600e+02   1.6907873693e+01    0.3275673    0.1782853  38.32  0.001315895    1.544    0.352
        20 -11.4525     67.5005    226.3490   1.0528203695e+02   1.7812767542e+01    0.3362324    0.2960323  44.64  0.001236622    1.075    0.070
        21 -12.0222     55.8767    223.5319   1.0765777064e+02   1.9852471594e+01    0.4927807    0.3827888  81.56  0.001789295    1.267    0.211
        22  -9.1817     34.3184    227.3221   1.1275423237e+02   2.1509834240e+01    0.1118767   0.09236837 -36.05 0.0007043665    1.668    0.400
        23 -11.9767     63.5205    216.2152   1.0519547233e+02   2.0491786858e+01    0.6046893    0.3590093  58.86   0.00288028    1.703    0.413
        24 -13.0320     97.9612    239.2780   9.9827784304e+01   1.1185135785e+01     0.522073    0.2841099  32.21  0.001778055    1.599    0.374
        25 -13.5675     86.5782    234.0900   1.0177979141e+02   1.3733728521e+01     0.789315    0.5107724   2.58  0.003868351    2.413    0.586
        26 -11.5086     40.4767    206.7194   1.0975225620e+02   2.5369492641e+01    0.6724001    0.3018238  56.98  0.003000387    2.287    0.563
        27 -12.1153     61.4760    233.2102   1.0726633820e+02   1.7144117609e+01    0.4494282    0.2754014  40.11  0.002364606    1.386    0.278
        28 -10.7879     47.2997    203.8324   1.0785137501e+02   2.5255935188e+01    0.2433521    0.1579865  46.88  0.001321371    1.391    0.281
        29 -11.4585     38.7915    178.8072   1.0750443439e+02   3.2218289541e+01    0.2554692     0.240286 -62.42   0.00051361    1.171    0.146
        30 -11.7165     47.1974    172.2328   1.0447634211e+02   3.2917863383e+01     0.257695     0.251825 -69.83  0.000456892    1.129    0.114
        31 -10.5907     60.9429    162.2135   9.9233045872e+01   3.3765724045e+01    0.2432832    0.1983071 -61.15 0.0003243968    1.190    0.160
        32 -12.8227     45.5151    158.6497   1.0321834964e+02   3.6577387108e+01    0.5462302    0.3341636 -32.62  0.001572933    2.184    0.542
        33 -12.2575     30.4414    159.7393   1.0772803788e+02   3.7897167443e+01    0.4102341     0.374318 -81.01  0.001876337    1.055    0.052
        34  -8.9593    131.4309    157.2449   7.8747542248e+01   2.3519306292e+01    0.2020799    0.1473992 -63.44 0.0007574453    1.584    0.369
        35 -11.4139     69.9036    155.7070   9.5584843658e+01   3.4211176376e+01    0.5067022    0.3882237 -28.17  0.002502195    1.567    0.362
        36 -12.3446     34.0437    145.4795   1.0489728432e+02   4.1230006558e+01     0.542165    0.3359407  73.48  0.002402167    1.863    0.463
        37 -11.8480     67.8159    143.4389   9.4070627563e+01   3.7668694597e+01    0.7235212    0.4324383  61.82  0.002627002    2.199    0.545
        38 -10.5622     43.2713    144.5807   1.0190799548e+02   4.0486464454e+01    0.2661632    0.1297721  32.23  0.001135649    2.094    0.522
        39  -9.6921     87.1238    143.1478   8.8120391486e+01   3.4789597040e+01    0.2326767    0.2085483 -26.65 0.0006168855    1.194    0.162
        40 -11.1724     74.9291    140.6913   9.1348852380e+01   3.7335061050e+01    0.3011899    0.2617825 -54.96 0.0003620675    1.111    0.100
        41 -12.0626     37.6729    137.9877   1.0269421461e+02   4.2816110562e+01    0.4238988    0.3823234  38.74  0.001771835    1.196    0.164
        42 -11.4615    242.5799    131.7099   5.1116043932e+01   8.2013303294e+00    0.2002477      0.16331 -83.49  0.001212865    1.767    0.434
        43 -10.1299    104.6845    130.9629   8.0232575936e+01   3.4748046651e+01    0.3609895    0.2306137  38.48  0.001372771    1.589    0.371
        44 -10.1221     88.8409    127.4796   8.4213670229e+01   3.8441389866e+01    0.2506412    0.2100859 -52.79 0.0003912663    1.158    0.137
        45 -11.2850     46.5525    234.5999   1.1063473377e+02   1.8632896578e+01    0.3526245    0.2790243  40.21   0.00156204    1.175    0.149
        46  -8.8864    101.8264    119.4122   7.8286001109e+01   3.8070142703e+01    0.1935841    0.1513574  23.22 0.0003555964    1.408    0.290
        47 -12.9380    249.6524    111.5234   4.6048569860e+01   1.0265522371e+01    0.9032483    0.1964935 -36.16   0.00292858    4.129    0.758
        48  -9.9294     52.1677     89.8607   8.7689903298e+01   5.3374528077e+01    0.2101101    0.1612659 -28.29 0.0008799037    1.320    0.243
        49  -9.7461     38.4784     65.4949   8.6345759369e+01   6.0669457628e+01     0.139108    0.1200166 -25.38 8.669527e-05    1.024    0.023
        50 -11.6734     25.4809     59.1999   9.0466567261e+01   6.3445099840e+01    0.3975875    0.2450472 -52.09  0.002101979    1.474    0.321
        51 -12.6957    216.4626     48.3983   3.6254740125e+01   2.5892350464e+01    0.4585731    0.4201831 -71.92  0.003101886    1.127    0.113
