#   1 NUMBER                 Running object number                                     
#   2 MAG_AUTO               Kron-like elliptical aperture magnitude                    [mag]
#   3 X_IMAGE                Object position along x                                    [pixel]
#   4 Y_IMAGE                Object position along y                                    [pixel]
#   5 X_WORLD                Barycenter position along world x axis                     [deg]
#   6 Y_WORLD                Barycenter position along world y axis                     [deg]
#   7 A_WORLD                Profile RMS along major axis (world units)                 [deg]
#   8 B_WORLD                Profile RMS along minor axis (world units)                 [deg]
#   9 THETA_WORLD            Position angle (CCW/world-x)                               [deg]
#  10 FWHM_WORLD             FWHM assuming a gaussian core                              [deg]
#  11 ELONGATION             A_IMAGE/B_IMAGE                                           
#  12 ELLIPTICITY            1 - B_IMAGE/A_IMAGE                                       
         1  -8.7539    111.7660     34.6662   7.9826339805e+01   5.1881588301e+01     0.240146    0.1719301 -41.20 0.0006047022    1.604    0.376
         2  -8.4616     30.0539     16.0701   9.9783875214e+01   6.7799449996e+01    0.1433837    0.1368306 -20.96 0.0006522948    1.697    0.411
         3  -7.7235     83.4386     11.2024   7.8982457897e+01   6.0059175394e+01    0.1463206    0.1093664 -33.14 0.0005607403    1.603    0.376
         4  -8.6086     55.5649     10.0620   8.7253939215e+01   6.4989712188e+01    0.1872957    0.1531411  46.54 0.0008430221    1.524    0.344
         5  -8.3162     90.9407      8.9988   7.6175714985e+01   5.8809902359e+01    0.1704405    0.1450001 -76.71 0.0006424275    1.700    0.412
         6  -7.7004    101.4021      8.1946   7.3353086066e+01   5.6773707412e+01    0.1484186     0.110068 -36.97 0.0006262262    1.639    0.390
         7  -8.4856     33.3022      5.0078   9.3608810972e+01   6.8665074021e+01    0.2482459    0.1478454 -46.34   0.00138603    3.173    0.685
         8  -8.4857     78.9874      3.5818   7.7319041829e+01   6.1550402347e+01    0.2020628    0.1508071 -36.95 0.0009311893    1.722    0.419
         9  -7.7728     44.6953      3.3135   8.8330999420e+01   6.7279169745e+01   0.09100941   0.08811386  -2.42  0.000702312    1.618    0.382
        10  -7.8951     16.4434      3.4527   1.0038640630e+02   7.0778172260e+01    0.1047711   0.07803245  -2.81 0.0001462175    1.080    0.074
        11  -8.3400     62.3354      1.5525   8.1444537724e+01   6.4667932218e+01     0.138626    0.1296472  57.02   0.00046944    1.514    0.340
        12  -7.6524     39.2759      1.6320   8.9674483969e+01   6.8205882687e+01   0.09213866   0.08394167 -26.93 0.0007006747    1.678    0.404
        13 -10.0635    224.1624    244.2814   1.0502391344e+02  -1.0291552647e+01    0.4546731    0.2510043 -43.20  0.002435983    2.064    0.516
        14  -8.5692     94.0917    249.6650   1.3170700236e+02   9.7237823853e+00    0.2940047    0.1408301  65.98  0.001245617    2.802    0.643
        15  -9.2908    211.0116    246.4824   1.0788993622e+02  -8.6587890231e+00    0.2066357    0.1739708 -52.19 0.0006946284    1.608    0.378
        16  -8.9135    147.2618    246.2343   1.2056514585e+02   1.7350096724e+00    0.3140174    0.1997539  75.48  0.001427538    2.654    0.623
        17  -8.9551    120.3530    245.6868   1.2597745756e+02   6.3126163844e+00    0.3612677    0.2218052  76.92  0.001411695    2.329    0.571
        18  -8.0061     67.5142    245.0770   1.3640140982e+02   1.4551060760e+01    0.1774993    0.1115708 -75.85  0.001026091    1.574    0.365
        19  -9.0304      9.6901    244.2424   1.4679976887e+02   2.1821830853e+01     0.310074     0.100398  84.82  0.001211424    4.119    0.757
        20  -9.2682    248.5763    242.4697   1.0024682596e+02  -1.3443402288e+01    0.2381495     0.200077 -42.41 0.0007583484    1.627    0.385
        21  -8.7207    201.9401    243.2624   1.0911368725e+02  -6.7609058427e+00    0.2432207    0.1735578 -49.24 0.0009677868    1.738    0.425
        22  -8.6643    169.2218    243.5539   1.1569281519e+02  -1.4774655184e+00    0.2538916    0.1957845  65.79 0.0006460799    1.654    0.395
        23  -8.9216     78.4881    243.7757   1.3414324155e+02   1.3236413565e+01    0.3819675    0.1424026  61.05  0.001346889    3.931    0.746
        24  -7.7384     58.3593    244.6805   1.3810792013e+02   1.5893351690e+01    0.1354434   0.07293054  66.31 0.0007043789    1.764    0.433
        25  -7.7873     49.6942    243.3517   1.3961940557e+02   1.7311187533e+01    0.1316277   0.07205808  69.52 0.0004491836    1.709    0.415
        26  -9.0001    194.3297    240.1869   1.1010377500e+02  -5.0537205599e+00    0.3488943     0.196104 -51.01  0.001417926    2.243    0.554
        27  -9.2256    183.1176    240.3250   1.1236942600e+02  -3.2407987151e+00    0.3864268    0.2608643  67.04  0.001358211    2.496    0.599
        28  -9.3565    160.2332    240.3748   1.1704034416e+02   5.9631662889e-01    0.3285486    0.2326069 -76.68  0.001181445    2.128    0.530
        29  -7.8845    153.4969    242.4743   1.1874154252e+02   1.3614401428e+00    0.1340779    0.1151226  49.34 0.0001190178    1.103    0.093
        30  -8.2070     88.2756    242.0401   1.3201918057e+02   1.2122656138e+01    0.1787052    0.1435082 -89.78 0.0005338188    1.208    0.172
        31  -8.2345    213.6170    241.1893   1.0650271668e+02  -8.2510148512e+00    0.1728351    0.1095641 -25.50 0.0009463171    1.664    0.399
        32  -8.7021    146.4743    239.9355   1.1981493550e+02   3.0184008847e+00    0.2341178    0.1668995  69.22 0.0009999628    1.760    0.432
        33  -8.4829    135.9951    238.9853   1.2185242805e+02   4.9791652751e+00    0.2645507    0.1518506  59.75  0.001220885    2.072    0.517
        34  -8.5685    129.3288    239.0078   1.2324119825e+02   6.1018598338e+00    0.2802267    0.1384106  58.88  0.001147481    2.613    0.617
        35  -9.0886    231.0163    237.3636   1.0255508409e+02  -1.0270233913e+01    0.2459397    0.1985524 -61.37  0.001196383    2.022    0.506
        36  -8.3485    209.1921    238.2543   1.0685871555e+02  -7.1102615160e+00    0.1550311     0.153804  63.13  0.000523961    1.356    0.263
        37  -8.1130     25.7925    237.1691   1.4352752134e+02   2.1493179708e+01    0.2274862   0.08461295  66.81  0.000976888    3.042    0.671
        38  -9.7081    214.8428    233.1006   1.0487547612e+02  -7.1776957570e+00    0.4951729    0.3627483 -84.78  0.002270413    3.446    0.710
        39  -9.2048    203.3073    234.2969   1.0733339607e+02  -5.5412921895e+00    0.4321177    0.2211612 -48.38  0.001716844    2.343    0.573
        40  -9.6935    175.8540    233.4588   1.1272686815e+02  -8.3268560831e-01    0.4850347      0.26094 -59.46  0.002114586    2.757    0.637
        41  -8.3611    170.4466    235.9091   1.1423753099e+02  -3.4536909386e-01    0.1815448    0.1333245 -50.00 0.0005728668    1.553    0.356
        42  -9.3692    109.2954    234.7732   1.2684766144e+02   1.0273658876e+01    0.5485256     0.227562  53.75  0.002193336    2.600    0.615
        43  -7.7758     58.5079    237.0000   1.3737633097e+02   1.7451085709e+01    0.2584985   0.06355453  37.05 0.0009293557    3.891    0.743
        44  -8.2525    123.0051    234.2910   1.2391034705e+02   8.0929870863e+00    0.2597967    0.1593114  87.59 0.0006319334    2.581    0.613
        45  -8.4401     99.4778    234.4545   1.2884984725e+02   1.1924087866e+01    0.2976072    0.1648678  69.39 0.0008800631    2.306    0.566
        46  -8.6981     78.7486    234.5346   1.3310983707e+02   1.5096940033e+01    0.2679107    0.1610218  79.20 0.0009184081    1.848    0.459
        47  -9.1093     68.7045    232.6809   1.3493731499e+02   1.6944162681e+01    0.4338114    0.1908759  69.57  0.001659592    3.415    0.707
        48  -9.2472    141.2302    230.7979   1.1955236426e+02   5.6608122783e+00    0.6445122    0.3037279  61.04  0.002181528    3.920    0.745
        49  -9.2524    186.6083    230.9838   1.1011320806e+02  -2.2248985146e+00    0.3282132     0.248117  80.30  0.001275312    2.244    0.554
        50  -8.2602     91.8539    231.3559   1.3005496106e+02   1.3770567538e+01    0.2432296    0.1538651  81.55 0.0005761415    1.830    0.454
        51  -9.4264    236.2202    230.8170   1.0044035534e+02  -1.0047003190e+01    0.2316245    0.2251712  64.21 0.0009707563    1.536    0.349
        52  -9.0938    151.4902    228.9923   1.1709734215e+02   4.2202451269e+00    0.3356453    0.2339869 -89.09   0.00159623    2.243    0.554
        53  -9.4393    148.8153    224.6813   1.1698338268e+02   5.5312914433e+00    0.3469771    0.2569492  81.64  0.001021476    1.837    0.456
        54  -8.5662    229.8246    228.4909   1.0121181392e+02  -8.7478245518e+00    0.2078804    0.1355833 -29.62 0.0007359529    1.475    0.322
        55  -8.8869    162.4897    228.1138   1.1463185663e+02   2.4582433945e+00    0.3712599    0.2468499  65.35  0.001320626    2.096    0.523
        56  -8.8299    128.1536    227.5517   1.2185777938e+02   8.5722464360e+00     0.297021    0.2015315  70.10   0.00119765    1.784    0.439
        57  -8.2669    119.8410    228.0723   1.2371239458e+02   9.8870521313e+00    0.2157629    0.1713625  71.32  0.001153396    1.284    0.221
        58  -9.1179      7.2027    227.1928   1.4618923775e+02   2.5547876251e+01    0.3537778   0.08815736  59.43  0.001268444    4.747    0.789
        59  -7.9493    223.2090    226.5592   1.0211376543e+02  -7.4364630777e+00     0.263309   0.08499854 -31.70 0.0008636455    4.340    0.770
        60  -8.7117    206.0204    225.8810   1.0532788358e+02  -4.5861270966e+00    0.2184148    0.1843216 -34.66 0.0006172231    1.257    0.204
        61  -8.4503    200.0157    226.3358   1.0660259698e+02  -3.6720028507e+00    0.1832015    0.1620132  20.22 0.0005155852    1.046    0.044
        62  -8.2502     48.8634    226.3330   1.3826976631e+02   2.0988682624e+01    0.1780706    0.1271926  85.03 0.0005372517    1.199    0.166
        63  -8.6931    216.5936    223.4392   1.0282151006e+02  -5.8906731694e+00    0.3343871    0.1919495 -49.30  0.001209931    2.122    0.529
        64  -8.9332    180.6208    224.2866   1.1019675530e+02  -4.7855138147e-03    0.2962708    0.2313713  88.87  0.001074418    1.990    0.497
        65  -8.8045     94.2475    224.2392   1.2866913746e+02   1.4907067856e+01    0.3859787    0.1987013  71.36  0.001519431    2.952    0.661
        66  -7.8585     38.4638    225.0002   1.4019175899e+02   2.2572936383e+01    0.1776935   0.08317396  79.94 0.0008070035    2.436    0.589
        67  -8.5712    173.0104    223.2625   1.1160840791e+02   1.5175239520e+00    0.2265605    0.1919444  88.42  0.000638284    1.558    0.358
        68  -8.0221    113.8187    223.9868   1.2443095009e+02   1.1755800527e+01    0.2208852    0.1470785  83.31 0.0008281136    1.912    0.477
        69  -8.8500    104.5776    223.5029   1.2635787410e+02   1.3396651958e+01    0.3147817    0.2037567 -88.51  0.001534392    1.900    0.474
        70  -8.6157    194.4985    232.6408   1.0880139820e+02  -3.8284055548e+00    0.2284961    0.2176216 -62.63 0.0008327515    1.328    0.247
        71  -8.8752      1.7097    230.8372   1.4737736027e+02   2.5333998771e+01    0.2205592    0.1098001  80.67 0.0009759304    1.669    0.401
        72  -9.3069    192.5285    221.5640   1.0727029598e+02  -1.5735762248e+00    0.3197566    0.2608904 -88.09  0.001118428    1.882    0.469
        73  -9.1890    160.2237    221.3013   1.1398606603e+02   4.1630095011e+00    0.5195675    0.2729979  59.99  0.001808647    3.018    0.669
        74  -8.2624    140.0160    222.7841   1.1857842867e+02   7.4678699448e+00    0.2310305    0.1439424  61.85 0.0006763314    1.948    0.487
        75  -9.0827    239.0363    221.6159   9.8264968471e+01  -9.0505931956e+00    0.2257888    0.1943893 -58.21 0.0007912539    1.694    0.410
        76  -9.2887    225.4300    221.6180   1.0079835586e+02  -6.9873194587e+00    0.2267505    0.1998408 -34.66 0.0005758176    1.275    0.216
        77  -9.1677    120.5716    219.3704   1.2229376554e+02   1.1580929939e+01    0.4981241    0.2663309  67.20  0.001772912    2.972    0.664
        78  -8.8409     82.7482    220.5220   1.3065934686e+02   1.7502993267e+01    0.3353601    0.1897506  75.60  0.001109811    2.208    0.547
        79  -8.1514     73.3793    221.1490   1.3271952567e+02   1.8760051025e+01    0.1916121    0.1115344 -84.93 0.0009361281    1.864    0.464
        80  -8.0529     27.5519    221.2941   1.4199368603e+02   2.4647247265e+01    0.1623909    0.0953441 -67.85 0.0009460531    1.596    0.373
        81  -8.9716      6.5506    221.3730   1.4593045139e+02   2.6834976993e+01    0.2131799    0.1013305  69.26 0.0009401557    1.891    0.471
        82  -8.1693    202.5317    219.9988   1.0496804634e+02  -2.9991624653e+00    0.1905881    0.1298139 -42.28 0.0004836409    1.545    0.353
        83  -8.6007    248.5468    217.9369   9.5876435764e+01  -9.8644031131e+00    0.4021274    0.2812735  71.21  0.001747137    4.207    0.762
        84  -8.4913    210.1043    218.5004   1.0319140687e+02  -4.0047518560e+00    0.3222899     0.166694 -41.32 0.0009980734    1.970    0.492
        85  -9.2562    133.0006    216.1620   1.1906667650e+02   1.0079923739e+01    0.5179732     0.318142  82.06  0.002061829    2.881    0.653
        86  -8.8977     51.6914    217.4533   1.3683766590e+02   2.2568991665e+01    0.2927538    0.1539033 -85.18  0.001064241    1.945    0.486
        87  -8.0962    228.7016    217.6573   9.9454032390e+01  -6.8537469834e+00    0.1355763   0.09140286  -4.74 0.0006598721    1.670    0.401
        88  -8.7344    169.3643    216.3393   1.1118301038e+02   3.4856037437e+00    0.2798402    0.2238147  78.82  0.000868709    1.678    0.404
        89  -8.4853    143.0000    216.6253   1.1694213010e+02   8.1937047934e+00    0.2929519    0.2084927  85.94  0.001174867    1.982    0.495
        90  -7.7076    111.9556    217.4488   1.2390430005e+02   1.3467446111e+01    0.2038431    0.1010031  58.26 0.0006303695    2.415    0.586
        91  -8.6021    232.3363    214.8253   9.8248999243e+01  -6.9567984111e+00    0.2727174    0.2123431 -65.98  0.001045797    2.097    0.523
        92  -7.8899     18.7696    216.0250   1.4326637721e+02   2.6746145127e+01     0.160148    0.0813751 -78.28 0.0008799642    1.648    0.393
        93  -8.4936    185.8272    214.5081   1.0738486090e+02   8.8465678502e-01    0.2568662    0.1866837 -65.09 0.0008434073    1.888    0.470
        94  -8.3375    154.4193    215.2683   1.1422052996e+02   6.4052751116e+00    0.2405494    0.1649869  60.09  0.001055418    1.695    0.410
        95  -8.8306     92.9349    214.0654   1.2762193532e+02   1.7346237557e+01    0.3257098    0.1937936  69.88  0.001420422    1.999    0.500
        96  -7.8314     41.3961    215.7065   1.3877078677e+02   2.4252725282e+01    0.1384837   0.07502375  65.99 0.0007003134    1.793    0.442
        97  -9.3871    213.9714    212.2830   1.0128209256e+02  -3.5740691371e+00    0.3572675    0.2728587  63.99  0.001427643    1.960    0.490
        98  -9.3183     73.0707    211.8850   1.3169257121e+02   2.0873678022e+01    0.6670977    0.2769594  62.89  0.002322765    3.687    0.729
        99  -8.2277    224.9034    212.9335   9.9294416209e+01  -5.4728853206e+00    0.1883081    0.1666519 -80.48  0.001113515    1.711    0.416
       100  -8.6987    161.8604    212.3519   1.1209933640e+02   5.6354888593e+00    0.2855377    0.2049517 -70.31  0.001011329    1.839    0.456
       101  -8.2801    106.4782    212.9540   1.2446588352e+02   1.5375302988e+01    0.1993677    0.1350684 -65.77  0.000624852    1.528    0.346
       102  -8.9820    204.3732    210.9836   1.0294169192e+02  -1.7176396921e+00    0.2917889    0.2169559 -66.62 0.0007151583    2.007    0.502
       103  -9.3942    175.7028    210.3270   1.0875925510e+02   3.5055882870e+00    0.4479027     0.306751  75.30  0.001624983    2.536    0.606
       104  -9.3131      6.0023    208.7334   1.4516969092e+02   2.9604919878e+01    0.3350895       0.1328  79.55  0.001500974    2.796    0.642
       105  -8.4600    192.4254    210.6332   1.0530745600e+02   4.3588737909e-01    0.2424891    0.1344266 -49.19 0.0006263945    1.996    0.499
       106  -8.9437    148.0794    210.6363   1.1482228500e+02   8.5122679013e+00    0.2933827    0.2183115  85.23  0.001273581    1.818    0.450
       107  -8.7223    116.2034    210.3773   1.2190496579e+02   1.4284183462e+01    0.3203708    0.2252059  84.32 0.0008722405    1.740    0.425
       108  -8.9931    236.6559    208.6651   9.6294693120e+01  -6.6171470772e+00    0.2876375    0.2443007 -87.55  0.001462169    2.001    0.500
       109  -8.5881     85.6778    209.7219   1.2864660156e+02   1.9466698447e+01    0.2805626      0.15524  89.50  0.001168466    2.500    0.600
       110  -8.6795    139.2547    208.1089   1.1635769926e+02   1.0661326490e+01    0.2984939    0.2142145  88.70 0.0008136903    1.896    0.473
       111  -7.8963     46.3029    209.6108   1.3716176993e+02   2.5015786668e+01    0.1413748   0.08017197  72.99 0.0007014113    1.801    0.445
       112  -9.3432    246.2224    207.3425   9.4314932180e+01  -7.8588032691e+00    0.2732049    0.1790859 -34.27 0.0006604244    1.389    0.280
       113  -8.2793    156.3907    208.1787   1.1256072864e+02   7.4908126457e+00    0.1969383    0.1377231 -64.37  0.000647941    1.721    0.419
       114  -8.3343     62.1405    217.2343   1.3464340628e+02   2.1220218226e+01    0.2810999    0.1407815  68.60  0.001223999    2.362    0.577
       115  -9.1661     99.4967    206.2366   1.2505813442e+02   1.8045543251e+01    0.4477969    0.2604857  82.86  0.001379745    2.570    0.611
       116  -8.9118    217.1601    205.2847   9.9336621456e+01  -2.8831237076e+00    0.3826301    0.2239197  12.72  0.001106525    2.520    0.603
       117  -8.6491     57.1721    206.0952   1.3446573428e+02   2.4416335868e+01    0.3604893    0.1751402  74.34  0.001464717    2.820    0.645
       118  -8.1036     11.5396    206.5079   1.4393731482e+02   2.9565061917e+01    0.1220304   0.08968659  82.87 0.0004733906    1.049    0.047
       119  -9.3699    195.0956    203.5599   1.0342754894e+02   1.2861667738e+00    0.4219373    0.3332068 -45.77  0.001373629    1.335    0.251
       120  -9.1868    192.4847    197.2382   1.0275141357e+02   2.9755049446e+00    0.3982854    0.2872351 -62.69  0.001259654    1.804    0.446
       121  -8.9675    183.9021    204.1703   1.0587995064e+02   3.2056366719e+00    0.3263803    0.2416015  72.01 0.0008603443    1.997    0.499
       122  -8.6011    131.4565    204.3819   1.1749014703e+02   1.2891450749e+01    0.3235047    0.2045684  73.73 0.0008570884    2.341    0.573
       123  -8.1706    109.0306    205.0674   1.2271410238e+02   1.6707148954e+01    0.2296172    0.1607729  77.96 0.0006882385    1.670    0.401
       124  -9.4286    250.1300    202.0065   9.2612793549e+01  -7.5809936499e+00    0.4256056    0.1685627 -38.31  0.001615737    2.280    0.561
       125  -9.5688    164.0252    203.1361   1.0997311432e+02   7.1078031996e+00    0.4855092    0.2742743  56.49  0.001029514    2.222    0.550
       126  -8.7017    211.2093    202.2984   9.9930228515e+01  -1.3310882738e+00    0.2691139    0.2229464 -70.69  0.000982028    1.692    0.409
       127  -8.1316     41.3033    202.9621   1.3753911395e+02   2.7144525004e+01    0.2136347   0.08606964  87.47   0.00070395    4.217    0.763
       128  -9.1639    243.0830    200.9290   9.3654707519e+01  -6.3334227691e+00    0.3028742    0.1896307 -45.30  0.001037773    1.679    0.405
       129  -7.9406    222.3942    202.1408   9.7722882407e+01  -3.2083964553e+00    0.1860311    0.1220124 -50.14 0.0008542168    1.757    0.431
       130  -8.8266    140.4110    201.1262   1.1489487963e+02   1.1956756372e+01    0.3308932    0.2329132 -88.43 0.0009899604    1.996    0.499
       131  -8.6676     80.1491    201.4859   1.2878462783e+02   2.2210520782e+01    0.3197165    0.1838378  73.57  0.001399102    2.190    0.543
       132  -7.7416     73.2951    202.6239   1.3048420640e+02   2.2966762016e+01    0.1475328   0.09279513  75.08 0.0005669793    1.744    0.427
       133  -9.0256    236.9889    198.6433   9.4316177116e+01  -4.9911955211e+00    0.3080211    0.1782787 -45.11  0.001047744    1.776    0.437
       134  -9.4555    149.6633    198.8180   1.1238459212e+02   1.0723153522e+01    0.4456722    0.3054301  86.03  0.001399648    2.306    0.566
       135  -8.8409    123.9181    199.2855   1.1836145972e+02   1.5393057357e+01     0.354647    0.2342985  87.77  0.001473876    2.163    0.538
       136  -9.3664    112.8069    198.3882   1.2079021723e+02   1.7575040337e+01     0.479408    0.2794585  71.12  0.001670112    2.543    0.607
       137  -9.1805     88.5720    198.3508   1.2641387164e+02   2.1635896355e+01    0.4252974    0.2537153 -88.88  0.001490286    2.148    0.534
       138  -8.4687    177.0986    199.0879   1.0636952532e+02   5.4774537446e+00    0.2591396     0.228117  89.26 0.0008155027    1.397    0.284
       139  -9.2033     61.6250    197.3129   1.3244096143e+02   2.5858695750e+01    0.4573846    0.2404313  67.32  0.001687175    2.279    0.561
       140  -8.2872    202.2034    197.8691   1.0087580457e+02   1.0815443266e+00     0.201403    0.1909416 -72.29  0.000560406    1.272    0.214
       141  -9.2280     12.6892    197.1274   1.4296460442e+02   3.1549123477e+01    0.3773568    0.1393923 -89.10  0.001538007    3.081    0.675
       142  -8.6698    215.9633    195.6386   9.7699463532e+01  -9.4486768933e-01    0.2496623    0.1870181 -56.67 0.0008019213    1.647    0.393
       143  -8.8989    185.2903    195.0064   1.0382960020e+02   4.7561866804e+00    0.2669669    0.2407657 -72.24 0.0005776196    1.307    0.235
       144  -8.1362    133.1644    196.1852   1.1568802561e+02   1.4396260762e+01    0.2064308    0.1687387  82.41 0.0005017142    1.372    0.271
       145  -8.6744    224.6546    194.2950   9.5762752758e+01  -2.1984003899e+00    0.2897812    0.1944271 -55.37  0.001004359    1.890    0.471
       146  -7.5556    209.3002    195.6501   9.9014651633e+01   2.2681740934e-01    0.1343977    0.1134788 -82.49 0.0007037679    1.691    0.409
       147  -9.0900    160.9040    194.3535   1.0902593306e+02   9.5389143309e+00    0.3498777    0.2600649  81.21  0.001009409    1.901    0.474
       148  -8.9619     43.8469    193.5799   1.3598362731e+02   2.9018812682e+01    0.4192612    0.2116464  70.66  0.001872867    2.374    0.579
       149  -9.3302    245.6774    193.6024   9.1777433859e+01  -5.5113101894e+00    0.2534008     0.232794 -81.59  0.001051975    1.559    0.359
       150  -8.5513     77.0063    193.9019   1.2846466343e+02   2.4467240030e+01    0.2384598    0.1819652 -79.70 0.0005806805    1.230    0.187
       151  -8.1623    230.9341    194.3126   9.4587093488e+01  -3.2562335227e+00    0.1861464    0.1667425  -8.14 0.0005671359    1.028    0.027
       152  -8.1643    198.9822    191.9501   1.0036823274e+02   2.8025154086e+00    0.2123619    0.1785041  89.91 0.0005327656    1.651    0.394
       153  -8.0385    178.9009    191.5838   1.0452829012e+02   6.6619287912e+00    0.2299053    0.1749407 -52.53 0.0004121531    1.401    0.286
       154  -8.3619    172.2735    191.8274   1.0601955251e+02   7.8844928704e+00    0.2688975    0.2231886 -84.03  0.000920226    1.528    0.346
       155  -7.6095    205.2997    191.6954   9.9033335834e+01   1.6922872086e+00     0.133335    0.1148309 -88.29 0.0002900371    1.590    0.371
       156  -9.0173    139.3862    190.4007   1.1319934027e+02   1.4526174888e+01      0.37298    0.2692175  87.32  0.001089851    1.883    0.469
       157 -10.4931     92.1923    188.6180   1.2409551487e+02   2.3356734015e+01     1.021759    0.4168982  52.58  0.003678721    2.862    0.651
       158  -8.4999     21.1806    190.9996   1.4065773305e+02   3.2117885366e+01    0.3428079    0.1407834  69.23  0.001381493    3.246    0.692
       159  -9.0631    129.1907    188.6452   1.1526955208e+02   1.6847677335e+01    0.3368517    0.2516496 -84.42 0.0009806994    1.618    0.382
       160  -8.4040    237.1752    188.4914   9.2294007970e+01  -3.2672824582e+00     0.238125       0.1708 -35.80 0.0005311357    1.272    0.214
       161  -8.8826    216.4554    188.0862   9.6103235893e+01   3.6247100528e-01    0.2562035    0.2365145 -63.80 0.0007696374    1.303    0.232
       162  -9.2399    156.0250    187.5256   1.0881773767e+02   1.1956755382e+01     0.391886    0.2425196 -60.47 0.0009617546    1.882    0.469
       163  -8.2570    148.2517    189.2289   1.1092638206e+02   1.3089396914e+01    0.2049414    0.1724323  81.74 0.0004337733    1.364    0.267
       164  -9.8276    120.9049    186.8185   1.1691037658e+02   1.8803896524e+01     0.617761    0.3187822 -71.43  0.002206513    2.896    0.655
       165  -8.8815     34.3676    188.1641   1.3749923181e+02   3.1388014325e+01    0.3443524    0.1686193  78.89  0.001172849    2.509    0.601
       166  -7.9951    242.7594    187.9747   9.1191256634e+01  -4.0877657954e+00    0.1771775    0.1010558 -37.62 0.0008740658    1.580    0.367
       167  -8.2141    230.4899    187.4553   9.3312467269e+01  -1.9650514067e+00    0.2244897    0.1220029 -49.54 0.0007078931    2.044    0.511
       168  -8.7457    191.4691    187.5893   1.0105546109e+02   5.0711479563e+00    0.3004429    0.2282388 -82.78 0.0008952096    2.012    0.503
       169  -9.1125     54.7205    186.9693   1.3272689885e+02   2.9231444355e+01    0.4288066    0.2313737  77.11  0.001850402    2.358    0.576
       170  -8.8067    249.4072    185.8653   8.9612856422e+01  -4.7857695909e+00    0.2731683    0.2030595 -57.68 0.0009852698    1.756    0.431
       171  -8.9993    164.9470    186.2561   1.0655103248e+02   1.0487933149e+01    0.4142845    0.2161666 -47.64   0.00137527    1.951    0.488
       172  -9.2876    109.5027    186.1761   1.1953468645e+02   2.1004323835e+01    0.3988034    0.2616225  76.43  0.001079558    2.014    0.504
       173  -8.8549    182.7951    185.0315   1.0238255360e+02   7.2585871973e+00    0.3314341     0.201548 -48.66 0.0008119112    1.690    0.408
       174  -8.8647    210.0685    184.5009   9.6633374507e+01   2.1951871495e+00    0.2729285    0.1981298 -41.22  0.000500701    1.335    0.251
       175  -8.5585    202.8247    184.6982   9.8126718219e+01   3.4999194342e+00    0.2542113    0.1862488 -69.69 0.0007581494    1.967    0.492
       176  -9.1122     66.8311    184.5522   1.2955510297e+02   2.8181977868e+01    0.3990259    0.2374675  61.36  0.001146706    1.821    0.451
       177  -8.8013    224.2836    183.6785   9.3714885749e+01  -2.0634312802e-01    0.2632495    0.2224726 -73.76 0.0008140281    1.612    0.380
       178  -8.5629    197.1071    183.7053   9.9095212374e+01   4.7743683532e+00     0.250999    0.1971273 -56.80 0.0009360072    1.433    0.302
       179  -9.0169    174.1830    183.5115   1.0394954375e+02   9.2597080838e+00    0.2993305    0.2341231 -70.33 0.0008151641    1.575    0.365
       180  -8.8247    241.2636    181.7750   9.0225235707e+01  -2.7620778401e+00     0.391424    0.2572631 -67.44  0.001729011    2.835    0.647
       181  -9.0572     44.5366    182.4884   1.3453835582e+02   3.1568308059e+01    0.3618016    0.2086291  70.98  0.001189735    1.930    0.482
       182  -8.0251      2.1094    183.6788   1.4404438674e+02   3.5536505233e+01    0.2052996   0.08486062  40.14  0.001068434    2.459    0.593
       183  -9.1916    147.5420    180.6221   1.0942652409e+02   1.5154206219e+01     0.373275    0.2768774  89.54  0.001113894    1.823    0.452
       184  -7.8441    235.2978    181.7045   9.1279383352e+01  -1.7502218209e+00    0.1254612    0.1077866 -71.56 0.0004577764    1.568    0.362
       185  -9.7294     25.5299    178.8236   1.3848872971e+02   3.4525423744e+01    0.6119703    0.2563304  80.38  0.002214359    3.849    0.740
       186  -8.5452    137.5847    179.3483   1.1152920639e+02   1.7390664225e+01    0.3262139    0.2293364  84.93 0.0009516113    2.017    0.504
       187  -9.5060    191.5668    178.4086   9.9160958008e+01   6.9100851775e+00    0.3294364    0.2739565  80.27 0.0006130682    1.567    0.362
       188  -8.1177    169.4687    178.9956   1.0407741094e+02   1.1158823767e+01    0.2262128    0.1480284 -50.25  0.001011418    1.563    0.360
       189  -9.2346     35.9321    176.8451   1.3587074771e+02   3.3903874139e+01    0.5465691    0.2405643  84.51  0.001966362    3.667    0.727
       190  -9.5387    248.5031    176.5076   8.7912376423e+01  -3.0268440109e+00    0.4580396     0.270549 -51.74  0.001979819    1.933    0.483
       191  -8.5246    250.5187    172.8929   8.6846765483e+01  -2.7240459614e+00    0.2567502    0.1406129 -42.52 0.0006436332    1.640    0.390
       192  -8.5398    205.2973    177.8326   9.6218225154e+01   4.3812028869e+00    0.2710201    0.2191464 -68.80  0.001100749    1.569    0.363
       193  -8.4988    129.2968    177.4374   1.1315119850e+02   1.9430257018e+01    0.3214682    0.2112941  88.17 0.0008391967    2.368    0.578
       194  -8.4692    231.1851    176.9754   9.1070235964e+01  -1.8471660021e-01    0.2071038    0.1771231 -53.36 0.0005622295    1.303    0.233
       195  -8.3554    217.6288    177.2029   9.3661704996e+01   2.2018490368e+00    0.2164966    0.1708792 -55.30 0.0005864181    1.421    0.296
       196  -9.0830    183.1654    176.2174   1.0049419340e+02   9.0194298992e+00     0.291955    0.2410107 -62.48 0.0006504697    1.357    0.263
       197  -9.4559    104.4136    174.9457   1.1880754954e+02   2.4588831286e+01    0.5712962    0.3103434  66.27  0.002054297    2.888    0.654
       198  -8.1710     97.9783    177.5081   1.2085813729e+02   2.5073442441e+01    0.2178514    0.1448734  37.77 0.0009348046    1.566    0.362
       199  -8.7035     89.0633    176.8177   1.2295280388e+02   2.6712760248e+01    0.3107326    0.2023839  82.19 0.0008640043    1.953    0.488
       200 -10.0610     57.2516    173.2377   1.3028172961e+02   3.2227697582e+01    0.8425444    0.3979929  84.40    0.0026987    4.332    0.769
       201  -8.8545     13.0267    176.6847   1.4107745881e+02   3.6210986324e+01    0.2717274     0.144614  75.77  0.001038495    1.954    0.488
       202  -7.6406    211.5545    176.4997   9.4697937947e+01   3.4624713481e+00    0.1416577    0.1342511 -37.08 0.0001756222    1.087    0.080
       203  -9.3017    158.9335    175.2660   1.0570216160e+02   1.4088514859e+01    0.4281326    0.2905698  76.93  0.001046657    2.308    0.567
       204 -10.7053     75.8516    170.2884   1.2519050565e+02   3.0361768801e+01     1.248965    0.4785788 -74.04  0.003528312    4.748    0.789
       205  -7.6425    241.2961    174.3015   8.8715512074e+01  -1.4402271562e+00    0.1353703   0.09902012  -8.23 0.0002580569    1.576    0.366
       206  -8.3287    224.4925    174.0896   9.1716469603e+01   1.5409319166e+00    0.2153085    0.1294299 -40.76 0.0006444104    1.544    0.352
       207  -9.3755    175.8204    172.4914   1.0131569344e+02   1.1283856721e+01    0.4034797    0.2714899 -54.06 0.0009047649    1.576    0.365
       208  -8.4461    143.2027    173.0591   1.0893977204e+02   1.7737982141e+01    0.2894075    0.1951208  69.61  0.000866415    2.005    0.501
       209  -8.8065    134.7339    171.8423   1.1073337006e+02   1.9690703868e+01    0.2835869    0.2105666 -75.59 0.0007806167    1.593    0.372
       210  -9.4432    121.3699    170.4795   1.1374629610e+02   2.2582384792e+01    0.4096996    0.2783509 -82.25  0.001060655    1.954    0.488
       211  -9.2021     45.0755    170.7307   1.3292148068e+02   3.4343430521e+01    0.4637826    0.2159752 -80.66  0.001328566    2.428    0.588
       212  -8.4381    230.5361    170.3919   8.9837145081e+01   1.1453000126e+00    0.2408613    0.1866835 -54.27 0.0007380204    1.418    0.295
       213  -8.4415    205.8046    170.3953   9.4560345804e+01   5.7574473338e+00    0.2848495    0.1813625 -56.78 0.0008143333    1.860    0.462
       214  -8.2967    237.1227    169.6773   8.8507743984e+01   1.1325576807e-01    0.2353011    0.1727678 -47.89 0.0006820005    1.358    0.264
       215  -8.3265    198.4193    170.3022   9.6036798680e+01   7.2185451596e+00    0.2434038    0.1813454  65.85 0.0007070952    1.740    0.425
       216  -9.1239    167.4898    168.9435   1.0242676513e+02   1.3751259499e+01    0.3949991    0.2823542  85.00  0.001106024    2.150    0.535
       217  -8.4554    149.8659    169.7701   1.0668104321e+02   1.7157201251e+01    0.2817746    0.2013388 -82.65 0.0008025134    1.958    0.489
       218  -8.2430    244.4824    169.1033   8.7107766094e+01  -1.0493407148e+00     0.206485    0.1197878 -40.83 0.0005035586    1.533    0.348
       219  -8.2427     88.8406    168.7715   1.2163651971e+02   2.8719593420e+01    0.2830229    0.1816271  89.36 0.0007914057    2.042    0.510
       220  -8.3507    218.9557    168.3097   9.1556481239e+01   3.6599343300e+00    0.1936579    0.1837279 -10.22  0.000506258    1.048    0.046
       221  -8.8086    185.0835    166.9702   9.8124251485e+01   1.0581204515e+01    0.3287667    0.1995131 -53.09 0.0007828499    1.761    0.432
       222  -8.6130    111.4820    167.5923   1.1566353317e+02   2.5110253088e+01    0.3325095    0.2269862  82.72  0.001034226    1.996    0.499
       223  -8.8139     13.0832    167.5690   1.4016119055e+02   3.8339633405e+01    0.2579646    0.1102105  72.83  0.001025116    3.368    0.703
       224  -8.9296    191.9200    166.6805   9.6611940129e+01   9.2578876322e+00    0.2831594    0.2118036 -54.65 0.0006637014    1.415    0.293
       225 -10.1393     95.1893    163.2509   1.1900921944e+02   2.9030165600e+01    0.8655711    0.4697624  77.06  0.002636697    4.276    0.766
       226  -9.2072     20.3216    165.9289   1.3829380333e+02   3.8084148103e+01    0.3651155    0.1792957  70.05  0.001587425    2.545    0.607
       227  -9.8724    136.7533    164.4721   1.0873288983e+02   2.1020443178e+01    0.6513161    0.3314804  59.33  0.002225055    2.847    0.649
       228 -10.1715    246.3013    162.3118   8.5413085365e+01  -1.4043725257e-01     0.629836    0.2512458 -44.38  0.002031962    2.279    0.561
       229  -9.8052    250.2029    157.9738   8.3878455233e+01  -3.0144979461e-02    0.3667741    0.1720966 -40.18 0.0008056744    1.852    0.460
       230  -8.5462    233.8336    165.0979   8.8146262060e+01   1.5384059691e+00    0.2101476    0.1784238 -53.13 0.0005971916    1.251    0.201
       231  -8.7809    159.4509    164.3782   1.0329344547e+02   1.6420748815e+01    0.3094497    0.2448953  89.45 0.0006186509    1.609    0.378
       232  -9.5396     33.5184    163.4090   1.3480396217e+02   3.7397429376e+01    0.5909892    0.2403183  55.83  0.002336687    3.246    0.692
       233  -8.1959    240.0407    164.2989   8.6890071768e+01   5.8521014573e-01    0.1816296    0.1723238 -28.40 0.0004887281    1.094    0.086
       234  -8.7629    212.9346    163.6075   9.1714890014e+01   5.7227467253e+00     0.281364    0.1985308 -48.40 0.0006142404    1.400    0.286
       235  -8.9334     60.6081    160.4011   1.2750689257e+02   3.4943539075e+01    0.3601419    0.2213124  77.90  0.001383835    2.093    0.522
       236  -8.5759    204.7070    162.7952   9.3157895966e+01   7.4961804547e+00    0.2537216      0.16938 -39.42 0.0004504354    1.433    0.302
       237  -9.3706      3.3453    162.4205   1.4189091347e+02   4.0329004991e+01    0.3639863    0.1758269  58.81  0.001794648    2.317    0.568
       238  -9.0261    177.5257    160.6468   9.8393188275e+01   1.3490052494e+01     0.333306     0.254837 -75.32 0.0008007074    1.680    0.405
       239  -8.9328    151.6071    161.1504   1.0443939475e+02   1.8773363097e+01    0.3381266    0.2525054 -79.32 0.0009143822    1.725    0.420
       240  -8.5538    227.3669    159.0435   8.8038644981e+01   3.8605344211e+00    0.2910478    0.1949267 -56.39 0.0008017634    1.694    0.410
       241  -8.0397    237.0200    158.7367   8.6260458524e+01   2.1457569059e+00    0.1916917    0.1733331 -37.78 0.0007014745    1.048    0.046
       242  -8.6869    196.8741    158.1811   9.3739264980e+01   1.0014508565e+01    0.2671385    0.2053714 -68.39  0.000794764    1.592    0.372
       243  -9.1930    167.6570    157.3980   9.9883144621e+01   1.6268943293e+01    0.3843839    0.2746307 -74.80 0.0009633016    1.898    0.473
       244  -8.4198    127.8948    158.6258   1.0970457385e+02   2.4159259727e+01    0.3104495    0.2036994 -70.64 0.0009865735    1.879    0.468
       245  -9.6657    105.7561    158.0424   1.1525931341e+02   2.8470982189e+01    0.4702637    0.3242295  80.66  0.001117959    1.960    0.490
       246  -8.4320    188.1028    157.7197   9.5465202672e+01   1.1916728333e+01    0.2709315    0.2011552 -53.87 0.0006656253    1.389    0.280
       247  -8.7880     79.1151    158.4926   1.2234012059e+02   3.2785313987e+01    0.2546223    0.1942215  16.29  0.001271161    1.704    0.413
       248  -9.3950     81.7703    154.7644   1.2095788531e+02   3.3299976266e+01    0.4723441    0.2915549  77.77  0.001436279    2.409    0.585
       249 -10.3697    215.3864    153.7534   8.9122535313e+01   7.1878263673e+00    0.5900777    0.3572184 -66.91 0.0002410743    2.713    0.631
       250  -8.8072    157.7433    156.1043   1.0188475023e+02   1.8644700965e+01    0.3542392    0.2446329 -61.66  0.001123342    1.626    0.385
       251  -9.3594    119.5243    155.3565   1.1114326444e+02   2.6568416964e+01    0.4749402    0.3042152 -81.35  0.001505309    2.344    0.573
       252  -9.0655     49.3639    155.0970   1.2960958536e+02   3.7661710818e+01    0.3590375    0.2188581  78.00  0.001298696    2.069    0.517
       253  -8.6027    242.7163    155.0449   8.4517276980e+01   1.8056990052e+00    0.2015316    0.1733577 -55.50 0.0003640307    1.225    0.183
       254  -8.5577    239.7209    153.3005   8.4659767210e+01   2.6643451352e+00    0.1981151    0.1536596 -58.55 0.0005148716    1.416    0.294
       255  -7.7971    204.5779    155.5147   9.1601088418e+01   8.9948348630e+00    0.1482173    0.1386804 -45.77 0.0001163751    1.045    0.043
       256  -8.3123    144.6149    155.0216   1.0478265561e+02   2.1631892288e+01     0.263304    0.2148926  65.10 0.0008470166    1.338    0.253
       257  -9.6175    132.7591    153.0311   1.0727789836e+02   2.4520508793e+01    0.4937481    0.3472323  82.46  0.001327179    2.042    0.510
       258  -8.8653    133.7770    148.2190   1.0595510342e+02   2.5450748170e+01    0.3328507    0.2424406 -44.37 0.0007896452    1.380    0.275
       259  -9.6775     68.0522    153.7068   1.2443257717e+02   3.5586920314e+01    0.4697881    0.2923564  85.22  0.001642958    2.170    0.539
       260  -9.0666     20.0180    152.7058   1.3681940942e+02   4.1263368432e+01    0.1705006    0.1459062 -88.64 0.0005225087    1.100    0.091
       261  -8.3261    182.4671    151.4159   9.5263302156e+01   1.4441276503e+01     0.278138    0.1408104 -55.24 0.0008253077    2.315    0.568
       262  -9.0431     98.4477    150.9282   1.1575328442e+02   3.1503710508e+01    0.3605435     0.246874 -88.35  0.001032855    1.951    0.487
       263  -9.6220     29.1243    150.4087   1.3420198891e+02   4.0979334243e+01     0.497135    0.2452026  79.72  0.001842033    3.123    0.680
       264  -8.9125      3.3927    151.3685   1.4076446927e+02   4.2898984456e+01    0.2520204    0.1677993  78.57  0.001537529    1.475    0.322
       265  -9.6276    248.7345    149.4011   8.2355420235e+01   1.7674972990e+00    0.3381223    0.1909506 -40.80 0.0008163593    1.537    0.349
       266  -9.2071    247.0800    143.6660   8.1431567720e+01   3.1034246657e+00    0.3053845    0.1928612 -31.50 0.0006205921    1.557    0.358
       267  -8.0945    250.3933    140.8137   8.0313927407e+01   3.0258368144e+00    0.2028878    0.1590885 -39.04 0.0005359737    1.109    0.098
       268  -9.9170    242.5217    150.1385   8.3527364751e+01   2.7410058287e+00    0.3240277       0.2538  70.77  0.001762848    1.685    0.407
       269  -8.1182    162.8678    150.9431   9.9534225015e+01   1.8722522520e+01    0.2523066    0.1935883  89.82  0.001116851    1.727    0.421
       270  -8.9087    189.3797    150.1360   9.3505353022e+01   1.3250999809e+01    0.3650302    0.2303386 -60.36 0.0008689421    1.917    0.478
       271 -10.1899     39.8625    147.5846   1.3097569045e+02   4.0574162428e+01    0.6375935     0.363281  82.34  0.002404255    2.348    0.574
       272  -8.4558    198.8418    149.0873   9.1324520871e+01   1.1486118114e+01    0.2285269    0.1981782 -71.14 0.0005183402    1.280    0.219
       273 -10.1969     89.1707    146.3175   1.1732343542e+02   3.4203241712e+01    0.6906946    0.4064339  87.34  0.002421711    3.239    0.691
       274  -9.3885    233.5275    147.3528   8.4463218664e+01   4.9196098845e+00    0.3334984    0.1278072 -39.85  0.001188565    2.382    0.580
       275  -9.0095     78.2778    147.0897   1.2045391420e+02   3.5733116366e+01    0.3760279    0.2296517  89.45  0.001065656    2.486    0.598
       276 -10.5401     54.5031    143.9804   1.2642276691e+02   3.9770490241e+01    0.9025841    0.4915041  86.03  0.002999996    3.110    0.678
       277  -9.3950     57.4928    135.5016   1.2406404373e+02   4.1470993689e+01    0.3362936     0.182956  19.30  0.001455707    2.536    0.606
       278  -8.0237    223.2770    146.9634   8.6188228787e+01   6.9643137390e+00     0.201865    0.1743055 -42.50 0.0003882085    1.062    0.058
       279 -10.2303    149.0111    144.9198   1.0143506905e+02   2.3042190769e+01    0.5949997    0.4010749 -84.59   0.00179051    2.394    0.582
       280  -9.6767    139.1285    145.1211   1.0391067763e+02   2.5074922868e+01    0.5021254    0.3359549 -76.57  0.001276749    2.144    0.534
       281  -9.5584    139.1538    138.2579   1.0231012705e+02   2.6663119724e+01    0.4356484    0.2998689  23.94  0.001828152    1.889    0.471
       282 -10.3222    106.7147    144.1472   1.1211133580e+02   3.1685050965e+01     0.808615    0.5261434 -83.58   0.00233974    2.291    0.564
       283  -9.3417     13.1504    146.1408   1.3775121759e+02   4.3394498680e+01    0.3600121    0.1992846  78.17  0.001179427    2.130    0.531
       284  -7.8989    206.5726    146.5003   8.9216537073e+01   1.0413696235e+01      0.14905     0.138641 -45.32 0.0001892612    1.021    0.020
       285  -8.3162    175.4860    146.0791   9.5571739778e+01   1.7087821958e+01    0.2362788     0.150151 -48.16 0.0005294186    1.547    0.354
       286  -8.7252    240.1909    145.2150   8.2881300374e+01   4.0756783764e+00    0.2044033    0.1741338 -27.95 0.0004510787    1.139    0.122
       287 -10.5172    242.6872    143.3273   8.2071956682e+01   3.9646797583e+00     0.742461    0.2190848 -42.44  0.002571451    2.957    0.662
       288  -9.7932    125.1490    142.9449   1.0697119939e+02   2.8440062362e+01    0.6077969     0.393201 -84.61  0.001668802    2.589    0.614
       289  -8.8664    165.3725    143.9666   9.7358017297e+01   1.9739852233e+01    0.2842621    0.2484111  77.66 0.0005784281    1.265    0.210
       290 -10.8068     68.8088    141.8122   1.2206264544e+02   3.8416643211e+01    0.6022947    0.5198172 -83.66  0.002293082    1.155    0.134
       291 -10.4519     68.3852    134.2073   1.2069977650e+02   4.0336680731e+01    0.6465012    0.2871724  34.20  0.002637786    2.450    0.592
       292  -7.7053    194.2872    143.6599   9.1023570296e+01   1.3568422671e+01    0.1544036    0.1189219 -76.01 0.0003029511    1.639    0.390
       293  -9.4421      2.7583    141.8590   1.3988211589e+02   4.5158816676e+01    0.3796572    0.1871427  79.59  0.001530466    2.519    0.603
       294  -8.3864    182.0931    141.7802   9.3142899637e+01   1.6585509619e+01    0.2700662    0.2014214 -57.46 0.0005293868    1.405    0.288
       295  -9.8407     23.4133    138.2606   1.3402039510e+02   4.4418714613e+01    0.5394361    0.2843651  75.47   0.00191292    2.779    0.640
       296  -8.6525    172.3218    138.5426   9.4521199757e+01   1.9416293871e+01    0.3284591    0.2468963 -82.43 0.0007871551    1.767    0.434
       297  -9.6987    233.7313    135.7816   8.1946736738e+01   7.0618779818e+00    0.4763737     0.290155 -71.70  0.001575524    2.842    0.648
       298  -7.5874    218.5569    138.5484   8.5196677123e+01   9.5443351570e+00    0.1463671    0.1336177 -50.69 0.0001089842    1.039    0.037
       299  -8.4395    207.5154    138.0259   8.7133136388e+01   1.1926134020e+01    0.2601388    0.1937871 -71.87  0.000706131    1.675    0.403
       300  -8.6736    197.6509    137.5171   8.8940667446e+01   1.4120836554e+01    0.2954136    0.2125166 -68.31 0.0008316299    1.714    0.416
       301  -8.8129    150.6133    136.4167   9.9052773288e+01   2.4634963047e+01    0.4842811    0.3090909  12.68  0.001674852    3.053    0.672
       302 -10.4130     83.3577    133.1077   1.1618910843e+02   3.8368604181e+01    0.7144843    0.3877489 -58.89  0.001446967    1.778    0.438
       303  -8.9457     85.5278    122.6487   1.1322502941e+02   4.0524333212e+01    0.4523478     0.267134   9.70  0.001659785    3.157    0.683
       304  -9.5652     39.1852    136.3633   1.2939017622e+02   4.3369760402e+01    0.3035558    0.1986045  81.19 0.0009634043    1.885    0.469
       305  -8.8843    250.6556    129.7956   7.7983535738e+01   4.9663216535e+00    0.4570313    0.1129483 -40.89  0.001469765    3.503    0.715
       306  -8.9698    248.2963    135.2546   7.9484136720e+01   4.4121583643e+00    0.3010249    0.1960202 -44.99 0.0007698784    1.337    0.252
       307  -8.4712    246.9898    130.5166   7.8693850919e+01   5.5140268313e+00    0.2580917    0.1658243 -53.31 0.0005750818    1.506    0.336
       308  -7.5996    187.9888    135.9864   9.0552197838e+01   1.6529396885e+01    0.1829465    0.1758696 -54.26 0.0004637852    1.002    0.002
       309  -8.1983    162.6711    136.2226   9.6159064809e+01   2.2045406520e+01    0.2460321    0.1920528 -64.24 0.0007055662    1.397    0.284
       310  -8.6785    179.7204    134.1397   9.1864665578e+01   1.8735409012e+01    0.3205895    0.1994439 -55.52 0.0009573819    1.729    0.422
       311  -9.0505    237.4880    133.4749   8.0829778728e+01   6.7683496039e+00    0.2557856    0.1155542 -50.12  0.000817763    2.208    0.547
       312  -9.1945    112.8765    133.3676   1.0801888707e+02   3.3118358411e+01    0.3457665    0.2558092 -85.36  0.001026466    1.780    0.438
       313  -9.9491    132.1288    131.2783   1.0242910394e+02   2.9747437590e+01    0.5341008    0.3646352 -78.94  0.001060701    2.147    0.534
       314 -10.4909     98.2398    130.1933   1.1132365678e+02   3.6573057944e+01    0.8097777    0.3630947 -52.99  0.001788115    2.130    0.531
       315  -9.0767    143.0341    131.6912   9.9771790367e+01   2.7341945842e+01    0.3208558    0.2479898 -71.82 0.0008558336    1.512    0.339
       316  -9.5191    153.1039    128.4434   9.6526533302e+01   2.5876337054e+01    0.6749871     0.262695 -48.47  0.001841587    2.592    0.614
       317 -10.4699     73.4063    128.6427   1.1810002157e+02   4.0965708229e+01    0.7023549    0.3526746 -54.11  0.002241924    1.792    0.442
       318 -10.3605     12.9009    128.7329   1.3554416471e+02   4.7511430714e+01    0.6412499    0.3072708 -83.44   0.00296517    2.336    0.572
       319  -7.9984    220.7326    129.9445   8.2896049933e+01   1.0773867929e+01    0.1910468    0.1188864 -40.89 0.0005002424    1.485    0.327
       320  -8.2303    204.6384    130.3496   8.5932048939e+01   1.4078035364e+01    0.2254766    0.1697031 -74.33 0.0005774372    1.635    0.389
       321  -7.9103    192.9654    130.2534   8.8194101053e+01   1.6631621138e+01    0.2193635    0.1596309 -65.63  0.000564053    1.590    0.371
       322  -9.1818    168.2419    129.6045   9.3301118091e+01   2.2258797604e+01     0.325139    0.2676448 -67.73 0.0007631092    1.315    0.240
       323  -7.8913    211.5101    129.0124   8.4342190515e+01   1.2879885892e+01    0.2116778    0.1192432 -61.74 0.0008083048    2.389    0.581
       324 -10.5209     59.9364    124.9466   1.2128772989e+02   4.3709070553e+01    0.7339993    0.4448973  83.29  0.002426298    2.901    0.655
       325 -10.7867     44.9957    123.6061   1.2546038834e+02   4.5811351312e+01     1.075199    0.5811607  80.79  0.003794309    4.125    0.758
       326  -8.3681     26.1952    129.6214   1.3195940288e+02   4.6232162341e+01     0.159165    0.1233421  -3.64 0.0009500886    1.668    0.401
       327  -9.9549    117.7344    125.1225   1.0472953611e+02   3.4103016380e+01    0.5676079    0.3942187  81.17  0.001606435    2.220    0.549
       328 -10.3586     28.5198    122.5488   1.3013661261e+02   4.7698011182e+01    0.7007798    0.3706743  79.36  0.002782873    3.502    0.714
       329  -8.9800     27.0347    113.8339   1.2905588400e+02   4.9861283656e+01    0.2591961    0.1606238  -8.26  0.001288896    2.250    0.556
       330  -8.1349    228.1937    125.2251   8.0572131698e+01   1.0152867486e+01    0.2018876     0.154351 -62.16 0.0005933291    1.358    0.263
       331  -8.7647    179.0834    124.9028   8.9791909250e+01   2.0830118495e+01    0.2914867    0.2502852  79.40 0.0007802699    1.279    0.218
       332  -7.9860    188.5168    124.0313   8.7621391639e+01   1.8896225067e+01    0.2237721    0.1265397 -63.15 0.0008095534    2.486    0.598
       333  -9.1590    158.9133    121.8002   9.3514928810e+01   2.6035998550e+01    0.4037805    0.2824745 -79.99  0.001107006    2.066    0.516
       334  -7.5756    202.7712    121.9966   8.4351180016e+01   1.6151417162e+01    0.1975037    0.1190352 -42.71 0.0002435275    1.569    0.363
       335  -8.8810    171.9184    121.8310   9.0589294736e+01   2.3092947461e+01    0.2649981    0.2212118 -45.48 0.0005509437    1.173    0.147
       336 -10.0329    130.7781    118.4541   9.9595872976e+01   3.2942063463e+01    0.6144027    0.4142992  89.01   0.00177074    2.550    0.608
       337 -10.1044    133.5900    109.1168   9.6446481248e+01   3.4383178550e+01    0.7594603    0.3332484 -44.24  0.002383037    2.261    0.558
       338  -9.6723     70.9958    119.4146   1.1679512008e+02   4.3515507466e+01    0.4377519    0.2519637 -62.46  0.001386272    1.770    0.435
       339  -9.9179    141.5700    118.7136   9.6912590300e+01   3.0561517004e+01    0.4832367    0.3222385 -69.92  0.001094155    2.041    0.510
       340  -9.8900      3.0105    117.0690   1.3668396750e+02   5.0861153978e+01    0.5538796    0.2774782  85.03  0.002564528    2.798    0.643
       341  -7.4583    231.3662    117.6987   7.8398506607e+01   1.0918667948e+01    0.1473168    0.1051464 -75.17 0.0007034243    1.734    0.423
       342  -9.9249    109.1286    114.2092   1.0436780607e+02   3.8280426891e+01    0.5448083    0.3611014 -70.52  0.001442974    2.058    0.514
       343  -8.9479    109.2700    107.6999   1.0263482907e+02   3.9701899686e+01    0.3125177    0.2216753  -2.23  0.001090969    2.113    0.527
       344  -8.5547     59.1727    115.3911   1.1949394838e+02   4.6068192834e+01    0.3110786    0.1962057  -6.29   0.00137178    2.485    0.598
       345  -8.4645    250.1854    115.3066   7.5028533808e+01   7.6479165117e+00    0.1920982    0.1727864  29.05  0.001164512    1.396    0.283
       346  -8.1841    192.8911    115.1426   8.4621061340e+01   1.9713471866e+01    0.2350533    0.1941303 -67.74 0.0004493986    1.262    0.208
       347  -7.8015    153.2993    115.6567   9.3282135369e+01   2.8618727388e+01    0.1617724    0.1235698 -81.44 0.0005954572    1.673    0.402
       348 -10.1467     92.5560    112.3218   1.0866198346e+02   4.1741697126e+01    0.5779542    0.3266056 -63.05  0.001295279    2.176    0.540
       349  -8.7938     92.8249    104.7993   1.0664808674e+02   4.3380608592e+01    0.3769866     0.246063  -2.88  0.001504368    2.579    0.612
       350 -10.0364     78.8285    112.5649   1.1283039131e+02   4.3940705198e+01    0.5828904    0.3948978 -87.04  0.002509717    2.373    0.579
       351  -8.9840     78.3525    105.3066   1.1117854066e+02   4.5661828630e+01    0.4007455    0.2777557  -8.03  0.001442936    2.000    0.500
       352  -7.9046    167.4513    114.5029   8.9750318003e+01   2.5645503152e+01    0.1562418      0.14847 -74.28 0.0001312134    1.036    0.035
       353  -9.7494    122.0619    112.7682   1.0043752570e+02   3.6024144682e+01    0.4035407    0.2828459 -72.29  0.000727124    1.921    0.480
       354  -9.7117    118.8934    107.0591   9.9792844642e+01   3.7922888997e+01     0.402292    0.2159543 -49.10   0.00162216    1.869    0.465
       355  -9.9627     14.1197    111.3293   1.3254176211e+02   5.1446213214e+01    0.4069131    0.2240947  83.77  0.001509002    2.768    0.639
       356  -8.4038    174.8026    112.0951   8.7553601799e+01   2.4454885464e+01    0.2387953    0.2018667 -68.22 0.0004498743    1.237    0.192
       357  -8.5417    159.4499    112.0264   9.0922685721e+01   2.7991072308e+01    0.2803903    0.2180407  75.34  0.000636192    1.510    0.338
       358 -10.0907     66.2793    109.8677   1.1604126838e+02   4.6401340489e+01    0.6247478    0.3348316 -57.04  0.002156841    1.768    0.434
       359 -10.6268    249.3094    103.3433   7.2650383151e+01   9.9223774904e+00    0.6271797    0.2402021 -35.25  0.002369571    2.844    0.648
       360  -8.1872    189.1615    108.1370   8.3650672498e+01   2.1948048696e+01    0.2135971    0.1702034 -67.64 0.0004695705    1.331    0.249
       361  -9.5388    150.7192    103.2830   9.0677915093e+01   3.1790895274e+01    0.5186977    0.3301912 -71.02  0.001593882    2.398    0.583
       362 -10.5326     45.7444    102.3719   1.2083365739e+02   5.0653103687e+01    0.7547151    0.4642899  72.74  0.003183807    3.211    0.689
       363 -10.7328     23.0119    102.7555   1.2824591809e+02   5.2719415637e+01    0.7057562    0.4191787  77.56  0.002815251    2.931    0.659
       364  -8.6089    166.5712    104.3145   8.7351367725e+01   2.7930869959e+01    0.2687006    0.2069182 -64.92 0.0005894518    1.429    0.300
       365  -9.9048      6.7026    102.4710   1.3334311386e+02   5.3925193893e+01    0.4503149    0.2115084 -75.87  0.002188745    2.219    0.549
       366 -10.1907    128.4441    102.2335   9.5940578751e+01   3.6949887773e+01    0.3872235    0.3094864 -73.29  0.001084325    1.513    0.339
       367  -8.2275    130.3677     97.4104   9.4122349149e+01   3.7530655948e+01    0.3070663     0.130933  34.55 0.0009573704    3.338    0.700
       368  -7.9224    175.5108    102.4719   8.4982182412e+01   2.6217909977e+01    0.1533529    0.1453915 -78.52 -2.049986e-06    1.020    0.019
       369 -10.4339    108.6320     98.6492   1.0037330195e+02   4.1773476003e+01    0.7192913    0.4753069  77.16 0.0009273464    2.804    0.643
       370  -8.7682    107.4021     92.7989   9.9091950142e+01   4.3227336519e+01    0.3206346    0.2107754  33.97  0.001273166    1.610    0.379
       371  -8.2451    159.8642    101.1652   8.8016226920e+01   3.0116042685e+01    0.2384501    0.2027357 -81.55 0.0005786257    1.301    0.231
       372  -9.2640     81.8971     99.8909   1.0867898344e+02   4.6296371920e+01    0.3675677    0.2709099 -76.32  0.001008348    1.865    0.464
       373  -9.6339     94.9742     96.6317   1.0380727577e+02   4.4764961193e+01    0.4396667    0.2280803 -54.42 0.0008544893    2.131    0.531
       374 -10.0684     63.7331     95.6760   1.1335431278e+02   4.9920086786e+01    0.5702287    0.3717799 -80.99  0.001653904    2.691    0.628
       375  -8.9390     66.0088     87.6160   1.1046151956e+02   5.1317229413e+01    0.5869927    0.2743573  17.79   0.00210884    3.654    0.726
       376  -9.2743    139.9236    104.8417   9.3709651101e+01   3.3899231787e+01    0.3637342    0.2804398 -82.40 0.0006849414    1.685    0.406
       377  -8.3151    164.8589     94.1484   8.5077954878e+01   3.0325388919e+01    0.2389493     0.199523 -76.13 0.0006217938    1.309    0.236
       378 -10.5402    123.9816     91.3435   9.4104439048e+01   4.0124585385e+01    0.6206238    0.5276001  16.05  0.001452991    1.312    0.238
       379  -8.2050    188.5038     93.5488   8.0180496345e+01   2.4890295118e+01    0.1485305    0.1407119 -79.09 0.0001469605    1.018    0.018
       380  -8.3024    176.2416     93.2393   8.2478772389e+01   2.7823313452e+01     0.212984    0.1709927 -75.63 0.0007524497    1.371    0.271
       381  -9.1541     46.5134     92.6007   1.1828292249e+02   5.2723536761e+01    0.3726607    0.1988628  15.90  0.001737143    2.399    0.583
       382  -9.6028      5.1088     92.1205   1.3205042578e+02   5.6287095814e+01     0.328799    0.2181868  54.72  0.001645775    2.104    0.525
       383  -7.8417    149.7138    110.3254   9.2763182108e+01   3.0557915105e+01    0.1576718    0.1227351 -80.90 0.0003121216    1.605    0.377
       384  -8.0336    157.6390     91.7877   8.6028332031e+01   3.2466204555e+01    0.2103716    0.1384733 -50.34 0.0004192117    1.569    0.363
       385  -9.7777     34.8465     89.7040   1.2154222136e+02   5.4556990727e+01    0.5517209    0.2656122 -66.57  0.002066044    2.465    0.594
       386  -9.2557     23.0025     90.3178   1.2571552565e+02   5.5459191476e+01    0.2810258    0.2134171  -0.84  0.001322061    1.497    0.332
       387  -9.4740    138.9383     91.8381   9.0418742509e+01   3.6748430836e+01    0.4565194    0.2925125 -57.01  0.001346975    1.823    0.451
       388  -8.0880    150.8100     89.3215   8.6903551634e+01   3.4523397849e+01     0.208259    0.1857799 -65.80 0.0004758007    1.167    0.143
       389 -10.1499     86.3770     85.7320   1.0336226300e+02   4.8520845430e+01    0.6667713     0.377795 -47.50   0.00142116    1.741    0.425
       390 -10.0046     48.3497     83.9010   1.1544139960e+02   5.4358501877e+01    0.5622227    0.3538541 -64.19  0.002175696    1.889    0.471
       391  -9.7762    104.9438     83.4607   9.7107012317e+01   4.5564227544e+01    0.4406675    0.3220544 -74.01   0.00103046    2.063    0.515
       392  -8.9654    105.0096     77.4933   9.5311995337e+01   4.6681095596e+01    0.4063351    0.2119445  26.51  0.001520366    2.791    0.642
       393  -8.2368    158.0755     83.8943   8.3805159272e+01   3.3838304052e+01    0.2237348    0.1952778 -82.83 0.0004115383    1.223    0.183
       394  -9.0632    140.8588     82.8147   8.7429697899e+01   3.8027717809e+01    0.4105165    0.1982322 -47.09  0.001035399    2.203    0.546
       395  -7.7365    170.3589     83.6777   8.1179946991e+01   3.0975160102e+01    0.1592816    0.1142187 -80.16 0.0007044047    1.771    0.435
       396  -9.6339     24.7152     80.5590   1.2290885679e+02   5.7386764554e+01    0.3775027    0.2574556 -85.42  0.001197016    2.247    0.555
       397  -9.6527      9.8973     81.1129   1.2827065826e+02   5.8340108290e+01    0.2749717    0.1916511  64.19  0.001150999    2.209    0.547
       398  -8.4252    150.1441     80.6903   8.4679385791e+01   3.6275348756e+01    0.2543938    0.1993026 -57.21 0.0007302252    1.371    0.271
       399  -9.0560    119.3219     80.4199   9.2201081422e+01   4.3213618828e+01     0.327664    0.2422743 -64.26 0.0009285755    1.727    0.421
       400  -8.9701     74.3438     80.3074   1.0563474283e+02   5.1563314776e+01     0.321702     0.231594 -63.20  0.001128447    1.794    0.442
       401  -9.0599     43.4810    109.5308   1.2311487651e+02   4.9270668344e+01    0.3198586    0.1402382  19.71  0.001322081    3.055    0.673
       402  -8.1040    231.0636     80.5064   7.0272157934e+01   1.7581997752e+01     0.187981     0.131279  64.20 0.0004625198    1.492    0.330
       403  -8.2935    166.7666     79.7654   8.0871231808e+01   3.2524988765e+01    0.2454169    0.1804909 -38.62 0.0005764313    1.407    0.289
       404 -10.1202     63.7415     74.4806   1.0746776673e+02   5.4270573168e+01    0.7115055    0.3043707 -57.35  0.002608532    3.489    0.713
       405  -8.1427    157.4048     76.9134   8.2047104211e+01   3.5242532770e+01    0.2105796    0.1179331 -60.14 0.0006460964    2.449    0.592
       406  -9.8381    128.0620     74.9251   8.8304351303e+01   4.2322370049e+01    0.5047409    0.2724033 -41.66  0.002091563    1.904    0.475
       407  -8.5102    140.4837     75.4859   8.5435870008e+01   3.9431740439e+01    0.2526878    0.1955961 -78.51 0.0006796903    1.652    0.395
       408  -8.5930    163.3950     73.4238   7.9853478144e+01   3.4424090748e+01    0.3356396    0.1289508 -43.33  0.001204941    2.640    0.621
       409  -9.6887     82.3920     72.5363   1.0068022414e+02   5.1743309461e+01    0.3988074    0.2738379 -61.13 0.0009340922    2.012    0.503
       410  -8.2087    151.4526     73.5063   8.2388187229e+01   3.7231980448e+01    0.1458861    0.1398029  74.35 0.0001255237    1.014    0.014
       411  -8.6842    115.5779     72.9213   9.0975355894e+01   4.5360555193e+01    0.2479851    0.2210078 -70.43 0.0006667461    1.326    0.246
       412  -8.2199     42.6700     73.1106   1.1450857722e+02   5.7178690721e+01    0.1895091     0.151177 -61.13 0.0006441879    1.458    0.314
       413  -7.6441    175.4603     72.5314   7.7270253453e+01   3.1698403967e+01    0.1455472     0.135892  87.92 4.733062e-05    1.001    0.001
       414  -9.1670    105.8190     71.3099   9.3197015893e+01   4.7639978308e+01    0.3723013     0.193455 -43.23  0.001198691    1.986    0.497
       415  -9.3175     95.1345     71.1228   9.6275498671e+01   4.9734807671e+01     0.393722     0.226423 -53.33 0.0008403592    2.189    0.543
       416  -9.6496     97.3454     61.1181   9.2447250540e+01   5.1033709424e+01    0.4550141    0.3207605 -18.32  0.001883958    1.574    0.365
       417  -9.5050     51.5837     69.9991   1.1039556670e+02   5.6740909083e+01    0.4021405      0.24305 -62.91  0.001506998    2.363    0.577
       418  -9.0762     28.2481     70.8963   1.1919027714e+02   5.9042944065e+01    0.3001856    0.1691625 -14.13  0.001432679    2.171    0.539
       419  -7.8729     32.3204     68.3229   1.1697392618e+02   5.9172384808e+01    0.1718191    0.1146502  -7.56 0.0004223154    1.620    0.383
       420  -9.0590     16.7617     70.3661   1.2332636527e+02   6.0071051618e+01    0.2515088     0.197963 -82.31   0.00112733    1.734    0.423
       421  -7.6510    157.2340     69.9899   8.0179553341e+01   3.6463103476e+01    0.1838397    0.1223501 -38.75  0.000367536    1.563    0.360
       422  -8.9219    147.0578     68.3627   8.1902833609e+01   3.9125549094e+01    0.2616554    0.2053459 -50.77 0.0004709421    1.350    0.259
       423  -8.8792    138.7490     66.6496   8.3286852048e+01   4.1328912107e+01    0.2740916    0.1893466 -49.54 0.0007251122    1.581    0.368
       424  -8.9050    121.5142     65.9190   8.7280148413e+01   4.5294798753e+01    0.2985443    0.2272503 -65.76 0.0007649878    1.715    0.417
       425  -9.0973    110.1903     63.9487   8.9685906191e+01   4.8012342647e+01    0.3068033    0.2315129 -59.48 0.0008317679    1.693    0.409
       426  -8.5410     83.8542     65.1481   9.7888572839e+01   5.2817912744e+01    0.3413206    0.1773423  18.43  0.001254801    3.354    0.702
       427  -8.7725     64.3055     63.6698   1.0393659379e+02   5.6195347992e+01    0.4012963    0.2316483  -6.29    0.0017181    2.758    0.637
       428  -8.8994     37.2051     64.3058   1.1399075092e+02   5.9453652162e+01    0.2777049    0.2074568 -69.91  0.001094016    1.931    0.482
       429  -7.8822    158.0351     61.9514   7.7795079846e+01   3.7570357734e+01    0.1688037    0.1594165  76.19 0.0003553526    1.014    0.014
       430  -9.6883     73.2690     59.6029   9.9550235635e+01   5.5532709673e+01    0.3581789    0.2217922 -49.43 0.0009964417    1.882    0.469
       431  -8.7204    147.3475     59.1967   7.9221671511e+01   4.0519149877e+01    0.2022254    0.1261981 -46.94 0.0005049511    1.732    0.423
       432  -8.0131     89.0240     59.5422   9.4449577591e+01   5.2847272370e+01    0.1963991    0.1274335  41.97 0.0004473591    1.518    0.341
       433  -9.8411     23.4943     56.5635   1.1699825621e+02   6.2181335935e+01    0.3959417    0.2769011 -80.63  0.002137576    2.769    0.639
       434  -8.3472    130.7884     58.0947   8.2612558311e+01   4.4494600967e+01    0.2121256    0.1872483 -75.53 0.0005933358    1.310    0.236
       435  -9.5890      7.5434     57.1873   1.2350639555e+02   6.3235059289e+01    0.2454741    0.2010654  85.28  0.001023433    1.909    0.476
       436  -9.1763    119.2294     55.9027   8.4774365665e+01   4.7378877295e+01     0.275988    0.2318757 -65.89 0.0007032712    1.467    0.319
       437  -9.5551     54.2965     55.5730   1.0487670688e+02   5.8999075794e+01    0.3443498    0.2152856 -53.43  0.001250863    2.010    0.502
       438  -8.4988    139.9410     56.3035   7.9985575744e+01   4.2680125480e+01    0.1991091    0.1749294  54.94  0.000428173    1.064    0.060
       439  -8.5009    105.9358     53.2853   8.7457476390e+01   5.0565212117e+01    0.2278961    0.1900606 -64.16 0.0006708555    1.561    0.360
       440  -7.7687    164.2692     60.0070   7.6047846890e+01   3.6386882433e+01    0.1693094    0.1254645 -38.29 0.0003732825    1.427    0.299
       441  -9.5213     92.3994     50.5009   9.0421456260e+01   5.3639089919e+01    0.3745225    0.2228041 -45.48   0.00130321    1.967    0.492
       442  -8.7144     92.6838     43.1286   8.7830957495e+01   5.4644597092e+01    0.3462696    0.2141039  -5.43  0.001654792    2.179    0.541
       443  -8.7392    129.8914     49.3598   8.0169381993e+01   4.5982900949e+01     0.222152     0.185173 -47.40 0.0005668454    1.327    0.246
       444  -8.0523    149.6511     48.8199   7.5777038236e+01   4.1500108188e+01    0.1853009    0.1245942 -45.81 0.0003596113    1.607    0.378
       445  -8.9011     43.9192     55.2814   1.0865384714e+02   6.0347167418e+01    0.2890297    0.1643684 -48.67  0.001405197    1.795    0.443
       446  -8.7296    112.1309     46.7876   8.3694583086e+01   5.0222051604e+01    0.2239927    0.1787923 -45.04 0.0006924625    1.427    0.299
       447  -8.9426     81.9911     46.5572   9.2277714700e+01   5.6124067338e+01    0.2284048     0.183584 -37.81 0.0006440479    1.372    0.271
       448  -8.8499    120.7701     47.5193   8.1758798073e+01   4.8264573353e+01    0.2264158    0.1827311 -28.34 0.0004434672    1.330    0.248
       449  -8.6259     45.1186     44.7249   1.0463220862e+02   6.1959907516e+01     0.194916     0.151175 -39.64 0.0005662875    1.374    0.272
       450  -8.7709     16.7031     44.9485   1.1621695617e+02   6.4794670436e+01    0.1766706     0.163341 -38.41 0.0006068292    1.384    0.278
       451  -8.7666    132.9474     43.5303   7.7707176925e+01   4.6090315479e+01     0.249894    0.1825025 -52.90  0.000636735    1.607    0.378
       452  -9.1908     58.2712     42.6674   9.8965901837e+01   6.0514753776e+01    0.2777494    0.2050642 -55.54  0.001279882    2.035    0.509
       453  -9.2368     69.5879     41.6764   9.4628081981e+01   5.8928259108e+01    0.2878297    0.2135061 -47.99  0.001001841    1.742    0.426
       454  -9.3418      5.2816     42.1898   1.2020948905e+02   6.6077625615e+01    0.2500327    0.1786963 -65.95  0.001328537    1.894    0.472
       455  -8.6591    105.9862     41.5468   8.3584018157e+01   5.2215910157e+01    0.2295061     0.181724 -49.80 0.0005872736    1.541    0.351
       456  -7.3108    140.2908     41.6559   7.5587731826e+01   4.4652432325e+01    0.1365236    0.1030039 -73.11 0.0003203509    1.656    0.396
       457  -8.5875     36.8502     40.9531   1.0656131119e+02   6.3529194567e+01    0.1940017    0.1606315 -49.42 0.0008547897    1.593    0.372
       458  -8.7855     95.4034     38.0116   8.5284926486e+01   5.4803335981e+01    0.2514772    0.1883664 -50.16 0.0009108537    1.729    0.422
       459  -8.1464     80.6021     36.8563   8.9290617893e+01   5.7720621122e+01    0.1670811    0.1145675 -41.28 0.0004716016    1.707    0.414
       460  -9.5076     26.2260     35.6102   1.0903862912e+02   6.5479037287e+01    0.2625732    0.1884506 -51.29 0.0008264824    1.789    0.441
       461  -7.7614    133.4366     36.4710   7.5458960559e+01   4.6882797001e+01    0.1333511    0.1207448  54.72 0.0001969558    1.017    0.017
       462  -8.2718    125.8967     35.7652   7.6871199393e+01   4.8669080877e+01    0.2012531    0.1602989  38.00 0.0003623569    1.196    0.164
       463  -7.9401    249.3024    248.7741   1.0119622585e+02  -1.4393123890e+01    0.2209636   0.09600285 -42.46   0.00109033    2.677    0.626
       464  -7.8828     88.6570     34.2671   8.5919316213e+01   5.6576096877e+01    0.1718599     0.114305 -17.20 0.0007795129    1.616    0.381
       465  -8.8769     48.5248     33.4648   9.9213444754e+01   6.3205256764e+01    0.2087563    0.1940279 -12.45  0.000688233    1.358    0.264
       466  -8.5221    225.6660     31.9178   6.0488871105e+01   2.6005414326e+01    0.2927262    0.1599869 -36.57  0.001532109    1.948    0.487
       467  -8.7874     60.4356     32.5832   9.4468487839e+01   6.1619832241e+01    0.2058233    0.1687087 -19.80 0.0006421853    1.210    0.173
       468  -8.9480     72.1092     31.2941   8.9982703953e+01   5.9911240933e+01    0.2394747    0.1583584 -37.48 0.0007937197    1.701    0.412
       469  -9.2922     13.0607     30.5906   1.1297310516e+02   6.7426725988e+01    0.2653013    0.1665102 -52.89  0.001174934    1.945    0.486
       470  -7.7942    139.3286     31.6793   7.2827191378e+01   4.6107914212e+01    0.1341586   0.09949146 -77.42 0.0007048176    1.689    0.408
       471  -8.4798    101.6695     29.3934   8.0611976421e+01   5.4605745714e+01    0.2086247    0.1517029 -39.61 0.0006732377    1.605    0.377
       472  -7.4427     42.2825     30.2851   1.0043907909e+02   6.4460449222e+01    0.1174538   0.07590475  -3.74 0.0002518303    1.521    0.342
       473  -8.9498     81.4369     27.5386   8.5643505741e+01   5.8729637964e+01    0.2241237    0.2027185 -49.37  0.000744097    1.487    0.327
       474  -8.8620      3.7666     27.8702   1.1623681093e+02   6.8530349074e+01    0.1756283    0.1375227 -52.98 0.0007453892    1.643    0.391
       475  -8.4874    119.2901     33.4040   7.7620299639e+01   5.0412714570e+01    0.2133072    0.1493161 -51.24  0.000707963    1.782    0.439
       476  -8.9125     91.8078     26.4967   8.2252633803e+01   5.6897474175e+01    0.2541411    0.1728616 -37.94 0.0008036116    1.714    0.417
       477  -8.2515    104.3810     23.1989   7.7803540482e+01   5.4732642740e+01    0.1612633    0.1153519 -37.62 0.0004487754    1.629    0.386
       478  -7.8505     34.7346     23.5452   1.0086612205e+02   6.6295339111e+01    0.1437933   0.09938616  35.48 0.0009387218    1.679    0.404
       479  -8.9097     63.5417     21.0482   8.8932007596e+01   6.2553755016e+01    0.2419299    0.1906957 -49.17 0.0008796734    1.916    0.478
       480  -8.9109     48.2875     21.7059   9.4711718116e+01   6.4778905974e+01    0.2091387    0.1746526 -17.16 0.0006013911    1.266    0.210
       481  -8.3527     19.6004     21.6938   1.0668584578e+02   6.8162805710e+01    0.1574816    0.1233732  31.44  0.000705876    1.703    0.413
       482  -8.1693    120.6150     20.8322   7.3302536682e+01   5.1509429603e+01    0.1690876    0.1142284 -41.27 0.0009328065    1.736    0.424
       483  -8.8635     74.1228     19.5964   8.4912347903e+01   6.0927227553e+01    0.2133217    0.1788271 -50.41 0.0007236491    1.725    0.420
       484  -7.9432     12.2940     20.6825   1.0962789562e+02   6.8960653559e+01   0.08870628   0.08340129 -17.60 0.0002930958    1.605    0.377
       485  -8.2521     87.8375     17.6204   8.0145143583e+01   5.8607664624e+01    0.1784684    0.1403039 -24.47 0.0005070514    1.411    0.291
       486  -7.9789     38.8714     18.3527   9.7052496842e+01   6.6447092883e+01    0.1520345    0.1228008 -12.81 0.0007344834    1.197    0.164
       487  -8.1613    112.6643     16.8324   7.3728015763e+01   5.3629153636e+01    0.1589697    0.1119228 -35.95 0.0004093079    1.652    0.395
       488 -11.9473    241.1766    243.2656   1.0171208088e+02  -1.2555478835e+01    0.3306768    0.2572182 -28.26  0.002211402    1.319    0.242
       489  -8.2063     17.1594     14.1788   1.0473974238e+02   6.9404371713e+01    0.1331362    0.1133603  -6.43 0.0004612299    1.345    0.256
       490  -9.0057    232.7996    247.3346   1.0393478843e+02  -1.1966083553e+01    0.4024395    0.2136741 -38.09  0.002209329    1.962    0.490
       491  -9.2858    247.5879    234.7147   9.9070383662e+01  -1.2220784565e+01    0.2533849     0.185301 -36.56 0.0008542709    1.470    0.320
       492  -8.0890      7.6031     15.8303   1.0992183250e+02   7.0024418473e+01    0.1344986   0.08865616 -43.64 0.0005463726    1.693    0.409
       493  -9.5623    246.6096    229.6057   9.8338532512e+01  -1.1344506261e+01    0.4770465    0.2501633 -36.15   0.00222087    1.812    0.448
       494  -8.7654    219.0138    247.8296   1.0658967776e+02  -1.0055388270e+01    0.3644777    0.1638727 -38.31  0.001791653    2.337    0.572
       495  -9.0266    175.8463    247.9568   1.1503709106e+02  -3.3178740338e+00    0.3016311    0.2284943  71.03  0.001349484    1.933    0.483
       496  -8.4790    156.2174    248.4619   1.1906684304e+02  -1.5605601904e-01    0.2525357    0.1821326  72.61 0.0007692055    1.926    0.481
       497  -8.7455    132.3882    248.2316   1.2386685278e+02   3.8519712468e+00    0.2770664    0.1800892  70.46 0.0006567772    1.998    0.499
       498  -8.1355    113.1621    248.6851   1.2780525193e+02   6.9102673759e+00    0.2129396    0.1616629 -89.13 0.0008769344    1.463    0.316
       499  -9.1469    103.8475    246.8533   1.2945271874e+02   8.7491203299e+00    0.4560938    0.2342794 -83.27  0.001909158    3.203    0.688
