#   1 NUMBER                 Running object number                                     
#   2 MAG_AUTO               Kron-like elliptical aperture magnitude                    [mag]
#   3 X_IMAGE                Object position along x                                    [pixel]
#   4 Y_IMAGE                Object position along y                                    [pixel]
#   5 X_WORLD                Barycenter position along world x axis                     [deg]
#   6 Y_WORLD                Barycenter position along world y axis                     [deg]
#   7 A_WORLD                Profile RMS along major axis (world units)                 [deg]
#   8 B_WORLD                Profile RMS along minor axis (world units)                 [deg]
#   9 THETA_WORLD            Position angle (CCW/world-x)                               [deg]
#  10 FWHM_WORLD             FWHM assuming a gaussian core                              [deg]
#  11 ELONGATION             A_IMAGE/B_IMAGE                                           
#  12 ELLIPTICITY            1 - B_IMAGE/A_IMAGE                                       
         1  -9.9569    164.2779      3.2877   4.8123990060e+01   4.3045678212e+01    0.3871523    0.2685147   8.65  0.001816494    1.718    0.418
         2  -9.6938    152.9691      3.1572   4.9503146463e+01   4.6209563471e+01    0.4106547    0.2509184 -44.87  0.001293897    1.680    0.405
         3 -10.8945    155.6495     16.8030   5.4313211807e+01   4.4082159241e+01    0.8427086     0.201199 -24.12  0.002390314    4.000    0.750
         4 -11.2814    157.6461      5.0370   4.9599746259e+01   4.4730916173e+01     1.123527    0.5479749   0.57  0.004060973    2.899    0.655
         5 -10.2419    162.0634     14.0622   5.2343519217e+01   4.2603137447e+01    0.4839921    0.2815056 -20.32  0.001239928    1.786    0.440
         6  -9.2563    160.4871      9.0025   5.0701397469e+01   4.3558564205e+01     0.343391    0.2186714 -17.52   0.00131481    1.657    0.397
         7  -9.7725    172.6562     24.5707   5.4549929231e+01   3.8520699431e+01    0.7796341    0.1999023 -38.64  0.002347131    3.466    0.711
         8 -13.0670    138.5089     12.4432   5.5458734197e+01   4.9306452142e+01     1.646374     1.160487 -27.45  0.007848291    1.439    0.305
         9 -10.8515    110.6056      4.2348   5.7363141097e+01   5.7729044667e+01    0.5230695    0.3500693 -52.68  0.002423893    1.751    0.429
        10 -12.9753    108.5030     10.9921   6.1152846416e+01   5.7528690501e+01     1.538213     1.069034 -87.14   0.00697447    1.899    0.473
        11 -10.1460    118.3798     24.3604   6.4812854246e+01   5.3242281292e+01    0.2711834    0.2491824 -47.73  0.000365323    1.139    0.122
        12 -10.7264    132.6301      6.9982   5.4217097514e+01   5.1498893314e+01    0.7046464    0.3196236 -32.46  0.002406313    2.150    0.535
        13 -11.3900    127.5211      5.0894   5.4310443076e+01   5.3092459593e+01    0.7991345    0.4607533 -20.12  0.002650505    1.800    0.444
        14  -9.9182      9.3437     16.8655   1.1204511269e+02   7.3690097892e+01    0.3584626       0.1595 -71.84  0.001701051    2.181    0.541
        15 -10.3055      6.7363     11.9043   1.1217939634e+02   7.4933166811e+01    0.2768152     0.186898 -42.01  0.000544343    1.273    0.214
        16 -10.9132    116.5991      5.1225   5.6481683033e+01   5.6046842806e+01    0.5868483    0.3712824 -43.91   0.00053067    1.713    0.416
        17 -10.4307    173.9882     12.5563   5.0230751581e+01   3.9472371910e+01    0.4034125    0.2106526  32.42  0.001537471    2.542    0.607
        18 -10.2284    148.1057      8.2123   5.2170972429e+01   4.7085144636e+01    0.4681723    0.2835767 -50.17  0.001997444    1.783    0.439
        19  -9.6974     80.2418     12.1578   7.0315248764e+01   6.4211621746e+01     0.282285    0.1849548 -46.36  0.001340206    1.730    0.422
        20 -10.6016     29.8771     12.6884   9.6081801379e+01   7.2836798486e+01    0.2836967    0.2180881  38.04 0.0003386367    1.535    0.349
        21  -9.6928     38.9202     10.9255   8.9376102852e+01   7.2026931474e+01    0.1984017    0.1719372 -28.65 0.0004043168    1.031    0.030
        22 -11.2764    189.1119      4.8570   4.6011233879e+01   3.6117052914e+01    0.6917507    0.4408434  56.49  0.003325511    1.587    0.370
        23 -10.0545     34.5082      9.9867   9.1587056844e+01   7.2798200563e+01    0.2181447    0.1814184  48.74 0.0006468067    1.535    0.349
        24 -10.2786    176.3404      3.7177   4.6919810316e+01   3.9678145684e+01    0.5299993    0.3359176  -0.46  0.002397922    1.893    0.472
        25  -8.3613    173.3105      1.6486   4.6527433955e+01   4.0694308294e+01    0.1489544    0.1419224 -81.58 0.0008190478    1.005    0.005
        26  -9.4820    166.8781      8.3764   4.9643832148e+01   4.1847073376e+01    0.3581327    0.1454574 -24.69  0.001159456    2.379    0.580
        27 -10.1465     18.7009      9.0241   1.0197860773e+02   7.4715719472e+01    0.2314208    0.1697647  16.69 0.0009190834    1.524    0.344
        28 -12.2707     75.6636      3.9168   6.7272048439e+01   6.6333404613e+01     1.105182    0.5232651  58.96  0.004631589    2.283    0.562
        29  -9.1431    170.6985      5.3454   4.8108569980e+01   4.1079547720e+01    0.2995669    0.1616535 -46.30  0.001266812    1.870    0.465
        30  -9.7522    143.5739      3.7579   5.1072916027e+01   4.8777580561e+01    0.4796784    0.2184938 -29.56  0.001896009    2.130    0.530
        31 -11.4258    121.8323      3.9257   5.4863519858e+01   5.4757252687e+01    0.9884074    0.3553192 -28.54  0.001892454    2.630    0.620
        32 -10.6031     56.3986      4.6825   7.5910349348e+01   7.0197934533e+01     0.513604    0.2987571 -51.05  0.001893168    2.329    0.571
        33 -10.2379     51.0738      3.3905   7.7762790999e+01   7.1366433402e+01    0.2833173    0.2684459 -22.24  0.000390072    1.181    0.153
        34 -10.3718     64.9045      4.6742   7.2007405681e+01   6.8532113684e+01    0.2539093    0.1889927 -33.91 0.0003864237    1.336    0.251
        35 -10.2461     19.1984      4.5760   9.9231765485e+01   7.5573890868e+01    0.3497438    0.1945047 -20.97  0.001302462    2.188    0.543
        36 -10.4607     14.9412      1.9616   1.0111604706e+02   7.6478946762e+01    0.4045382    0.2384032 -47.50 0.0003226841    1.386    0.278
        37  -9.7359    209.7859      2.3013   4.3458499350e+01   3.0963130098e+01    0.2752235    0.2149059  60.76  0.001525429    1.351    0.260
        38  -8.5850    147.5391      1.6626   4.9658179102e+01   4.7861387697e+01    0.2527868    0.1673879 -75.13 0.0007439576    1.704    0.413
        39  -9.8535    220.4776    186.9440   8.6920260954e+01   5.6650930517e+00     0.191499    0.1411073 -38.59  0.001249712    1.838    0.456
        40 -12.8549    242.6222    175.9763   8.1468224810e+01   3.4935267982e+00     2.735328     1.758186 -46.03   0.01552401    2.739    0.635
        41 -12.7198    246.7939    204.4787   8.5596203473e+01   1.2026553918e-01     1.829688    0.6817393 -34.12  0.009704672    3.211    0.689
        42  -9.2973    210.7166    176.3130   8.6754530588e+01   8.4420029596e+00     0.262045    0.1517022 -36.96 0.0009554012    2.017    0.504
        43  -8.9105    197.5797    176.7039   8.9148852252e+01   1.0554073344e+01    0.2113358     0.116043 -28.21  0.001127216    2.038    0.509
        44  -9.3524    223.3801    173.3332   8.4078351550e+01   6.7552674584e+00    0.2409719    0.1856505 -34.61  0.001140142    1.621    0.383
        45  -9.2247    188.2952    172.1295   9.0063193616e+01   1.2730793001e+01     0.261741    0.1482376 -38.52  0.001394578    2.029    0.507
        46  -8.8566    205.8775    170.2307   8.6521007147e+01   9.9978707465e+00    0.3773991     0.189923 -46.97  0.001748436    3.084    0.676
        47  -9.6608    218.7756    168.0559   8.3893420306e+01   8.1231693940e+00    0.3572088    0.2136455 -27.02  0.001835248    1.721    0.419
        48 -13.5794    245.0106    235.5036   9.0424925811e+01  -2.3020013645e+00     2.759067     1.207165 -39.49   0.01522015    4.341    0.770
        49  -9.5544    191.5354    165.1884   8.8215321487e+01   1.3128289765e+01    0.2814724    0.1239353 -33.03  0.001199437    2.546    0.607
        50  -9.1378    199.4718    164.5523   8.6634805865e+01   1.1831990089e+01    0.2374448    0.1217193 -33.54  0.001091058    2.112    0.526
        51  -9.8588    212.9305    162.0433   8.3776647605e+01   9.8433543339e+00    0.4969826    0.1815712 -35.07  0.002173755    2.894    0.655
        52  -9.0551    221.4153    161.2986   8.2190077843e+01   8.5027417098e+00    0.2625944    0.1779903 -24.53  0.001259383    1.485    0.326
        53  -8.9383    222.3560    156.8080   8.1174021119e+01   8.8925928304e+00    0.2184644    0.1108144 -32.77 0.0007564055    2.037    0.509
        54  -9.0477    221.5153    152.4918   8.0472659874e+01   9.5703733294e+00    0.2943879    0.1634239 -28.53  0.001159595    1.803    0.445
        55  -9.2338    205.2008    161.1546   8.4968354813e+01   1.1288409325e+01    0.2918343    0.1763197 -30.36  0.001601856    1.747    0.428
        56  -8.5697      4.2994    162.6602   1.3028815491e+02   4.0383469218e+01    0.1215808   0.05630566  60.11 0.0007035271    1.665    0.399
        57  -8.6577    184.3814    160.1983   8.8652938279e+01   1.5107543060e+01    0.1645967    0.1227698 -46.12 0.0007182017    1.669    0.401
        58  -8.3929    176.6098    158.2182   8.9804116218e+01   1.6809031873e+01    0.1784262    0.1218658 -22.44 0.0009545591    1.685    0.407
        59  -8.9601    216.0056    156.3296   8.2155559779e+01   1.0039125972e+01    0.2501091    0.1646076 -35.48  0.001241278    1.694    0.410
        60  -9.2090    197.1052    156.3009   8.5512997404e+01   1.3375501644e+01    0.3165766    0.1831388 -23.47   0.00160917    1.931    0.482
        61  -8.6303    187.6630    154.9296   8.7024335032e+01   1.5281918375e+01    0.2357365    0.1182707 -27.39  0.000947115    2.369    0.578
        62  -9.2142    205.5797    153.6585   8.3460034903e+01   1.2219303228e+01    0.2376054    0.2007235   7.85  0.001506615    1.055    0.052
        63  -8.6119    202.6587    151.4865   8.3557974925e+01   1.3039520275e+01    0.2786694    0.1518244 -33.90  0.001401235    1.933    0.483
        64  -9.5065    211.9035    151.1393   8.1847074556e+01   1.1427484509e+01     0.302722     0.173203 -31.90  0.001591777    1.804    0.446
        65  -9.3458    215.1881    148.4194   8.0735666317e+01   1.1198758787e+01    0.3342626    0.1863974 -40.72  0.001683895    2.121    0.529
        66  -9.0329    214.3405    142.5048   7.9676911982e+01   1.2128883103e+01     0.277626    0.1489763 -36.11 0.0008461009    1.964    0.491
        67  -8.5715    196.5608    149.7553   8.4332135815e+01   1.4394707202e+01    0.2393847    0.1250942 -28.09  0.001133254    2.088    0.521
        68  -9.6896    207.8536    146.1196   8.1550892622e+01   1.2827601091e+01    0.5433655     0.239663 -29.67  0.002432782    2.377    0.579
        69 -10.2469    232.5332    247.3076   9.3849834481e+01  -1.7214266743e+00    0.3282658    0.1660824 -25.42  0.002149693    2.313    0.568
        70  -8.6503    200.5137    144.9854   8.2641332588e+01   1.4338476029e+01    0.2793843    0.1263733 -34.18  0.001180893    2.302    0.566
        71  -8.4527    198.1716    140.4462   8.2133987638e+01   1.5427181459e+01    0.2936116    0.2205305 -83.26  0.001394718    2.716    0.632
        72  -8.8771    198.6015    136.2418   8.1166584042e+01   1.5954071656e+01    0.2645147    0.1315714 -31.93 0.0008043053    2.075    0.518
        73  -9.4947    198.2728    131.9177   8.0294308230e+01   1.6649990321e+01    0.3428105    0.2597999   7.28  0.001422164    1.366    0.268
        74  -9.0768    182.0122    142.0781   8.5564694631e+01   1.8281039079e+01    0.3244642    0.1785936 -49.65  0.001335046    2.416    0.586
        75  -8.4757    203.5259    140.9697   8.1265147022e+01   1.4340670888e+01     0.188288    0.1255326 -32.10  0.001008539    1.551    0.355
        76  -9.2867    218.7365    138.3831   7.8070362111e+01   1.1869755357e+01    0.2996782    0.2095668 -23.61  0.001225024    1.388    0.280
        77  -9.1961    187.5813    135.7410   8.3143267072e+01   1.8175724239e+01    0.3860146    0.1323934 -36.90   0.00143596    3.053    0.672
        78  -9.4470    208.1454    137.1898   7.9645333878e+01   1.3998304303e+01    0.3906555    0.1977143 -43.29  0.001764509    2.404    0.584
        79  -8.8575    172.3214    137.6547   8.6603781993e+01   2.0878744740e+01    0.2577008    0.2035393 -37.25  0.001428151    1.370    0.270
        80  -8.9263    169.3663    135.7213   8.6810996304e+01   2.1783933518e+01    0.2227904    0.1666253  58.00 0.0006430669    1.519    0.342
        81  -8.7416    192.6090    136.6935   8.2383213777e+01   1.7048451899e+01    0.2437795    0.1285065 -30.28  0.001084123    2.010    0.502
        82  -8.1871    162.7946    135.0729   8.8069488122e+01   2.3200678402e+01    0.1813147     0.112923 -41.24 0.0008646528    1.738    0.425
        83  -8.4812    217.4791    125.4936   7.5499611329e+01   1.3821861803e+01    0.1917955    0.1196135 -37.89 0.0001951871    1.704    0.413
        84  -9.6871    224.6278    133.3898   7.6037158451e+01   1.1440390090e+01    0.3838659    0.2891318  63.14  0.002146366    1.901    0.474
        85  -9.3535    220.8351    129.1124   7.5737299955e+01   1.2701139664e+01    0.2562905    0.2261001 -32.08 0.0009266873    1.301    0.231
        86  -9.2101    179.6683    132.0090   8.3899027068e+01   2.0333719808e+01    0.3477771     0.165552 -29.09  0.001419421    2.484    0.597
        87  -8.9300    205.5706    130.4034   7.8639732045e+01   1.5443486660e+01     0.246999    0.1226076 -37.07  0.001016047    2.083    0.520
        88  -8.8789    211.9651    128.9315   7.7195529594e+01   1.4412541896e+01    0.1989899    0.1649681 -61.32 0.0008604004    1.752    0.429
        89  -8.1572    192.0000    129.0041   8.0828253874e+01   1.8329144260e+01    0.2183453   0.07718888 -35.07 0.0007987209    2.917    0.657
        90  -8.6266    186.2118    128.5341   8.1838335851e+01   1.9566501681e+01     0.256262    0.1871083 -31.37  0.001056701    1.413    0.292
        91  -8.7039    171.6417    129.2344   8.4933790471e+01   2.2411754793e+01       0.1934    0.1316119 -26.60 0.0008909937    1.620    0.383
        92  -9.6009    200.0262    126.1734   7.8702474105e+01   1.7147285235e+01    0.2816445    0.1888942 -35.77 0.0008570983    1.545    0.353
        93  -7.9843    165.3469    127.3181   8.5841372609e+01   2.4023873655e+01    0.1497973    0.1074547  12.82 0.0007048637    1.728    0.421
        94  -9.3356    179.6273    123.5883   8.2029671636e+01   2.1703925580e+01    0.4942711      0.25948 -23.15  0.002010138    2.469    0.595
        95  -9.9177    220.0726    121.2530   7.4122280134e+01   1.3893030408e+01    0.5747253    0.3897798 -65.90  0.002568791    3.004    0.667
        96  -8.8655    216.4690    115.5359   7.3412232481e+01   1.5376567683e+01    0.1977579    0.1226733 -16.24 0.0002148585    1.676    0.403
        97  -8.3161    170.1131    123.6049   8.3992712257e+01   2.3676534572e+01    0.2348159    0.1671204 -28.47  0.001174734    1.504    0.335
        98  -8.8424    146.2945    124.3534   8.9451955391e+01   2.8459182718e+01    0.1465847    0.1126524   2.86 0.0004436934    1.686    0.407
        99  -8.9950    212.7272    122.1720   7.5558682870e+01   1.5200465891e+01    0.4554064    0.1923954 -27.67  0.001878958    2.428    0.588
       100  -9.2579    212.6477    116.3844   7.4248417510e+01   1.6023042532e+01    0.3373258    0.2087315 -52.20  0.001544759    2.332    0.571
       101  -8.9013    202.8710    121.2593   7.7074904952e+01   1.7295923503e+01    0.2391752    0.1787964 -37.10 0.0007938709    1.416    0.294
       102  -8.6077    194.1661    120.8867   7.8584371675e+01   1.9126022190e+01    0.2013175    0.1896214 -46.83 0.0006099333    1.258    0.205
       103 -10.3257     18.7330    119.1888   1.2425851709e+02   4.8719987091e+01    0.2760103    0.2166321  83.93 0.0009139968    1.054    0.051
       104  -8.5698    194.5097    112.9569   7.6657045766e+01   2.0265964805e+01     0.213616    0.2050589 -76.24 0.0009674812    1.276    0.216
       105  -8.8857    191.5416    114.2753   7.7527781091e+01   2.0690053413e+01    0.3436398    0.1408185 -31.22  0.001308604    2.559    0.609
       106  -8.2682    140.6506    117.3274   8.9206000103e+01   3.0959883926e+01    0.1508706    0.1159709  82.28 0.0007048925    1.759    0.431
       107  -8.7337    224.3379    113.3905   7.1643375419e+01   1.4111215879e+01    0.5010934    0.1777889 -45.21   0.00160472    4.552    0.780
       108  -9.0991    185.7265    114.2442   7.8635448866e+01   2.1929166588e+01    0.2576822    0.1694156 -36.68  0.001249731    1.557    0.358
       109  -7.7744     70.7261    115.3104   1.0802540015e+02   4.3935158816e+01    0.1394105   0.09697838  72.31 0.0002610273    1.552    0.356
       110  -8.5766    173.5177    113.9808   8.1026043091e+01   2.4589124196e+01    0.2142177    0.1422923 -35.54  0.001019032    1.551    0.355
       111  -8.1862    157.4656    119.5125   8.5797878501e+01   2.7040697795e+01    0.1451378    0.1360372  30.16  0.000100325    1.002    0.002
       112  -8.3072    208.8591    112.1133   7.3894383743e+01   1.7396613361e+01    0.3629802    0.1907218  -4.46  0.001294107    3.434    0.709
       113  -9.5844      3.4980    113.5166   1.2840768941e+02   5.1083181836e+01    0.1186491   0.09478818  82.15 -2.867195e-05    1.021    0.020
       114  -8.5192    188.1955    123.1110   8.0230774444e+01   2.0010789906e+01    0.1837547    0.1691766 -60.37   0.00105937    1.345    0.256
       115  -8.4606    139.3731    111.3023   8.8098786197e+01   3.2401771509e+01    0.1541295    0.1157364  11.76 0.0007030306    1.755    0.430
       116  -8.6395    213.4558    104.6772   7.1340732965e+01   1.7498043812e+01    0.2561512     0.124439 -33.73 0.0006080824    1.963    0.491
       117  -8.9646    217.7537    108.9705   7.1665566736e+01   1.6019626921e+01    0.3577343    0.2783955 -83.72  0.001833839    2.110    0.526
       118  -8.9361    218.4809    104.5157   7.0486076864e+01   1.6481505475e+01    0.3117717    0.1207918 -33.20 0.0009297777    2.402    0.584
       119  -8.9874    183.1270    108.9104   7.7848821910e+01   2.3346804923e+01    0.3322186    0.1453145 -40.63  0.001290362    2.370    0.578
       120  -8.3101    176.6229    109.8480   7.9381553168e+01   2.4610518044e+01    0.2100647    0.1322718 -45.39 0.0007046169    1.748    0.428
       121  -9.9733    225.5855    248.8315   9.5092778568e+01  -9.9353541699e-01    0.3291732    0.2081052  37.86  0.002531205    1.520    0.342
       122  -8.9192    189.6286    108.2479   7.6430432047e+01   2.2040554220e+01    0.2498652    0.1923828 -40.30 0.0008285234    1.371    0.271
       123  -9.0556    189.5587    104.5174   7.5518419906e+01   2.2641882583e+01    0.3322717    0.1390861 -29.21   0.00118531    2.582    0.613
       124  -8.8031    160.5594    107.7288   8.2270634309e+01   2.8501395212e+01    0.2732657    0.1461798 -34.06  0.001124848    2.012    0.503
       125 -10.5043      9.6287    107.7920   1.2618139882e+02   5.2027268697e+01    0.2434006    0.1411288 -80.83 0.0006207433    1.449    0.310
       126 -10.8601     11.9819    105.0047   1.2523112021e+02   5.2527154996e+01    0.3959173    0.1440701  47.51  0.001831382    2.537    0.606
       127  -9.8029      4.5086    107.3332   1.2774566230e+02   5.2451617194e+01    0.1838533    0.1098092  21.12  0.001083193    1.962    0.490
       128  -9.0995    205.7645    105.1973   7.2763137580e+01   1.9040097035e+01     0.294423    0.2072179 -39.30  0.001016828    1.479    0.324
       129  -8.7296    200.8224    103.0603   7.3098529894e+01   2.0412071788e+01    0.2121385    0.1835929 -44.36 0.0006935289    1.283    0.221
       130  -8.5088    194.9887    102.9657   7.4122065322e+01   2.1693715359e+01    0.1818608    0.1464032 -25.09 0.0007000149    1.216    0.178
       131  -8.7669    167.0376     99.8632   7.8849801677e+01   2.8447362989e+01    0.3271737    0.2097617 -30.82  0.001360371    1.635    0.388
       132  -9.0757    215.4856     94.0445   6.8393321465e+01   1.8551471750e+01    0.2826748    0.1301208 -28.60 0.0007422704    2.061    0.515
       133  -8.6378    209.3711     99.6590   7.0786992733e+01   1.9070212537e+01     0.262618    0.1230429 -33.75 0.0009413972    2.029    0.507
       134  -9.2084    202.6829     97.4369   7.1363331574e+01   2.0840358417e+01    0.4069543    0.1985079 -35.55  0.001680322    1.981    0.495
       135  -9.6782    224.6204    242.0181   9.4374891836e+01  -3.0438576044e-01    0.2683893    0.1217486 -26.52   0.00174256    2.621    0.618
       136  -9.2394    194.8368     97.4690   7.2756796205e+01   2.2568212655e+01    0.2855821    0.2378559 -30.76  0.001026319    1.189    0.159
       137  -8.4299    183.4630     96.0008   7.4500284800e+01   2.5359532862e+01    0.2227044    0.1416329 -33.92 0.0006036265    1.563    0.360
       138 -10.5538    212.2841     94.6544   6.9057968210e+01   1.9153882671e+01    0.9398572    0.4013391 -49.39  0.003178859    3.722    0.731
       139  -8.4482    153.3145     95.3198   8.0687343011e+01   3.2387177655e+01    0.1555308    0.1182539  11.89 0.0005918621    1.654    0.395
       140  -8.4256    206.9572     94.3369   6.9851586524e+01   2.0356103107e+01    0.1866099    0.1803693  12.94 0.0005300397    1.091    0.083
       141  -8.7489    164.4847     93.5007   7.7704975813e+01   3.0144163806e+01    0.3168506     0.149315 -35.08  0.001211135    2.180    0.541
       142  -8.3841    177.0000     92.9554   7.4960943608e+01   2.7339124287e+01    0.2431804   0.08389347 -34.50 0.0007974058    2.908    0.656
       143 -10.4750      3.6970     91.5914   1.2696821405e+02   5.6198907983e+01    0.4417818    0.1482419  74.62  0.001737598    3.315    0.698
       144  -8.4482    188.6533     92.2084   7.2518392784e+01   2.4777771552e+01    0.2154703    0.1351516 -20.99 0.0009538537    1.731    0.422
       145  -8.8907    203.3312     90.0797   6.9363778712e+01   2.1775784231e+01     0.318393    0.1286974 -29.95 0.0008838964    2.402    0.584
       146  -8.6221    157.8437     89.6789   7.8112977046e+01   3.2367371333e+01    0.2185476    0.1901809 -22.09  0.001070992    1.190    0.159
       147  -8.9884     25.4658     89.9866   1.1912452199e+02   5.5141260115e+01    0.1968179    0.1098043 -75.67 0.0007654197    1.551    0.355
       148  -9.4884    209.7746    249.9371   9.7669480952e+01   8.8870416463e-01    0.2912713    0.1355409  31.47  0.001606642    1.499    0.333
       149  -8.8430    150.6409     87.8832   7.9254160934e+01   3.4377362299e+01    0.3434603     0.145295 -38.00  0.001226665    2.412    0.585
       150  -7.8836    214.4259     88.0135   6.7032186346e+01   1.9615340330e+01    0.2133568    0.1286474 -29.08  0.000547341    1.553    0.356
       151  -8.9813    188.3319     86.8146   7.1132564777e+01   2.5694211138e+01    0.3119604    0.1867855 -35.93 0.0009627682    1.636    0.389
       152  -8.6611    197.5329     86.6578   6.9451755316e+01   2.3593182682e+01    0.2636359    0.1409312 -25.73  0.001105881    1.908    0.476
       153  -8.4374    163.6801     86.4831   7.5938864998e+01   3.1558360339e+01    0.2659322    0.1398515 -34.76  0.001061697    1.928    0.481
       154  -8.8638     30.7263     86.5672   1.1673476365e+02   5.5529735470e+01    0.2282521    0.1385887  81.14 0.0004435221    1.719    0.418
       155  -8.0282    212.0000     84.9361   6.6617287590e+01   2.0576747013e+01    0.2241679   0.07646232 -29.37 0.0005546341    2.771    0.639
       156  -8.8634    205.9321     84.7793   6.7544787436e+01   2.1957368958e+01    0.2627685    0.1894823 -27.37 0.0009412722    1.320    0.242
       157  -8.8858    178.6789     84.4457   7.2303257736e+01   2.8339599275e+01    0.2669489    0.1364535 -32.44  0.001069155    1.949    0.487
       158  -8.3986    185.3807     82.7589   7.0564506354e+01   2.7019970617e+01    0.2107143    0.1399221 -18.54 0.0009435266    1.649    0.393
       159  -8.5488    170.4663     83.0440   7.3544053158e+01   3.0528656959e+01    0.2313277    0.1478087 -33.55 0.0006479891    1.565    0.361
       160  -8.5020    168.2084    249.7209   1.0438192651e+02   6.3152062994e+00     0.137101   0.08976709  23.91  0.000389862    1.305    0.234
       161  -9.0740    159.1615     81.0104   7.5350121700e+01   3.3593419174e+01    0.3637266    0.2216265 -34.13  0.001481301    1.664    0.399
       162  -8.7061    210.5934     71.7626   6.3333266238e+01   2.2713906722e+01    0.2450155    0.1282049 -29.39 0.0008635769    1.778    0.438
       163  -7.3748    209.7956     80.9650   6.5920829853e+01   2.1624475845e+01    0.2677788    0.1877234 -29.98  0.001347389    1.343    0.256
       164  -8.7176    211.2950     76.4863   6.4498931473e+01   2.1905749391e+01    0.3454832    0.1953644 -21.47 0.0008423498    1.789    0.441
       165  -9.1364    200.8460     77.5481   6.6434366496e+01   2.4164868843e+01    0.3469617    0.1965592 -43.13  0.001488493    1.833    0.454
       166  -8.5266    200.4999     82.9625   6.7958265450e+01   2.3458131015e+01    0.2194943    0.1362865 -31.51  0.001000772    1.539    0.350
       167  -8.3416    206.5842     78.2345   6.5697407147e+01   2.2738961238e+01    0.2939056    0.1381987 -25.25 0.0006180904    2.139    0.532
       168  -8.7172    206.4435     74.0172   6.4578030353e+01   2.3363373160e+01    0.2285864    0.1870318 -47.85 0.0007591018    1.296    0.228
       169  -8.8333    188.8027     76.8178   6.8283979160e+01   2.7121832630e+01    0.4373894    0.1219399 -28.89  0.001255129    3.888    0.743
       170  -8.8145    174.4843     77.5020   7.1149842979e+01   3.0473119257e+01    0.3162771    0.1478074 -32.57  0.001200162    2.129    0.530
       171  -8.8349    166.8015     76.9188   7.2524808831e+01   3.2441718830e+01    0.2417605    0.2062919   3.15  0.001215089    1.284    0.221
       172  -8.4657    183.4146     77.1678   6.9356735150e+01   2.8363103659e+01    0.2674313    0.1782985 -39.31  0.001229864    1.493    0.330
       173  -8.9809    163.2245     71.1426   7.1536347667e+01   3.4289270722e+01    0.3833183    0.2089529 -30.57  0.001539294    1.885    0.470
       174  -8.1664    150.3351     78.3318   7.6546508362e+01   3.6196236434e+01    0.1624766     0.120483  15.35 0.0007052193    1.733    0.423
       175  -9.1040    213.3431     60.5992   5.9880658886e+01   2.3563435445e+01    0.5132963    0.1094026 -29.98   0.00151119    3.849    0.740
       176  -8.8628    214.2866     69.8595   6.2276690186e+01   2.2121251540e+01    0.2962954    0.1718455 -44.18 0.0008328671    1.786    0.440
       177  -8.6559    212.4633     65.9748   6.1482848480e+01   2.3060824520e+01    0.2634518    0.1374811 -22.70 0.0006913096    1.909    0.476
       178  -8.5179    170.4934     70.0159   6.9721894868e+01   3.2666011053e+01    0.2332939     0.150283 -29.59 0.0005906759    1.563    0.360
       179  -9.2098    182.5149     67.8317   6.6810812163e+01   3.0019817640e+01    0.3698202     0.217798 -19.78  0.001448296    1.901    0.474
       180  -8.6932    193.5842     67.7325   6.4878726459e+01   2.7315834222e+01    0.2744808    0.1431187 -25.03 0.0009387837    1.955    0.488
       181  -8.5907    203.1716     66.1361   6.2901448015e+01   2.5230174904e+01    0.2112405    0.1576903 -45.93  0.001053465    1.380    0.275
       182  -8.1424    152.5321     65.5085   7.2075133159e+01   3.7912586731e+01    0.1542782    0.1504363  17.89 0.0008096137    1.026    0.025
       183  -8.7805      7.6970     65.3433   1.2295596089e+02   6.2310414492e+01    0.1290087   0.07900818  67.00 0.0003266054    1.682    0.405
       184  -8.7025    187.4864     68.3976   6.6101924272e+01   2.8708571388e+01     0.307674    0.1448126 -29.34 0.0009076365    2.087    0.521
       185  -8.0399    163.5461     64.4944   6.9413396179e+01   3.5303046749e+01    0.1531838    0.1487868  11.28 0.0001898903    1.029    0.028
       186  -8.2666    194.4742     50.0666   5.9540504457e+01   2.9556562066e+01    0.2709978    0.1448708 -22.20 0.0006792564    1.926    0.481
       187  -9.1082    191.4786     59.4964   6.2818877957e+01   2.9012810036e+01    0.4019104    0.2765055 -49.02  0.001775466    1.546    0.353
       188 -10.3674    192.4930     55.4125   6.1443521359e+01   2.9329701878e+01    0.9791704    0.4528139 -42.40  0.003796943    2.174    0.540
       189  -8.3948    182.4839     61.9991   6.5073907038e+01   3.0902393672e+01    0.2298672    0.1458035 -29.55 0.0005881218    1.542    0.352
       190  -8.9843    157.9167     61.0792   6.9488401934e+01   3.7289461459e+01    0.3268342    0.2099391 -31.60  0.001273029    1.563    0.360
       191  -8.8740    152.9626     59.4752   7.0021397532e+01   3.8817519398e+01    0.2995317     0.214391 -15.40 0.0007782933    1.616    0.381
       192  -8.6290     25.7279     59.9602   1.1416177443e+02   6.2458664280e+01    0.1789724    0.1480312 -73.84 0.0002108602    1.056    0.053
       193  -7.8247    173.6790     59.3024   6.5823551720e+01   3.3538864821e+01    0.1568782    0.1171282 -66.32 0.0007027513    1.630    0.386
       194  -8.4396    197.3120     64.0908   6.3230278626e+01   2.6928420167e+01    0.2192431    0.1189239 -37.88 0.0009242313    1.762    0.433
       195 -10.1694    219.0058    177.6926   8.5581316545e+01   6.9462698399e+00    0.4539441    0.1588769 -32.21  0.002062803    3.051    0.672
       196  -8.5214    187.3043     62.2090   6.4311023560e+01   2.9664497383e+01    0.2186439    0.1246545 -37.03 0.0007222084    1.686    0.407
       197  -8.2582    175.4426     55.5072   6.4314117040e+01   3.3654433774e+01    0.1513568     0.146164 -46.86 0.0001335049    1.043    0.041
       198  -7.8250    211.4314     53.9970   5.8297613760e+01   2.4869447738e+01    0.2194695    0.1331677 -25.79 0.0008999488    1.554    0.356
       199  -8.1726    185.2317     52.9290   6.1845694208e+01   3.1513553602e+01    0.2018681    0.1209507 -30.13 0.0008683532    1.609    0.378
       200  -9.5800    152.9456     51.6479   6.7399140139e+01   4.0086675162e+01     0.345519    0.1959655 -36.00  0.001215727    1.733    0.423
       201  -8.5904    198.2376     47.9582   5.8363889611e+01   2.8886599451e+01    0.2909379    0.1372392 -19.14  0.001093454    2.363    0.577
       202  -8.3981    178.4831     50.0518   6.2063091445e+01   3.3656553676e+01     0.236865    0.1464998 -29.16  0.001029297    1.582    0.368
       203  -7.9514    172.6700     50.3014   6.3146436501e+01   3.5133921306e+01    0.1590681    0.1157081 -65.41 0.0007032907    1.647    0.393
       204  -8.4961    215.1577    186.7728   8.7784055263e+01   6.5040284943e+00    0.1792877    0.1506037 -22.74 0.0008285198    1.421    0.296
       205  -8.6451    158.0000     47.9721   6.5114571416e+01   3.9328930522e+01    0.2557982   0.08780604 -29.83 0.0007987161    2.917    0.657
       206  -8.3909    181.4755     46.9176   6.0576911307e+01   3.3315279031e+01     0.228265    0.1458973 -27.81 0.0006807061    1.534    0.348
       207  -8.5758    168.6478     43.8683   6.1743112634e+01   3.7109827159e+01    0.2295918    0.1306326 -38.39 0.0007702986    1.716    0.417
       208  -8.9682      1.4180     43.9437   1.2303186797e+02   6.7728373128e+01    0.1873016   0.09744316 -75.91  0.000339824    1.550    0.355
       209  -8.3937    200.5256     43.2782   5.6652636044e+01   2.8909549223e+01    0.1946121    0.1398445  -9.28 0.0005716306    1.521    0.343
       210  -7.9905    178.6660     43.3301   5.9882255058e+01   3.4538081321e+01    0.1630325    0.1111201 -61.47  0.000705209    1.725    0.420
       211  -9.4885    146.6831     39.8667   6.4546098990e+01   4.3537695892e+01    0.4867903     0.113229 -33.70  0.001354404    3.765    0.734
       212  -8.3436    173.5916     39.7945   5.9548479023e+01   3.6355562018e+01     0.217399    0.1346141 -38.21 0.0005922132    1.572    0.364
       213  -8.5996    165.2202     39.3447   6.0815082165e+01   3.8651785899e+01    0.2769366    0.1829686 -13.56 0.0006479625    1.724    0.420
       214  -8.2555    185.4299     39.0663   5.7476307570e+01   3.3324000488e+01    0.2272162     0.144253 -24.37 0.0008922151    1.567    0.362
       215  -8.9960    168.6296     37.0461   5.9445968844e+01   3.8048430604e+01    0.3948283    0.1252908 -31.78  0.001275831    2.848    0.649
       216  -9.1758    169.5065     31.1970   5.7302483076e+01   3.8570048598e+01    0.5382878     0.267549  -3.79  0.001687156    3.325    0.699
       217  -9.1671    201.4034     35.0354   5.4069414927e+01   2.9695339525e+01    0.4023097    0.1921548 -21.40  0.001557764    2.128    0.530
       218  -8.2804    189.5435     35.7739   5.5849254411e+01   3.2662383085e+01    0.2096049    0.1266651 -39.97 0.0008028038    1.588    0.370
       219  -9.3135     77.8099    185.8343   1.1516608126e+02   2.8067354490e+01    0.2005516     0.141902  42.83   0.00065007    1.190    0.159
       220 -10.7301    149.1291     32.8375   6.1461481596e+01   4.3880833477e+01    0.6614084    0.1618927 -32.07  0.001764914    3.567    0.720
       221  -9.8696    144.0130     34.7471   6.3200241452e+01   4.4992513486e+01      0.21899    0.2098294  48.25 0.0009264947    1.032    0.031
       222  -9.4343    163.9863     32.5004   5.8655094651e+01   3.9898433818e+01    0.2522689    0.1893991 -27.18 0.0008427122    1.334    0.251
       223  -8.4103     26.9608     33.5393   1.0665559910e+02   6.8625390142e+01    0.1661711    0.1284617  14.72 0.0003881152    1.487    0.327
       224  -9.2212      1.6579     31.0606   1.2072850841e+02   7.0768007970e+01    0.1743249     0.126343 -66.87 0.0004662163    1.101    0.091
       225  -8.1450    189.5205    184.4844   9.1926482229e+01   1.0872700211e+01    0.1245721   0.09924876  24.47 0.0002475945    1.008    0.008
       226  -9.1692    192.6257    247.4468   1.0010727144e+02   3.3259863786e+00    0.2351711    0.1225571 -40.44   0.00158421    2.747    0.636
       227  -8.3307     88.3250    249.2848   1.1810962711e+02   1.6658855029e+01   0.09205521   0.06914208  23.19 0.0004781236    1.602    0.376
       228  -8.9546    218.1120    245.1879   9.5785165868e+01   2.4621788397e-01    0.2570388    0.1149495 -19.52  0.001542725    3.007    0.667
       229  -9.0549    205.3741    245.6713   9.7847922627e+01   1.8333438153e+00    0.1404669    0.1070458  44.87   0.00110149    1.685    0.406
       230  -8.5490     94.0184    244.2586   1.1676343779e+02   1.6643746858e+01    0.1556757    0.0972881  41.85 0.0005358093    1.126    0.112
       231  -8.4163    210.1353    242.1969   9.6662543026e+01   1.5333118502e+00      0.15777   0.09994293  19.10  0.000529714    1.249    0.199
       232  -9.6607    150.6385     24.8234   5.8175222878e+01   4.4517675098e+01    0.3553059    0.1374845 -44.51  0.001175902    2.835    0.647
       233  -8.5829    177.6598    242.1363   1.0196291427e+02   5.8485490887e+00    0.1359202    0.1049575  22.32 0.0003613997    1.152    0.132
       234  -8.3969     29.6566     28.3024   1.0324246751e+02   6.9551112860e+01    0.1249033   0.09823091  72.52 0.0007039183    1.681    0.405
       235  -8.6803      1.4430     27.4346   1.2012787223e+02   7.1622363619e+01    0.1700798    0.1389748 -64.88 0.0005350052    1.020    0.020
       236 -10.4136      3.3803     23.7834   1.1808007010e+02   7.2397794387e+01     0.424827    0.1937256 -77.51  0.002104867    2.009    0.502
       237 -10.5141    136.8251     24.4741   6.0683785404e+01   4.8328701589e+01    0.4046168    0.2507748 -24.41 0.0004415914    1.661    0.398
       238  -8.8037    214.0363    240.5765   9.5840593110e+01   1.1743861691e+00    0.1459528     0.120408  12.33 0.0005942814    1.311    0.237
       239  -8.6797    219.5558    239.2588   9.4804127033e+01   5.7968904880e-01    0.1496901   0.09505858 -28.02  0.000969233    1.962    0.490
       240  -8.6141     69.4998    239.4634   1.2082796611e+02   2.0262063359e+01    0.1054252   0.07278646  48.79 0.0001699816    1.006    0.006
       241 -10.5881    228.6099    223.6327   9.1266704580e+01   7.9974254484e-01    0.7815012    0.2060416 -37.07  0.003481133    5.217    0.808
       242  -7.9149    178.5142     21.9806   5.2860673859e+01   3.7228891691e+01    0.2128389    0.1236151  14.06 0.0008100765    2.516    0.603
       243  -8.2107    176.0000     21.9419   5.3184980450e+01   3.7914505131e+01    0.2483826   0.08409911 -23.20 0.0008048974    2.960    0.662
       244  -9.2099     85.0021     21.2499   7.3359215229e+01   6.1791553709e+01    0.2503276    0.2025099 -28.00 0.0005220019    1.205    0.170
       245  -8.8179    160.5834     20.7114   5.4990252197e+01   4.2276168711e+01    0.2817421    0.1519659 -17.38  0.001124884    2.033    0.508
       246 -10.2682    230.0243    235.6786   9.2709312627e+01  -4.4761498199e-01    0.2986644    0.2248008 -31.37   0.00166722    1.954    0.488
       247  -8.5606    166.5843     22.7712   5.4814692640e+01   4.0388326310e+01     0.225164    0.1292935 -37.56 0.0009520074    1.694    0.410
       248  -8.5174     74.6151     19.7249   7.6522310210e+01   6.4258122970e+01    0.2284514    0.1625898   7.91 0.0008839988    1.752    0.429
       249  -8.3990     14.4963     20.4660   1.0978302940e+02   7.2566518538e+01    0.1239953    0.1043679 -54.04 0.0003217637    1.034    0.033
       250  -9.1597    225.4872    231.4325   9.2838119282e+01   5.0665954733e-01    0.1832013    0.1344412  -9.32 0.0008901962    1.430    0.301
       251  -8.5712    193.0324     18.0285   4.9809222258e+01   3.3777007271e+01    0.2371222    0.1650451  28.69  0.001118411    1.726    0.421
       252  -9.4558      2.6710     15.8980   1.1646257233e+02   7.4226230830e+01    0.1875211    0.1312831 -48.47 0.0003893535    1.192    0.161
       253  -9.1255    207.0868    232.1441   9.5864741589e+01   2.8793868428e+00    0.2354355    0.1269366  -4.66  0.001373969    2.620    0.618
       254  -8.5859     91.7996    235.1581   1.1650026806e+02   1.8190886025e+01    0.1390982    0.1102125  29.78  0.000811219    1.368    0.269
       255  -9.4014     42.3027     27.8119   9.5916069613e+01   6.8205648917e+01    0.1962359    0.1799078  42.46 0.0004048941    1.261    0.207
       256 -10.0355    216.6374    228.6994   9.3865215548e+01   1.9254192172e+00    0.2727824    0.1616649 -33.17  0.001283991    2.160    0.537
       257  -9.8983     23.5631     15.2617   1.0156601330e+02   7.2967998777e+01    0.2087055    0.1702579  14.70 0.0006944077    1.363    0.266
       258  -8.7093    197.5474    182.2783   9.0103177195e+01   9.8464238060e+00    0.2015365    0.1168118 -38.16  0.001129594    2.044    0.511
       259  -9.1955    215.0000    232.0128   9.4572490694e+01   1.8330936576e+00    0.2433297      0.14754 -29.84  0.001738061    2.034    0.508
       260  -9.2507    211.8745    225.4654   9.4192492263e+01   2.8796627346e+00    0.2584816     0.138972 -21.46  0.001189774    2.204    0.546
       261  -8.8225    223.1896    225.4145   9.2370371271e+01   1.3566451285e+00    0.1756379    0.1248019  -5.25  0.001095021    1.389    0.280
       262  -8.4863    205.7146    224.8042   9.5111275132e+01   3.7921886889e+00    0.1990805   0.09393378 -35.80  0.001195201    2.673    0.626
       263  -8.2180    139.3264    226.3160   1.0693895216e+02   1.3036318883e+01    0.1087756   0.07540397  16.76 0.0002020269    1.672    0.402
       264 -12.0887    233.8129     91.3239   6.4993334867e+01   1.5090972954e+01     1.149333    0.7122778 -25.21  0.005937584    1.459    0.314
       265  -8.4458    129.9645    223.4849   1.0837405165e+02   1.4737829019e+01    0.1825295   0.08467926  38.81  0.001033147    1.593    0.372
       266  -8.5083     40.9879    220.5128   1.2506636034e+02   2.6352715103e+01    0.1250674    0.0872089   8.82 0.0008098439    2.487    0.598
       267  -9.0642    210.7652    217.7940   9.3304946634e+01   3.7988445612e+00    0.2596165    0.1354307 -37.05  0.001599955    2.475    0.596
       268  -9.8007    219.3107    216.1486   9.1672654121e+01   2.7705864507e+00    0.2872497    0.2016359 -42.25  0.001956509    2.262    0.558
       269  -7.6350    186.3304    218.3024   9.7519209586e+01   7.2396868630e+00     0.115398   0.07076253  17.09 0.0003282648    1.651    0.394
       270  -9.3801    204.8196    212.6562   9.3561210986e+01   5.1827818512e+00    0.3576318    0.1390294 -41.68  0.001786376    3.648    0.726
       271  -9.0767    224.5854    206.4139   8.9368048668e+01   2.9998860464e+00    0.3366785    0.1017105 -31.87  0.001578019    3.715    0.731
       272  -9.4364    223.3895    200.6145   8.8661419373e+01   3.7629698824e+00    0.2272811    0.1866974  31.08  0.001686232    1.350    0.259
       273  -9.0030    217.1176    204.6660   9.0319065681e+01   4.2498295188e+00    0.1702564    0.1448462 -12.61  0.001109921    1.394    0.283
       274  -8.7728    202.1420    203.6764   9.2694203381e+01   6.5657459178e+00    0.1683933    0.1435756 -19.68 0.0007572685    1.418    0.295
       275  -8.9879    172.8884    203.4763   9.7888596410e+01   1.1050360561e+01    0.2134483    0.1432221 -15.43  0.001264615    1.928    0.481
       276  -9.3919    215.3804    197.1953   8.9443333957e+01   5.3054468409e+00    0.3295788    0.1006748 -36.08  0.001471879    3.791    0.736
       277 -15.8303    242.2449     38.0190   5.0505851528e+01   1.9664790813e+01     12.30109     2.454365 -23.76   0.03603969    4.586    0.782
       278  -8.9406    190.6380    179.7697   9.0938857209e+01   1.1306829227e+01      0.15459    0.1153254 -42.81 0.0009487124    1.716    0.417
       279  -8.7260    185.4020    193.2838   9.4080195090e+01   1.0400437800e+01     0.134106     0.116026 -36.42 0.0003802964    1.488    0.328
