#   1 NUMBER                 Running object number                                     
#   2 MAG_AUTO               Kron-like elliptical aperture magnitude                    [mag]
#   3 X_IMAGE                Object position along x                                    [pixel]
#   4 Y_IMAGE                Object position along y                                    [pixel]
#   5 X_WORLD                Barycenter position along world x axis                     [deg]
#   6 Y_WORLD                Barycenter position along world y axis                     [deg]
#   7 A_WORLD                Profile RMS along major axis (world units)                 [deg]
#   8 B_WORLD                Profile RMS along minor axis (world units)                 [deg]
#   9 THETA_WORLD            Position angle (CCW/world-x)                               [deg]
#  10 FWHM_WORLD             FWHM assuming a gaussian core                              [deg]
#  11 ELONGATION             A_IMAGE/B_IMAGE                                           
#  12 ELLIPTICITY            1 - B_IMAGE/A_IMAGE                                       
         1  -8.0438     17.2168     14.2242   8.7884416445e+01   7.0960193997e+01    0.1425315    0.1239249 -19.85  0.000532015    1.350    0.259
         2  -8.5962     55.6932     10.1285   6.7500043568e+01   6.6482831743e+01    0.1877174    0.1607183  32.11 0.0007634479    1.322    0.243
         3  -7.9663     47.5088     10.0233   7.0861294208e+01   6.7799304041e+01    0.1743462    0.1069264 -26.64  0.001014966    1.562    0.360
         4  -8.0044     90.9863      9.0250   5.5193573899e+01   5.9861731036e+01    0.1813391    0.1562044 -63.04 0.0004383973    1.620    0.383
         5  -8.2891    246.9998      8.0819   3.2755784554e+01   2.3524403211e+01      0.14196    0.1130922 -63.74 0.0004345928    1.036    0.034
         6  -7.6131    101.4700      8.4059   5.2218551976e+01   5.7636854699e+01    0.1311065    0.1116895  40.38 0.0001400571    1.033    0.032
         7  -7.8667     83.4174     11.1874   5.8307831310e+01   6.1228267326e+01    0.1706587    0.1144427 -33.10 0.0006837304    1.703    0.413
         8  -8.5665     33.4807      5.0637   7.4790851511e+01   7.0399653537e+01    0.2661352    0.1699392 -46.34  0.001487514    2.558    0.609
         9  -8.3801     62.4547      1.4668   6.0668092108e+01   6.6193852978e+01    0.1823942    0.1144045  57.83 0.0005946595    1.980    0.495
        10  -8.2991     79.0656      4.0007   5.6419872970e+01   6.2781684641e+01    0.1794378    0.1507239 -55.01 0.0007635124    1.731    0.422
        11  -9.9909    223.9487    244.2661   8.6070906588e+01  -7.6343761884e+00    0.4118226    0.2237159 -43.33   0.00225486    2.496    0.599
        12  -8.7522    232.8367    247.9224   8.5055495822e+01  -9.2894465125e+00    0.2998337    0.1499048 -43.43  0.001571421    2.895    0.655
        13  -8.0368    191.5297    249.7733   9.2983154932e+01  -3.7185103015e+00    0.1366509     0.119072 -49.26 0.0009296886    1.639    0.390
        14  -8.0308    183.9762    250.4774   9.4529864874e+01  -2.6975572218e+00    0.1911245   0.09882132  34.81 0.0007573509    1.573    0.364
        15  -7.7011    125.2732    250.3671   1.0596255138e+02   6.1897169627e+00    0.1132006   0.09060194  -0.92 0.0007002586    1.670    0.401
        16  -8.3920     93.9643    249.6161   1.1196227919e+02   1.0858689975e+01    0.2195048    0.1368645  67.80  0.001281122    1.738    0.425
        17  -9.0834    210.9499    246.5712   8.8834307706e+01  -6.1067340288e+00    0.1906143    0.1672672 -43.75 0.0008504895    1.692    0.409
        18  -9.2225    120.3174    245.8029   1.0641002652e+02   7.6928395802e+00     0.327926    0.2128385  71.00  0.001530767    2.051    0.512
        19  -8.8522     67.8428    245.6665   1.1657797372e+02   1.5077783779e+01    0.2669765    0.1340997  88.09  0.001363332    2.574    0.612
        20  -9.2044    246.5361    229.2303   7.9501261865e+01  -8.7996510449e+00    0.3318325    0.1718563 -32.08  0.001443902    1.886    0.470
        21  -9.8524    248.6491    242.0462   8.1311641083e+01  -1.0643141309e+01    0.3808467    0.1774741 -33.02  0.001910918    2.168    0.539
        22  -9.1414    247.7504    234.6671   8.0224689594e+01  -9.6378529072e+00    0.2329659    0.1817385  -6.04 0.0008872297    1.151    0.131
        23  -8.5896     49.7254    243.8529   1.1980610390e+02   1.7655315871e+01     0.382581    0.1311117 -88.67  0.001310647    5.934    0.831
        24  -9.1953      9.4680    243.5693   1.2686567262e+02   2.2043345308e+01    0.3711663    0.1102935  81.93  0.001492269    4.567    0.781
        25  -8.5921    201.9706    243.4390   9.0032466873e+01  -4.3890695998e+00    0.1952824     0.170934 -48.59  0.001094553    1.676    0.403
        26  -8.8005    169.0352    243.4784   9.6425877078e+01   5.8821920661e-01     0.193031    0.1769822 -79.62 0.0005968293    1.535    0.348
        27  -8.0362    139.6760    244.3612   1.0238231674e+02   4.9907770912e+00    0.1266599   0.08760732  62.73 0.0007042148    1.782    0.439
        28  -8.6741     34.4142    244.1947   1.2259202071e+02   1.9348749129e+01    0.1533441   0.08489225  83.49  0.000950275    1.685    0.407
        29  -8.4665    213.7371    242.6014   8.7686425250e+01  -5.9835170647e+00    0.2143193     0.131438 -18.77  0.001246865    1.721    0.419
        30  -7.9591    195.5888    243.1872   9.1210767513e+01  -3.4095233922e+00    0.1751357    0.1431442  22.56 0.0005114197    1.092    0.084
        31  -8.3401    193.9457    239.6762   9.0981613770e+01  -2.6667891909e+00     0.176982    0.1497256   3.26 0.0004052196    1.124    0.110
        32  -9.2980    160.1449    240.4716   9.7762958722e+01   2.4358523992e+00    0.3242945    0.2363836 -80.94  0.001321083    2.428    0.588
        33  -8.5821     77.6341    243.1348   1.1449750781e+02   1.4255071058e+01    0.1852608    0.1261196  74.27  0.001029706    1.464    0.317
        34  -9.0582    183.1040    240.3748   9.3199462978e+01  -1.1155744541e+00    0.3544529    0.2330416  60.96  0.001774913    2.675    0.626
        35  -8.1548    153.3935    242.2014   9.9354639021e+01   3.2149770412e+00    0.1505128    0.1223642 -69.26 0.0008080842    1.682    0.406
        36  -8.1527     88.1804    242.2198   1.1236495966e+02   1.2982467875e+01    0.1649767     0.117921  69.09 0.0005303251    1.366    0.268
        37  -8.1075    240.4388    240.2911   8.2455825076e+01  -9.3680124162e+00    0.1695544    0.1030341 -26.25  0.001046507    1.599    0.374
        38  -8.4394     58.8023    245.1834   1.1822900132e+02   1.6307604430e+01    0.2124349    0.0858359  63.82 0.0009584313    2.922    0.658
        39  -8.6593    146.0411    239.6558   1.0048504790e+02   4.7760970061e+00     0.189985    0.1727992  85.03 0.0005993047    1.367    0.268
        40  -8.3265      2.2104    239.9821   1.2792184596e+02   2.3385838408e+01    0.1611958   0.07619756  56.50  0.001039864    1.598    0.374
        41  -8.1458    208.9738    238.4802   8.7917432163e+01  -4.7395167433e+00     0.180416     0.147389 -10.12 0.0007045242    1.207    0.171
        42  -9.1190    135.5195    238.9722   1.0252298709e+02   6.5324763610e+00    0.2414718    0.1460011  50.07  0.000914397    1.586    0.370
        43  -8.7132    128.8804    238.4256   1.0379965585e+02   7.6550156851e+00    0.2212983    0.1603743  77.72 0.0009906341    1.853    0.460
        44  -8.7504    230.8231    237.1859   8.3658336421e+01  -7.6813617376e+00    0.2269603    0.2012943 -57.61  0.001102758    2.074    0.518
        45  -8.2334    170.5715    236.6037   9.5112299124e+01   1.4068673204e+00    0.2763805    0.2022624  88.92  0.001398702    2.823    0.646
        46  -8.4975     25.4975    237.4873   1.2378252684e+02   2.1562756387e+01    0.1975421   0.08379577  86.37  0.001029759    2.437    0.590
        47  -9.8103    175.8633    233.7418   9.3618418686e+01   1.0186548961e+00    0.4505779    0.2475029 -54.52  0.002197867    2.665    0.625
        48  -9.9454    214.7845    233.2252   8.5958556182e+01  -4.8707858476e+00    0.4591254    0.3648316 -85.66  0.002376624    3.339    0.701
        49  -8.7947    203.0317    234.6170   8.8422824378e+01  -3.3169478215e+00    0.2316529    0.1772773 -52.46 0.0009159413    1.959    0.489
        50  -9.4858    109.0844    234.6804   1.0737672523e+02   1.1337951187e+01    0.4561267    0.2156457  54.91  0.001476513    2.315    0.568
        51  -7.7596     58.0397    237.0000   1.1773534577e+02   1.7930519411e+01    0.1878249   0.05736944  35.69 0.0008031021    2.947    0.661
        52  -8.7116     99.5048    234.1880   1.0927218855e+02   1.2845920146e+01    0.2815679    0.1770438  76.93  0.001034529    2.027    0.507
        53  -8.9877     78.5602    234.3624   1.1350332606e+02   1.5766804882e+01    0.2605259    0.1504261  69.80 0.0009685642    1.913    0.477
        54  -9.1566      8.2518    235.0270   1.2667778060e+02   2.3747105531e+01    0.1528782    0.1076502  75.01 0.0006687595    1.061    0.058
        55  -8.2568    161.2198    234.6081   9.6700239742e+01   3.2049578207e+00    0.2048098    0.1096297  37.96    0.0004291    1.577    0.366
        56  -8.4570    157.7874    232.1749   9.7041384855e+01   4.1519155785e+00    0.2033323    0.1537336  59.21 0.0008534315    1.615    0.381
        57  -8.3722    122.8628    234.1664   1.0449170560e+02   9.3334212703e+00    0.2003832    0.1519306  59.80 0.0009057513    1.344    0.256
        58  -9.5115     68.2557    232.0506   1.1533165680e+02   1.7581136771e+01    0.5049906     0.253347  76.97  0.002408624    2.632    0.620
        59  -8.3906    194.4718    232.9482   8.9810418758e+01  -1.7702158696e+00    0.1654628     0.122016 -35.51 0.0005560018    1.532    0.347
        60  -9.1331    141.5512    231.1770   1.0023911176e+02   6.9216022909e+00    0.5860245    0.2397304  54.70  0.001998118    4.251    0.765
        61  -8.7000    132.6717    233.0878   1.0233309957e+02   7.9950042975e+00    0.1880871    0.1548849  79.59  0.000973898    1.478    0.324
        62  -8.6717     92.6409    232.2629   1.1045829240e+02   1.4200280153e+01    0.2735127    0.1618714  75.19  0.001396855    2.171    0.539
        63  -9.2759    186.4130    230.6955   9.1035117802e+01  -1.7576958602e-01    0.3001962    0.2437066 -85.85  0.001131247    2.263    0.558
        64  -8.7796    235.9850    230.6777   8.1623718120e+01  -7.5534717948e+00    0.2041069    0.1561794 -25.52  0.000561784    1.393    0.282
        65  -8.7313      1.9070    231.0926   1.2758989853e+02   2.5078705695e+01    0.1756591   0.09965941  66.82 0.0007944196    1.346    0.257
        66 -10.0844    149.7160    226.3571   9.7850928974e+01   6.4440379970e+00    0.5673059    0.3611923 -86.97  0.002343645    3.753    0.734
        67  -7.9085    229.6169    228.8088   8.2456762386e+01  -6.4145989410e+00    0.1550113    0.1086674 -37.68 0.0005470278    1.709    0.415
        68  -8.2547    223.2146    227.9187   8.3483477996e+01  -5.3731565776e+00    0.3225458    0.1120345 -31.21  0.001339208    3.189    0.686
        69  -9.3753    225.5632    221.8888   8.1997937072e+01  -4.8801314288e+00     0.254434    0.2169695  16.46 0.0009832885    1.214    0.176
        70  -8.8027    161.9209    227.8616   9.5547165327e+01   4.2031144205e+00    0.2602752    0.2067699  58.53  0.001171293    1.523    0.343
        71  -8.8992    127.8263    227.3219   1.0257155917e+02   9.7935796939e+00    0.2751617    0.1986117  72.49  0.000962094    1.767    0.434
        72  -7.8806    119.6535    227.8008   1.0434768674e+02   1.0989775020e+01    0.1640151     0.120027 -76.07 0.0004015929    1.685    0.407
        73  -8.7180      8.0000    227.9910   1.2638292954e+02   2.5115187348e+01     0.167907   0.05087585 -78.87 0.0005957725    2.921    0.658
        74  -8.7995    205.9878    225.8988   8.6403273148e+01  -2.5066233823e+00    0.2886645    0.1741242 -41.00   0.00112632    1.907    0.476
        75  -8.3012     49.2785    227.0963   1.1864104291e+02   2.0918969515e+01    0.2401089    0.1086019  58.20  0.001225373    2.061    0.515
        76  -8.0654    200.3443    226.2344   8.7556454309e+01  -1.6833869343e+00     0.158113    0.1173276 -42.12 0.0004181485    1.636    0.389
        77  -8.2782     38.8977    225.4783   1.2052841929e+02   2.2440278847e+01    0.2875725    0.1027701  68.08  0.001093301    4.076    0.755
        78  -8.8616    180.6786    224.5984   9.1198679936e+01   1.6946713239e+00    0.2581154    0.2122477  56.57  0.001118669    1.568    0.362
        79  -9.0416    104.7470    223.8611   1.0698920454e+02   1.4026141145e+01    0.3368106    0.2122228  79.14  0.001689021    2.171    0.539
        80  -8.9285     93.9555    224.3256   1.0931222076e+02   1.5538267572e+01    0.3513652    0.1886372  62.79  0.001675571    2.204    0.546
        81  -8.9067    216.5068    223.6335   8.4001220073e+01  -3.7789455737e+00    0.2142381    0.1966061 -20.69 0.0007272451    1.380    0.275
        82  -8.5460    173.0221    223.0313   9.2505653500e+01   3.1961510142e+00     0.240906    0.1804439 -76.56 0.0008521489    2.345    0.574
        83  -7.9307    113.6257    223.8413   1.0510939423e+02   1.2670719427e+01    0.1668558    0.1213457 -78.65 0.0006039931    1.661    0.398
        84  -9.2983    192.4297    221.4517   8.8311654587e+01   2.9939941901e-01    0.2681773    0.2430719 -85.27  0.000892378    1.715    0.417
        85  -9.2264    160.1313    221.3168   9.4905438963e+01   5.6098128567e+00    0.5320069    0.2593947  54.24  0.002121516    3.016    0.668
        86  -8.1866    140.5618    222.8305   9.9257883567e+01   8.5621613463e+00    0.1640417    0.1282838 -75.82 0.0007520205    1.681    0.405
        87  -8.9860    239.0322    221.6312   7.9495812727e+01  -6.7823502463e+00    0.2056454     0.186864 -42.07  0.001033875    1.723    0.419
        88  -8.4075     73.2535    221.2557   1.1329624863e+02   1.9052845471e+01    0.2496818    0.1314282  82.66  0.001070807    2.576    0.612
        89  -9.2351      7.5068    222.1487   1.2617868551e+02   2.6302237234e+01    0.2782013   0.06887962  46.49  0.001332183    2.870    0.652
        90  -9.1930    120.5449    219.4016   1.0304741583e+02   1.2433677131e+01     0.446207    0.2429975  63.22  0.001909958    2.694    0.629
        91  -9.0240     82.6028    220.2582   1.1124204792e+02   1.7970241434e+01    0.3510219    0.2014125  79.59  0.001319553    2.264    0.558
        92  -8.2573     27.6609    220.9168   1.2236559830e+02   2.4571813408e+01    0.2211873   0.08024549 -67.09  0.001099839    2.564    0.610
        93  -8.3199    202.5265    220.0833   8.6079314867e+01  -1.0969643539e+00    0.1771053     0.122617 -33.73 0.0006674582    1.531    0.347
        94  -8.4838    248.7022    218.2376   7.7179171216e+01  -7.6701831559e+00    0.2419568    0.1901708  59.36  0.001394377    2.635    0.621
        95  -8.4773    209.9360    219.1739   8.4478992620e+01  -2.1209274933e+00    0.1843939     0.161703  24.01 0.0004849404    1.235    0.190
        96  -7.9696    135.3655    218.6823   9.9760915829e+01   1.0174565547e+01    0.2480371    0.1106556  46.46 0.0008370537    2.136    0.532
        97  -8.9803    132.0521    215.4701   1.0000567200e+02   1.1324480937e+01     0.287201    0.2143311 -79.31 0.0009435939    1.765    0.433
        98  -8.5767     62.3599    217.6121   1.1519562789e+02   2.1222612783e+01    0.3456336    0.1458832  57.42  0.001551672    2.494    0.599
        99  -8.8414     51.6285    217.1907   1.1735799860e+02   2.2639780375e+01    0.2870922    0.1615695  88.16  0.001091367    1.841    0.457
       100  -8.5737    169.3489    216.2011   9.2150586514e+01   4.9582880197e+00    0.2706533    0.2109241 -83.39 0.0009062212    2.128    0.530
       101  -8.5948    142.8471    216.6182   9.7845846512e+01   9.3231053617e+00    0.2357576    0.1791415 -84.68  0.000777106    1.878    0.468
       102  -7.9982    112.0026    217.2711   1.0460342013e+02   1.4195837246e+01    0.1844877    0.1352546  77.92  0.000614481    1.626    0.385
       103  -8.2522     18.5478    216.0466   1.2379191321e+02   2.6479469543e+01    0.1716601    0.0930161 -82.84  0.001034477    1.612    0.380
       104  -9.3622    231.9729    213.1960   7.9256292779e+01  -4.5976619726e+00    0.4186914     0.252647 -45.87  0.002197922    2.246    0.555
       105  -8.4771    185.7532    214.2545   8.8426845202e+01   2.5476653050e+00    0.2068355    0.1778107 -42.60  0.000694256    1.388    0.279
       106  -8.0774    154.3952    215.1968   9.5149251605e+01   7.6500307105e+00    0.1692536    0.1313038 -64.67 0.0005699524    1.667    0.400
       107  -9.1074     93.4334    214.3285   1.0825210350e+02   1.7613908706e+01      0.44249    0.1932105  55.73  0.001665256    2.685    0.628
       108  -9.5026    213.8492    212.2036   8.2480864548e+01  -1.6825335885e+00    0.3110879    0.2884049  60.26  0.001537708    1.621    0.383
       109  -9.4579     73.2971    212.2685   1.1235758730e+02   2.0892998956e+01    0.6336174    0.2307916  57.69  0.002254203    3.853    0.740
       110  -8.1536    224.7997    212.5619   8.0468372626e+01  -3.4300936417e+00    0.1898439    0.1420005 -29.85 0.0005110697    1.375    0.273
       111  -8.8369    200.7251    212.6213   8.5122358901e+01   3.5180372308e-01    0.2704891    0.1791279  38.82   0.00098965    1.470    0.320
       112  -9.2551    204.2124    210.9120   8.4125326099e+01   5.6491293714e-02    0.2876204    0.1969043 -37.59 0.0006303429    1.569    0.363
       113  -8.7805    201.6900    208.3089   8.4153309547e+01   8.8268798713e-01     0.227056    0.1907625  22.89 0.0004550176    1.111    0.100
       114  -8.6076    161.7681    212.4820   9.3135353033e+01   6.8915042552e+00    0.2356267    0.2019508  72.29 0.0007211965    1.521    0.343
       115  -8.1205    106.4805    212.9432   1.0523422725e+02   1.5918907906e+01    0.1813691    0.1300839 -68.32 0.0006730466    1.542    0.351
       116  -7.5163    242.6757    212.2645   7.7154769911e+01  -6.0223458947e+00    0.1037041   0.09780742  27.09 0.0002778043    1.563    0.360
       117  -9.3473    175.4505    210.1129   8.9841757358e+01   4.9815277858e+00    0.3865868    0.2770759  70.66   0.00138461    2.459    0.593
       118  -9.4700      7.1905    210.3287   1.2561173034e+02   2.8708302058e+01    0.4829711    0.1427177  70.57  0.001738811    4.851    0.794
       119  -8.2311    192.2933    210.5830   8.6450706596e+01   2.0663297454e+00    0.2218192    0.1602816 -48.87  0.000679165    1.728    0.421
       120  -8.8969    148.1206    210.6842   9.5779102462e+01   9.5415646803e+00      0.26978    0.2074164  79.39  0.001331602    1.857    0.461
       121  -9.3253    116.2321    210.4558   1.0274919782e+02   1.4880417441e+01    0.3420906    0.2160351  67.83  0.001128503    2.083    0.520
       122  -8.3980     32.6433    210.6932   1.2067375778e+02   2.6146209642e+01    0.3221899    0.1097677  57.23  0.001378879    3.014    0.668
       123  -9.0903    236.5053    208.5714   7.7579985802e+01  -4.6076066949e+00     0.247731    0.2214756 -53.31  0.001313067    1.786    0.440
       124  -8.5964     85.5268    209.5220   1.0939874632e+02   1.9761293551e+01    0.2946839    0.1606284  67.91  0.001151013    2.355    0.575
       125  -8.2842    126.4716    208.4757   1.0019369091e+02   1.3606491692e+01    0.2085303    0.1336084 -70.96 0.0006522043    2.059    0.514
       126  -7.7821     46.2857    209.6352   1.1780366517e+02   2.4849328242e+01    0.1309651   0.07507484  68.96 0.0007020828    1.693    0.409
       127  -9.2836    246.4368    207.4091   7.5593760013e+01  -5.8856454479e+00    0.2385996    0.1851883 -22.23 0.0005845138    1.239    0.193
       128  -7.8970    156.3942    208.1520   9.3570167313e+01   8.5985788861e+00     0.177866    0.1332689 -62.89 0.0006117207    1.719    0.418
       129  -8.5287    139.2227    208.0217   9.7303001353e+01   1.1558857498e+01    0.2444156    0.1741386  58.20 0.0006670136    1.583    0.368
       130  -9.1575     99.3062    206.0418   1.0591056793e+02   1.8445080898e+01    0.3752218    0.2367549  82.56  0.001298778    2.154    0.536
       131  -8.6844     56.3245    205.4995   1.1530553671e+02   2.4528224037e+01    0.3179188    0.1547377  61.63  0.001405055    2.193    0.544
       132  -8.6576     11.5013    206.5406   1.2456938797e+02   2.9102985890e+01    0.1150495   0.08667801  76.35 0.0008092157    1.018    0.017
       133  -8.1989    109.0532    205.1297   1.0360010472e+02   1.7114777196e+01    0.2171972    0.1513448  71.54  0.000907891    1.711    0.416
       134  -8.0881     24.9751    205.1826   1.2181469993e+02   2.8100589843e+01    0.2061909     0.092466  58.49 0.0009157342    2.058    0.514
       135  -9.4358    250.1263    202.1359   7.3962145047e+01  -5.6753519110e+00     0.377468     0.160021 -34.39  0.001442976    2.171    0.539
       136  -9.3561    194.8752    203.4524   8.4634461261e+01   2.8170857222e+00      0.35083    0.2448673 -32.51 0.0007967311    1.467    0.318
       137  -9.1388    192.3648    197.3756   8.4014573954e+01   4.2822188864e+00    0.2970393    0.2510203 -55.35 0.0008880404    1.544    0.352
       138  -9.5287    163.6615    202.9146   9.1101329807e+01   8.3078908005e+00    0.3889597    0.2755544  60.22 0.0009749926    1.859    0.462
       139  -8.7460    131.0856    203.8604   9.8457821518e+01   1.3755721757e+01    0.2641301    0.2143566  78.15 0.0008829451    1.484    0.326
       140  -8.6360    211.0014    202.2297   8.1191732364e+01   3.2900018585e-01     0.214376    0.1879236 -56.53 0.0006191725    1.639    0.390
       141  -9.1378    243.2066    201.0595   7.4969853844e+01  -4.5181120157e+00    0.2919939    0.1940968 -38.02  0.001062652    1.631    0.387
       142  -8.9644    140.5713    201.0731   9.5881728466e+01   1.2688789214e+01    0.3822335    0.2580837  76.50  0.001673394    2.444    0.591
       143  -8.8543     80.1458    201.3675   1.0961585755e+02   2.2267410059e+01    0.4010842    0.1963749  63.60  0.001663116    2.708    0.631
       144  -7.7114     73.3017    202.6283   1.1129302590e+02   2.2943881364e+01    0.1400737   0.08664329  69.60 0.0007031086    1.749    0.428
       145  -8.1668     48.6383    202.3555   1.1665480929e+02   2.6133727693e+01    0.2047517    0.1184238  66.61   0.00100461    1.699    0.412
       146  -8.7842    183.5938    203.9531   8.7048452818e+01   4.6578161507e+00    0.2584449    0.2210555  74.28 0.0008526755    1.712    0.416
       147  -7.9861    222.0009    201.2327   7.8888072353e+01  -1.2908315800e+00    0.1744418    0.1407175 -45.96 0.0006205106    1.620    0.383
       148  -9.2770    237.0078    198.9267   7.5672044704e+01  -3.2781128963e+00     0.291115    0.1703168 -40.99  0.001333186    1.886    0.470
       149  -9.6803    149.4205    198.4705   9.3462210029e+01   1.1656268118e+01    0.4377311    0.3051481 -78.59  0.001312781    2.306    0.566
       150  -9.3087    123.4375    198.5866   9.9362781907e+01   1.6120588359e+01    0.4099675    0.2710285  89.55  0.001842447    2.369    0.578
       151  -9.6787    112.9234    198.5278   1.0176352354e+02   1.7874612930e+01    0.4581816    0.2888924  72.16  0.001577613    2.248    0.555
       152  -9.1643     88.5534    198.4421   1.0734242984e+02   2.1687820354e+01    0.3684323    0.2290377  80.29  0.001404996    2.069    0.517
       153  -8.5322    176.9369    199.1174   8.7569569697e+01   6.6720819527e+00    0.2014115    0.1856908  55.22 0.0005112926    1.300    0.231
       154  -8.5198    202.2483    197.5493   8.2038625035e+01   2.5550785650e+00    0.2424853    0.1782532 -33.95 0.0006619493    1.387    0.279
       155  -9.2995     61.6108    197.1594   1.1329011758e+02   2.5683446499e+01    0.4658072    0.2471513  68.56  0.001686016    2.212    0.548
       156  -8.5464     12.7822    197.5557   1.2375509274e+02   3.0886030689e+01    0.2935927   0.08874264  71.09 0.0008897427    6.221    0.839
       157  -7.6626     36.2799    196.9424   1.1881880850e+02   2.8705636604e+01    0.1980546   0.07720309  83.41 0.0006670086    4.043    0.753
       158  -7.8695     29.3341    197.6705   1.2035218170e+02   2.9273992934e+01    0.1312963   0.07174562  65.99 0.0005610046    1.724    0.420
       159  -8.7975    215.8139    195.4488   7.8963674474e+01   6.2499741668e-01    0.2779706    0.1722918 -50.25  0.001018925    2.203    0.546
       160  -8.0391    209.4796    195.9981   8.0304709876e+01   1.5906280024e+00      0.16723    0.1204159 -61.52 0.0005985044    2.360    0.576
       161  -8.9362    185.3807    195.1042   8.5037475391e+01   5.9036130054e+00    0.2620611    0.2402491 -73.93 0.0006583536    1.478    0.323
       162  -7.7449    133.1388    196.1092   9.6744072699e+01   1.4976360870e+01    0.1886908    0.1615289  76.12 0.0006695602    1.341    0.254
       163  -8.3113    230.8057    194.7490   7.5998613232e+01  -1.6870778303e+00      0.16098    0.1524879  -3.39 0.0004887449    1.333    0.250
       164  -8.7161    224.4328    193.7921   7.6998994971e+01  -5.2039130712e-01    0.2862639    0.1458501 -40.52  0.001249935    2.035    0.509
       165  -9.0717    160.7009    194.3518   9.0224389084e+01   1.0449938704e+01    0.3114277    0.2537076  84.68 0.0009596844    1.755    0.430
       166  -8.9937     43.5865    193.2660   1.1689921828e+02   2.8714400383e+01    0.3997569    0.1977173  80.70  0.001844303    2.397    0.583
       167  -9.3736    245.4119    193.3351   7.3099121467e+01  -3.7212513551e+00    0.2220488    0.2043439 -44.55 0.0004973641    1.582    0.368
       168  -8.7266     76.8535    193.9740   1.0945752692e+02   2.4354443447e+01     0.223663    0.1697416 -86.52 0.0006405389    1.312    0.238
       169  -7.9001    205.3746    192.1700   8.0376855571e+01   2.9248716799e+00    0.1815509    0.1255012 -45.05 0.0004391943    1.658    0.397
       170  -8.4544    198.7595    191.8750   8.1652107700e+01   4.1203513583e+00    0.2295698    0.1901415 -51.64 0.0007384756    1.528    0.346
       171  -8.0906    179.0114    191.7384   8.5749151645e+01   7.6484228540e+00    0.2364401    0.1797368 -55.17 0.0006422695    1.635    0.388
       172  -8.4016    172.3979    191.9953   8.7223505240e+01   8.7920125256e+00    0.2433663    0.1941692  61.56 0.0008627787    1.606    0.377
       173  -9.1085    139.6558    190.9003   9.4362568554e+01   1.4904341560e+01    0.3761019      0.26795  77.33  0.001269661    2.103    0.524
       174 -10.4793     92.0083    188.6871   1.0520604707e+02   2.3324846363e+01    0.9127507    0.3027845  48.78  0.003019624    3.337    0.700
       175  -8.3978      6.1873    190.8456   1.2466453747e+02   3.2902005489e+01    0.2544102   0.07463719 -85.00  0.001013038    3.422    0.708
       176  -8.9306    129.4574    188.6338   9.6338870693e+01   1.7176202433e+01    0.3194153     0.244589 -83.20  0.001004798    1.673    0.402
       177  -8.4718    237.1277    188.5898   7.3641554708e+01  -1.7367704352e+00    0.2155014    0.1599755 -34.19 0.0006041546    1.368    0.269
       178  -8.2716    148.2592    189.1782   9.2083698112e+01   1.3714655842e+01    0.2604464    0.1795227  63.28 0.0007661144    1.928    0.481
       179  -9.7713    120.8593    186.6074   9.8022767790e+01   1.9100781746e+01    0.5469189    0.3247713 -78.15  0.002200664    2.726    0.633
       180  -9.4882     54.6847    187.8841   1.1385035608e+02   2.8626102316e+01    0.3678602    0.2346039  86.68   0.00145259    1.593    0.372
       181  -8.5633     34.4299    188.4134   1.1847276218e+02   3.0795016780e+01    0.2860425    0.1350679  65.64 0.0009965338    2.314    0.568
       182  -8.7604    216.7453    188.3412   7.7392130593e+01   1.6266995023e+00    0.2329585     0.207856 -51.24 0.0007914241    1.498    0.332
       183  -8.0658    230.4817    187.4728   7.4630199320e+01  -5.0345620159e-01    0.2173856    0.1173638 -44.58 0.0008213251    2.144    0.534
       184  -8.7625    191.5181    187.4148   8.2270137332e+01   6.1867152411e+00    0.3026339    0.2359801 -77.77  0.001022273    2.219    0.549
       185  -8.5138    191.5051    183.6119   8.1518515710e+01   6.8752036013e+00    0.2576593     0.188384  17.91 0.0007509987    1.391    0.281
       186  -8.8604    164.8191    186.3189   8.7814633744e+01   1.1260865086e+01     0.410201    0.2394431 -55.09  0.001615136    2.118    0.528
       187  -9.4124    109.5289    185.9564   1.0061602525e+02   2.1152045816e+01      0.42422    0.2887051 -88.92  0.001163747    1.978    0.494
       188  -8.6384    249.0750    185.5089   7.0931102940e+01  -3.1137744989e+00     0.231424    0.1635137 -40.82 0.0007909612    1.593    0.372
       189  -8.6599    210.1475    184.3668   7.7885180900e+01   3.4224467355e+00    0.2408957    0.1864273 -35.43 0.0004481217    1.319    0.242
       190  -8.6785    202.8184    184.6144   7.9396655622e+01   4.6667713013e+00    0.2502251    0.1840875 -54.96 0.0007223313    1.826    0.452
       191  -8.4392    182.8983    185.0957   8.3631176635e+01   8.1719785794e+00     0.205134    0.1982583  70.22 0.0005868903    1.286    0.222
       192  -9.0617     66.5444    184.3979   1.1067602490e+02   2.7921324447e+01    0.3888395    0.2356484  73.18  0.001473597    1.902    0.474
       193  -7.9084     11.7808    185.1736   1.2312337795e+02   3.3670746591e+01    0.2120226   0.08208773  64.54 0.0009438977    2.805    0.643
       194  -8.3624    224.0992    183.6998   7.5063665995e+01   1.1507031200e+00    0.2172933    0.1701455 -33.77 0.0005038473    1.299    0.230
       195  -9.2265    155.9534    187.5676   9.0039610564e+01   1.2640351414e+01    0.3605315    0.2309544 -59.30  0.000949436    1.969    0.492
       196  -8.8355    174.2973    183.6830   8.5212193448e+01   1.0021370791e+01    0.2702205    0.2316772  89.49 0.0007373627    1.643    0.391
       197  -8.9359     44.3358    182.3503   1.1564613448e+02   3.1100039802e+01    0.2935409    0.1701231  71.14 0.0009113117    1.819    0.450
       198  -8.5604     19.6684    182.8487   1.2124930894e+02   3.3491044940e+01    0.2740576     0.112144  77.96  0.001152689    2.995    0.666
       199  -7.9368      1.7119    183.6001   1.2513314843e+02   3.4839808256e+01    0.1501427    0.0884675  49.02  0.000936981    1.608    0.378
       200  -9.3121    147.5839    180.7463   9.0679221434e+01   1.5570289592e+01    0.3771342    0.2865622 -89.35  0.001080961    1.937    0.484
       201  -9.4829     25.5798    178.7565   1.1959272139e+02   3.3866713141e+01    0.6876251    0.2586336  78.27   0.00236037    4.497    0.778
       202  -7.9003    240.4736    180.4800   7.1427045508e+01  -1.0124260583e+00    0.1341566     0.110427  -8.09 0.0001895295    1.003    0.003
       203  -8.6792    137.6342    179.3443   9.2754597494e+01   1.7694655210e+01    0.2978437    0.2248572  72.00 0.0007315933    1.729    0.422
       204  -9.5082    191.5677    178.4724   8.0466793309e+01   7.8031690988e+00    0.3013333    0.2681563  73.30 0.0005852429    1.533    0.348
       205  -8.0558    169.4784    178.9062   8.5330383079e+01   1.1848642253e+01    0.2099883    0.1435476 -43.88 0.0006858644    1.526    0.345
       206  -9.0674     36.1678    177.2594   1.1702305721e+02   3.3156566070e+01    0.5355354    0.2217143  79.94  0.001918079    3.939    0.746
       207  -9.5434    248.5090    176.6324   6.9254480735e+01  -1.6851866108e+00    0.4226038    0.2651771 -46.75  0.002050344    1.970    0.492
       208  -8.6949    250.4970    172.8914   6.8159072816e+01  -1.4218607710e+00    0.2398047    0.1666327 -32.60 0.0006493994    1.307    0.235
       209  -8.5548    231.1286    177.0663   7.2413301683e+01   1.0534781077e+00    0.2569365     0.175834 -37.81 0.0005297064    1.454    0.312
       210  -8.3260    217.5212    177.2549   7.5002303592e+01   3.3455103143e+00    0.2388102    0.1270297 -41.69 0.0007127025    1.916    0.478
       211  -8.6967    205.0256    177.5456   7.7516434332e+01   5.5127755398e+00    0.2575213    0.1903902 -49.71 0.0006308701    1.624    0.384
       212  -8.7146    129.1121    177.5300   9.4459383297e+01   1.9630792016e+01    0.2968963    0.2242137  88.04  0.000951309    1.781    0.439
       213  -8.6526     97.3470    177.6631   1.0225317615e+02   2.4998424178e+01    0.2650239     0.173576  10.43 0.0009357139    2.409    0.585
       214  -8.9790     89.1617    177.0611   1.0418052961e+02   2.6409310652e+01    0.2793607    0.2113633  86.12 0.0008430814    1.448    0.309
       215  -9.2431    183.1349    176.1943   8.1790771318e+01   9.8017862421e+00    0.2763504    0.2322245 -51.54 0.0004480477    1.378    0.275
       216  -9.6180    104.3150    174.9841   1.0009077545e+02   2.4486827470e+01    0.5315037    0.3075262  62.69  0.002197451    2.317    0.568
       217 -10.1606     56.9998    173.3891   1.1160655017e+02   3.1701442574e+01    0.7397124    0.3637802  79.08  0.002838127    3.199    0.687
       218  -8.9665     12.7904    176.4910   1.2226626078e+02   3.5526699771e+01    0.2937531    0.1275888  81.78   0.00136465    2.444    0.591
       219  -7.6003    211.6724    176.3166   7.5944116377e+01   4.5369795264e+00    0.1290707     0.115521 -83.88 0.0007045362    1.676    0.404
       220  -9.2070    158.7930    175.0244   8.6972053587e+01   1.4650895505e+01    0.3695942    0.2666782  77.17  0.001016913    2.264    0.558
       221 -10.6733     75.7851    170.1927   1.0649288371e+02   2.9982824812e+01     1.203996    0.4714714 -75.96  0.003633703    4.572    0.781
       222  -8.4097     79.2804    158.5811   1.0377983443e+02   3.2267023053e+01    0.2970061    0.1463649  22.78  0.001138877    2.840    0.648
       223  -9.5508     81.7650    154.9433   1.0250601215e+02   3.2783767147e+01    0.5360714    0.3411203  78.40  0.001626079    2.179    0.541
       224  -8.3470    224.4848    174.5220   7.3117744242e+01   2.5979034250e+00    0.2237466    0.1219132 -45.39 0.0008626072    2.062    0.515
       225  -9.2396    176.0299    172.2841   8.2531545632e+01   1.1906810064e+01    0.3748044    0.2540646 -50.35  0.001099878    1.650    0.394
       226  -8.7114    142.9423    172.7534   9.0234983700e+01   1.8125652370e+01    0.2485992    0.1951642 -71.19 0.0006776724    1.570    0.363
       227  -8.4429    134.7936    171.9165   9.2032681760e+01   1.9825635315e+01    0.2668599    0.2100331 -81.65 0.0008482017    1.621    0.383
       228  -9.6554    121.3916    170.4017   9.5035082739e+01   2.2599109675e+01    0.4704769    0.3066516 -73.98  0.001109603    2.058    0.514
       229  -9.2418     45.1300    171.1709   1.1423928023e+02   3.3614587251e+01    0.3680368    0.1977159  85.80  0.001222759    2.152    0.535
       230  -8.3278    205.9186    170.4736   7.5863020326e+01   6.6079452763e+00    0.2567616    0.1902354 -50.98 0.0006734262    1.626    0.385
       231  -8.2083    237.1569    169.7140   6.9811330673e+01   1.2374331798e+00    0.2249559     0.165694 -38.33   0.00065589    1.374    0.272
       232  -8.7815    230.4597    170.0204   7.1078527064e+01   2.3196242101e+00    0.2040689    0.1742387   9.43 0.0007414513    1.108    0.098
       233  -8.4784    198.5066    170.2042   7.7308121362e+01   8.0332178431e+00    0.2102744    0.2028452  69.85 0.0006438695    1.313    0.238
       234  -9.1155    167.3422    168.8134   8.3750957218e+01   1.4275974794e+01    0.3654031    0.2711119  81.13  0.001111562    2.236    0.553
       235  -8.5863    149.8701    169.6685   8.7975485930e+01   1.7471834451e+01    0.2737026    0.2017167 -70.81 0.0008194326    1.815    0.449
       236  -7.5878     68.3040    170.6593   1.0844265876e+02   3.0898693477e+01    0.1443692   0.09608737  72.06 0.0007040079    1.678    0.404
       237  -8.2037    244.3974    169.2820   6.8457774715e+01   1.1360755485e-01    0.1792812    0.1126942 -39.60 0.0003699358    1.564    0.360
       238  -8.7354    111.8309    167.6333   9.6920319336e+01   2.4910815730e+01    0.3841082    0.2656986  87.80  0.001700777    2.038    0.509
       239  -8.3850     88.6010    168.7603   1.0301963766e+02   2.8438846684e+01    0.2425184    0.1729995 -75.54 0.0007461268    1.479    0.324
       240  -8.3356    218.7887    168.1832   7.2865931033e+01   4.6731048583e+00    0.1996468    0.1808447 -29.36  0.000574043    1.189    0.159
       241  -7.9800    211.4002    168.1877   7.4293870232e+01   6.0090225291e+00    0.1996699    0.1272843 -46.97 0.0006769314    1.760    0.432
       242  -8.8136    191.9479    166.6591   7.7916095223e+01   9.9364449996e+00    0.2697547    0.2036138 -44.93 0.0005461736    1.408    0.290
       243  -8.7960    185.0004    166.5742   7.9374982547e+01   1.1291018329e+01     0.267889    0.2038263 -55.73 0.0006811848    1.593    0.372
       244 -10.1563     95.3957    163.3956   1.0037381285e+02   2.8645474574e+01    0.8577946    0.4563871  72.17  0.002712305    4.196    0.762
       245  -9.0542     20.3580    166.2496   1.1967764552e+02   3.7229514651e+01    0.3222494    0.1446893  68.79  0.001268335    2.642    0.622
       246  -9.8227    136.7727    164.4957   9.0087159144e+01   2.1091204290e+01    0.6746864    0.3226907  55.42  0.002307486    3.005    0.667
       247  -8.4367    233.9578    164.8901   6.9370565059e+01   2.5677002514e+00    0.2410517      0.17381 -29.68  0.000670002    1.244    0.196
       248  -8.6995    159.4569    164.5583   8.4669079344e+01   1.6692078622e+01    0.2761893    0.2477414 -67.55 0.0008041891    1.296    0.229
       249  -9.4355     33.7190    163.6243   1.1619037391e+02   3.6602369733e+01    0.5476955    0.2034597  53.96  0.002173542    3.209    0.688
       250  -8.3191    239.8809    164.1456   6.8169665706e+01   1.6829957246e+00    0.1979846    0.1754288 -37.00 0.0005978869    1.285    0.222
       251  -8.5219    212.9325    163.6552   7.3025534520e+01   6.5302754325e+00    0.2625502    0.1927516 -40.76 0.0007792763    1.383    0.277
       252  -8.2421     56.9058    163.9433   1.1040685994e+02   3.3963133920e+01    0.3373192    0.1914723  12.35  0.001454275    2.869    0.651
       253  -9.4766    246.0157    163.0263   6.6882477637e+01   8.4216124081e-01    0.2031732    0.1717246 -16.71 0.0004816179    1.041    0.039
       254  -8.2718    204.8770    163.0882   7.4492423101e+01   8.1375075736e+00    0.2097597    0.1933753 -53.02 0.0005538178    1.309    0.236
       255  -9.3908      3.4402    162.4218   1.2330129928e+02   3.9459669681e+01    0.3866622    0.1641511  52.44  0.001960767    2.370    0.578
       256  -8.9007    177.5036    160.7927   7.9761151381e+01   1.3896699004e+01    0.3181438     0.250883 -81.72  0.001136129    1.928    0.481
       257  -8.8730    151.5008    161.2355   8.5842098619e+01   1.8958784296e+01    0.3180059    0.2641624 -89.06  0.000863679    1.578    0.366
       258  -8.5482     60.8258    160.6905   1.0894770734e+02   3.4261076918e+01    0.3123755     0.172172  63.96   0.00114447    2.274    0.560
       259  -9.0383    242.0245    160.2612   6.6981322597e+01   1.9521645418e+00    0.2115932    0.1605984  -9.98 0.0005197083    1.243    0.196
       260  -9.1884    242.6422    154.8872   6.5734913456e+01   2.7224769738e+00    0.2142193    0.1943196 -71.96  0.000403044    1.561    0.359
       261  -8.5342    239.7180    153.3194   6.5896813382e+01   3.4849323083e+00    0.2071476    0.1555274 -28.76 0.0004268259    1.167    0.143
       262  -9.9372    250.1628    157.8550   6.5107278318e+01   9.8283609933e-01    0.3532654    0.1791456 -36.31 0.0008347624    1.728    0.421
       263  -9.2196    246.7213    155.6598   6.5214225644e+01   1.9055738843e+00    0.2294073    0.1661635 -20.20 0.0003515958    1.234    0.190
       264  -8.6748    227.3645    159.0233   6.9308982445e+01   4.7091321528e+00    0.3257733    0.2105849 -54.98  0.001216003    2.172    0.540
       265  -8.6063    128.4005    159.2175   9.1101113761e+01   2.3854284563e+01    0.3471305    0.2445135 -87.72 0.0009710777    2.159    0.537
       266  -9.7435    105.7966    158.1984   9.6718708165e+01   2.8153803969e+01    0.4785704    0.3061537  71.52  0.001109194    2.308    0.567
       267  -8.5662    236.9862    158.9877   6.7583294343e+01   3.0214730494e+00    0.2123741    0.1827282 -20.22 0.0006994663    1.060    0.057
       268  -8.5938    196.7447    158.0442   7.5042712108e+01   1.0636406609e+01    0.2877587     0.190604 -48.76 0.0007500148    1.673    0.402
       269  -8.3246    188.2689    158.0014   7.6810394961e+01   1.2311669410e+01    0.2091777     0.186925 -30.51 0.0004571491    1.108    0.098
       270  -9.1094    167.5687    157.4303   8.1258896111e+01   1.6564656150e+01    0.3230585    0.2682351  81.21  0.001064665    1.635    0.388
       271  -8.5234    218.0603    156.7057   7.0533041847e+01   6.8100954411e+00    0.2707735    0.1829069 -49.17 0.0009428918    1.702    0.412
       272  -9.0665    157.8538    156.3718   8.3284601936e+01   1.8737758401e+01    0.3267637    0.2179046 -61.25 0.0009294359    1.909    0.476
       273  -9.3119    119.5080    155.3798   9.2593691968e+01   2.6384931913e+01    0.4391996    0.2896059 -76.34  0.001337751    2.135    0.532
       274  -9.3709     49.7988    155.7013   1.1113344336e+02   3.6795808829e+01    0.4482546    0.2312327  63.41  0.001848332    2.496    0.599
       275  -7.8336    204.5644    155.4974   7.2890554638e+01   9.5913678558e+00    0.1457644    0.1335809 -13.95 0.0001464884    1.038    0.037
       276  -8.8320    144.4815    155.0031   8.6206379504e+01   2.1699078362e+01    0.2891467    0.2391015  73.32 0.0008312086    1.492    0.330
       277 -10.5876    139.4651    145.4349   8.5338336331e+01   2.4827939518e+01    0.9259806    0.5836204  88.73  0.002906053    4.038    0.752
       278  -9.6503    132.7431    152.8827   8.8679169655e+01   2.4467647623e+01    0.5057945    0.3670158  80.31  0.001238859    2.042    0.510
       279  -9.3733    133.5107    148.0300   8.7430093240e+01   2.5420894869e+01    0.3275332    0.2534758 -39.21 0.0008069465    1.318    0.241
       280  -9.5773     67.9085    153.9214   1.0605880238e+02   3.4987791892e+01    0.4031859    0.2442123  81.55  0.001193067    2.238    0.553
       281  -7.7929    232.9307    154.0247   6.7229202865e+01   4.5628550949e+00    0.1677797    0.1464356 -13.05 0.0004758572    1.017    0.017
       282  -9.4413     29.3863    150.7873   1.1584620527e+02   4.0088137557e+01    0.4470758    0.2111799  69.20  0.001843694    2.866    0.651
       283  -8.7627     19.8905    152.5995   1.1847111736e+02   4.0484662376e+01    0.1658484    0.1013393  47.34 0.0007162901    1.709    0.415
       284  -9.6942    248.8988    149.5141   6.3548772326e+01   2.5294099799e+00    0.3613726    0.1808264 -34.59 0.0008152879    1.733    0.423
       285  -9.0583    246.9691    143.7607   6.2626176545e+01   3.7949558846e+00    0.2777837    0.1680127 -37.55 0.0006074893    1.462    0.316
       286  -9.8733    242.5200    149.8834   6.4682194475e+01   3.5643290510e+00    0.3054738    0.2929539 -69.98  0.001918095    1.378    0.274
       287  -8.9213    189.3526    150.1221   7.4811550266e+01   1.3628109373e+01    0.3362988    0.2465387 -61.78 0.0009167065    1.814    0.449
       288  -8.1655    182.2151    151.2093   7.6592200235e+01   1.4862914955e+01    0.2020089    0.1833232 -78.97 0.0005882676    1.374    0.272
       289  -8.3371    162.7227    150.9024   8.0923492047e+01   1.8910738255e+01    0.2375989     0.178493 -73.33 0.0007487879    1.889    0.471
       290  -8.8336     98.2884    150.7120   9.7281306514e+01   3.1206759366e+01    0.3103557    0.2295119  79.39  0.001051086    1.701    0.412
       291  -8.1065    212.9917    149.7460   6.9956366965e+01   9.0145877647e+00    0.1926951    0.1781637   5.20 0.0003276813    1.071    0.067
       292  -8.6122      2.8738    150.0618   1.2245160326e+02   4.2355703828e+01     0.213058     0.104684  74.14  0.001072444    2.129    0.530
       293  -8.3381    198.8601    149.0620   7.2595274504e+01   1.1918341916e+01    0.2171306    0.1979059 -60.90 0.0005403929    1.309    0.236
       294 -10.3891    149.1801    145.1214   8.2848603199e+01   2.2929162781e+01    0.6413335    0.4396419 -87.83   0.00166743    2.728    0.633
       295 -10.2227     89.2252    146.4044   9.8926855199e+01   3.3718952187e+01    0.6747727    0.3958662  89.30  0.002442264    3.105    0.678
       296  -9.7785     39.8399    147.9485   1.1273715542e+02   3.9761700871e+01    0.5140182    0.2545529  64.55  0.001880638    2.728    0.633
       297  -9.2898    233.3883    147.6730   6.5763097289e+01   5.5564446679e+00    0.2807822    0.1862854 -21.88 0.0007469812    1.478    0.323
       298 -10.3470     54.9363    144.9032   1.0818403166e+02   3.8840189250e+01    0.7827023    0.3928049  69.65  0.002859075    3.441    0.709
       299  -7.9004     53.3385    137.3232   1.0742947082e+02   4.0898151209e+01    0.2099724    0.1384468  12.71 0.0008860806    2.016    0.504
       300  -9.1535     57.0337    135.4751   1.0605802482e+02   4.0916040883e+01    0.3034489    0.2013375  32.10  0.001552091    1.659    0.397
       301  -8.3583    223.3447    146.9787   6.7400365181e+01   7.5338430305e+00    0.2055497    0.1634059 -30.90 0.0005283954    1.147    0.128
       302  -8.6144     77.9304    147.1282   1.0218176067e+02   3.5254275934e+01    0.2282977    0.1837448  80.01 0.0006963787    1.353    0.261
       303  -9.5362     13.1253    146.2747   1.1954838224e+02   4.2522126091e+01    0.3693147    0.1811585  58.33  0.001256348    2.275    0.560
       304  -8.1027    206.7015    146.2184   7.0379494162e+01   1.0890262692e+01    0.2201001    0.1710424 -46.58 0.0005214973    1.361    0.265
       305  -8.3348    175.4661    146.1478   7.6920453422e+01   1.7270691349e+01    0.2319445    0.2140506  85.84 0.0006918308    1.310    0.237
       306  -9.1279    240.3584    145.2542   6.4041062074e+01   4.7110544458e+00    0.2608237     0.185008 -30.39 0.0004812181    1.235    0.190
       307  -8.9372    242.9713    142.2878   6.2959198192e+01   4.7394639986e+00    0.3760039      0.18073 -29.75  0.001636946    1.982    0.495
       308  -9.9910    125.0638    142.2751   8.8343888200e+01   2.8384741461e+01    0.6952204    0.4102266 -64.34  0.002058249    2.186    0.543
       309  -8.8441    165.4047    144.0568   7.8726538168e+01   1.9798767607e+01    0.2770396    0.2260644  51.76 0.0006219746    1.316    0.240
       310 -10.5658     69.4554    141.4316   1.0353955271e+02   3.7847493319e+01    0.5676823    0.3851027 -73.27  0.001762819    1.495    0.331
       311  -9.7697     69.1619    134.6742   1.0239441771e+02   3.9555603639e+01    0.4911095    0.3053644  -7.68  0.001980877    2.885    0.653
       312  -9.4188      2.8827    141.7337   1.2172629078e+02   4.4304061313e+01    0.4308307     0.201319  74.97  0.001778207    2.409    0.585
       313 -10.3409    106.6404    144.1549   9.3695649291e+01   3.1348989147e+01    0.8180196    0.5271124 -89.27  0.002311536    2.629    0.620
       314  -8.3190    182.0406    141.9461   7.4489563967e+01   1.6750576744e+01    0.2321709    0.1900099 -79.94 0.0005479213    1.691    0.409
       315  -8.4907    250.4940    141.0258   6.1471053559e+01   3.6293572551e+00     0.204719    0.1157149 -35.18 0.0004424879    1.520    0.342
       316  -9.8269     23.3729    138.0848   1.1594046886e+02   4.3682893735e+01    0.5552768    0.2774782  73.93  0.002142861    2.640    0.621
       317  -7.7154    218.6401    138.8156   6.6417440123e+01   9.8854956779e+00    0.2025306    0.1242132 -44.30  0.000418233    1.621    0.383
       318  -8.5011    172.3182    138.2225   7.5762901742e+01   1.9557547522e+01    0.3088107    0.2252913 -67.77 0.0008511337    1.897    0.473
       319  -8.3614    207.6388    138.1354   6.8335031158e+01   1.2200747935e+01    0.2302567    0.1718966 -51.44 0.0006635275    1.489    0.328
       320  -8.6275    197.5845    137.6014   7.0200046504e+01   1.4361118897e+01    0.2879238    0.2076705 -50.60 0.0007109405    1.514    0.339
       321  -8.5065    240.8344    137.3493   6.2226198436e+01   5.9450863289e+00    0.2007448    0.1571797 -36.93  0.001125528    1.174    0.148
       322  -8.1902    162.6624    136.5245   7.7581601420e+01   2.1966319056e+01    0.2528608    0.1904783 -65.22 0.0006347608    1.678    0.404
       323  -9.0069    151.0588    136.2250   8.0298105741e+01   2.4487360361e+01     0.470842    0.2427917  23.14  0.001447478    3.557    0.719
       324  -9.2477     39.0125    136.1070   1.1132417873e+02   4.2744713405e+01    0.3352574    0.1968681  89.32  0.001237269    1.961    0.490
       325  -9.1826    250.6864    129.9623   5.9037669145e+01   5.3923433834e+00     0.578842    0.1248413 -39.83  0.001794208    3.910    0.744
       326  -9.0658    248.3973    135.4176   6.0585123185e+01   4.9085742570e+00    0.3080673    0.1969994 -39.71 0.0007632112    1.404    0.288
       327  -8.5557    246.9251    130.3398   5.9702352173e+01   6.0045861660e+00    0.2538822    0.1636106 -44.79 0.0005721828    1.505    0.336
       328  -8.1851    188.3275    136.1032   7.1757315689e+01   1.6588889976e+01    0.2220883     0.132779 -48.48 0.0005819174    1.780    0.438
       329  -8.6252    179.7697    134.2516   7.3149918026e+01   1.8777737529e+01    0.2650633    0.2061069 -51.77 0.0008917458    1.385    0.278
       330 -10.6132     83.4487    131.6431   9.7627576423e+01   3.8228881108e+01     1.053054    0.3701108 -56.45  0.002972532    2.675    0.626
       331  -8.2128    237.5166    133.9341   6.2014692038e+01   7.1288791377e+00    0.2148661    0.1225467 -37.39  0.000877656    1.553    0.356
       332  -8.1161    231.4893    134.0331   6.3050821072e+01   8.2447332201e+00    0.2156781    0.1263233 -35.81 0.0004621024    1.527    0.345
       333  -9.0500    113.0008    133.3178   8.9570679203e+01   3.2773013005e+01    0.3975636    0.2917831  77.58  0.001167582    1.913    0.477
       334 -10.4088    132.2245    131.4203   8.3929516727e+01   2.9461341096e+01    0.5829806    0.4204313 -86.43  0.001428431    2.165    0.538
       335 -10.3931     98.1443    130.1984   9.3054052703e+01   3.6182935188e+01    0.8042533    0.3300224 -51.43  0.001689179    2.305    0.566
       336  -8.7684     98.8411    120.7718   9.0669007158e+01   3.8320991166e+01    0.5610892    0.3297041   3.18  0.001768779    4.005    0.750
       337  -9.4318    142.8904    131.4154   8.1171752966e+01   2.7260986374e+01    0.3700274     0.262729 -61.84 0.0008811374    1.681    0.405
       338  -9.7735     73.1221    129.3506   1.0020100874e+02   4.0319092485e+01    0.4936744     0.288109 -73.61  0.001273427    2.046    0.511
       339  -9.8636     71.3700    120.2810   9.8856978547e+01   4.2792608677e+01    0.5902866    0.3616363 -86.20  0.002345893    2.573    0.611
       340 -10.2394     12.6994    128.8004   1.1778215715e+02   4.6729774397e+01    0.5863373    0.2834821  88.71  0.002465616    2.284    0.562
       341  -8.1462    220.5135    130.0233   6.4049809916e+01   1.1085489397e+01    0.2191632    0.1319204 -37.18 0.0004987614    1.518    0.341
       342  -8.1049    204.6481    130.3400   6.7078163789e+01   1.4265754697e+01      0.21619    0.1734972 -68.99 0.0007208345    1.632    0.387
       343  -8.1029    192.8852    130.3339   6.9421600861e+01   1.6747129188e+01    0.2076863    0.1911536  29.78 0.0004617055    1.113    0.101
       344  -8.9656    168.3769    129.5643   7.4553970519e+01   2.2196054831e+01    0.3124155    0.2557944 -70.58   0.00092658    1.526    0.345
       345  -9.2772    152.9171    128.9880   7.8074121227e+01   2.5664434126e+01    0.4171658    0.2843663 -65.01 0.0008995256    1.971    0.493
       346  -8.0788      1.7659    130.5606   1.2096482262e+02   4.7005967416e+01     0.153707    0.1029816  45.60 0.0009461097    1.682    0.405
       347  -7.9699    211.4667    129.2312   6.5517780214e+01   1.3060257099e+01    0.2066371     0.130678 -48.01 0.0009283309    1.654    0.395
       348 -10.6525     45.1681    123.9406   1.0759393451e+02   4.5109686263e+01     1.055885    0.5423976  75.81  0.003732992    3.883    0.742
       349 -10.4262     59.9761    125.2415   1.0334152202e+02   4.3083775388e+01     0.695861    0.4178617  81.26  0.002379666    2.649    0.623
       350  -8.7897     58.8142    115.8148   1.0183691020e+02   4.5544473297e+01    0.4540631    0.2341098 -34.88  0.001847775    2.444    0.591
       351  -9.8426    118.0278    125.4726   8.6319833304e+01   3.3655345873e+01    0.5723965    0.3817092  71.42  0.001517324    2.384    0.581
       352  -9.0550    118.3474    120.3213   8.4953477191e+01   3.4784917767e+01    0.7064453     0.363272  16.25  0.001686495    6.365    0.843
       353 -10.2692     28.4281    122.3696   1.1238261335e+02   4.7085001329e+01    0.8010651    0.3889742  68.51  0.003141379    3.429    0.708
       354  -8.4389     26.8088    113.6511   1.1153525335e+02   4.9340109151e+01    0.1939729    0.1501087 -33.19 0.0007800884    1.401    0.286
       355  -7.9024    228.4953    125.5423   6.1621674836e+01   1.0292089600e+01     0.142655    0.1279498 -35.16 0.0003461292    1.072    0.067
       356  -8.8269    179.2317    124.8292   7.0950607700e+01   2.0788223088e+01    0.2737298    0.2531595 -77.05 0.0007104698    1.245    0.197
       357  -7.6579    243.7269    124.3415   5.8870469564e+01   7.5815977227e+00    0.1363357   0.09934209 -56.24 0.0005367635    1.614    0.380
       358  -7.9622    188.4930    123.9852   6.8772985352e+01   1.8927302025e+01     0.235302    0.1459349 -40.05 0.0005799985    1.549    0.355
       359  -9.3595    158.7024    121.6581   7.4824897467e+01   2.5969461592e+01    0.4101541    0.2934553 -68.26   0.00124892    1.920    0.479
       360  -7.9953    194.9923    122.0310   6.6964542811e+01   1.7889677555e+01    0.2337349     0.181745 -66.95 0.0005309532    1.642    0.391
       361  -8.7093    172.0313    121.5757   7.1720268694e+01   2.3034725161e+01    0.2819596    0.2127099 -55.60 0.0005080875    1.478    0.323
       362 -10.3865    130.7545    118.4904   8.1087417617e+01   3.2684641000e+01    0.6503738    0.4073939 -67.85  0.001853945    2.428    0.588
       363 -10.2886    133.6336    109.6176   7.7967576324e+01   3.4034667151e+01    0.6812419    0.3443334 -49.77  0.002085567    2.084    0.520
       364  -9.9767    141.4739    118.0674   7.8162963885e+01   3.0504395308e+01    0.6271497    0.3155176 -50.14  0.001815873    2.110    0.526
       365  -9.8664      3.2264    117.5996   1.1918185672e+02   4.9991929571e+01     0.510362    0.2396562  75.91  0.002260355    2.801    0.643
       366  -7.6248    231.3118    117.6553   5.9329211039e+01   1.1095338603e+01    0.1439573    0.1058422 -62.47 0.0007046184    1.706    0.414
       367 -10.0036    109.1909    114.1036   8.5979272563e+01   3.7993147331e+01    0.6058955    0.4013842 -73.46  0.001740247    2.256    0.557
       368  -9.0606    109.0233    107.7991   8.4373364497e+01   3.9470992623e+01    0.3155487    0.2374151  -3.61  0.001007799    1.719    0.418
       369  -8.3271    219.4661    116.4901   6.1048252273e+01   1.3701550023e+01    0.1458353    0.1326152 -33.28 3.877886e-05    1.026    0.025
       370  -8.2958    185.5810    116.0034   6.7374002794e+01   2.1122518004e+01    0.2355143     0.145526 -38.50 0.0004089238    1.558    0.358
       371  -8.2055    192.8878    115.1358   6.5666095393e+01   1.9663940139e+01    0.2327034     0.198395 -58.40  0.000506577    1.285    0.222
       372  -8.0525    202.9994    121.9726   6.5379835698e+01   1.6175751435e+01    0.1910209    0.1556382 -34.26 0.0003724431    1.152    0.132
       373 -10.0513     78.9034    112.5569   9.4777475941e+01   4.3563980827e+01    0.6039272    0.4017936  88.45  0.001806907    2.480    0.597
       374  -8.7263     77.9204    105.4371   9.3363739996e+01   4.5410892876e+01    0.3467242    0.2352142 -30.40 0.0009087056    1.631    0.387
       375  -8.0066    167.2450    114.5829   7.0998900405e+01   2.5527705342e+01    0.2119455    0.1488478  36.15 0.0004777226    1.507    0.336
       376  -9.7386    122.2427    112.7951   8.1922440289e+01   3.5717997219e+01     0.362566    0.2850184  75.00 0.0007035612    1.687    0.407
       377 -10.0854     92.9473    112.6765   9.0457993616e+01   4.1264046309e+01    0.4801166    0.3698331 -88.53  0.001421303    1.754    0.430
       378  -8.7957     92.5757    105.4279   8.8720247499e+01   4.3025662770e+01    0.4503849    0.2643706 -22.86  0.001379752    2.606    0.616
       379  -8.7687    174.8654    111.9340   6.8606850807e+01   2.4333898359e+01    0.3407612    0.2109005 -52.93 0.0007403447    1.832    0.454
       380 -10.0186     14.4195    111.3747   1.1504033264e+02   5.0798766379e+01    0.4099772    0.2477283  78.51  0.001375061    1.977    0.494
       381  -8.6885    159.3738    111.8290   7.2098039983e+01   2.7868323060e+01    0.2879056    0.2454048 -78.05  0.000652533    1.433    0.302
       382 -10.1729     66.5037    109.6876   9.8057708454e+01   4.6038104429e+01    0.6924177    0.3620539 -53.99   0.00245274    1.705    0.413
       383 -11.1352    248.7408    105.7544   5.3960348706e+01   9.6801507624e+00     0.760501    0.2766968 -36.61  0.003019424    2.349    0.574
       384  -9.9947    120.1311    106.6189   8.0853138868e+01   3.7528744127e+01    0.4496114    0.3731141  88.80  0.002136712    1.571    0.363
       385  -9.5198    139.8333    104.4614   7.4925584627e+01   3.3787137419e+01     0.482759    0.3083541 -55.70  0.001315344    1.825    0.452
       386 -10.6210     45.4792    102.2250   1.0335027515e+02   5.0368669480e+01    0.8232479    0.4892203  80.19   0.00335811    3.049    0.672
       387  -8.9240     46.8597     92.4225   1.0068722946e+02   5.2544824060e+01    0.4184287    0.1409687  26.28  0.001563689    3.385    0.705
       388 -10.6690     22.8236    102.5215   1.1097739884e+02   5.2330801932e+01    0.7444862    0.3963347  77.42   0.00280975    3.120    0.679
       389  -8.5482    166.8673    104.3670   6.8367303115e+01   2.7662871209e+01    0.2953866    0.2093137 -56.08 0.0007576449    1.608    0.378
       390  -9.4973    150.6427    103.3166   7.1887723477e+01   3.1597685621e+01    0.4404932    0.3006913 -67.83  0.001334237    2.118    0.528
       391 -10.1911    128.5138    102.2356   7.7310788551e+01   3.6728499604e+01    0.4104246     0.308466 -69.48  0.000931814    1.750    0.428
       392  -9.7903      6.5258    102.6236   1.1628314557e+02   5.3356341633e+01    0.3563073    0.2022425  79.12  0.001826146    2.181    0.541
       393 -10.7445    109.3599     99.1508   8.1895601745e+01   4.1343301397e+01    0.9210263     0.525938  64.30  0.002984399    3.305    0.697
       394  -9.1003    108.4052     92.4307   8.0245740264e+01   4.2994362482e+01    0.4794448     0.303462  21.65  0.001974182    2.038    0.509
       395  -7.8228    175.7366    102.0062   6.5790072186e+01   2.6070233605e+01    0.2027892    0.1321433 -38.21 0.0004008095    1.495    0.331
       396  -9.3516     82.2582    100.2114   9.0622962281e+01   4.5955523825e+01    0.3882824    0.2851553 -85.68 0.0008969706    2.014    0.504
       397  -8.2344    159.8020    101.1125   6.9093398987e+01   2.9940809129e+01    0.2384128    0.2071098 -61.61 0.0004702248    1.267    0.211
       398 -10.2986     63.8883     96.2698   9.5715652065e+01   4.9579260341e+01    0.6833602    0.4084558 -72.58  0.002314445    2.311    0.567
       399  -8.9641     66.1838     87.5332   9.2623669863e+01   5.1273518975e+01    0.6146654    0.2819237  14.64  0.001962206    4.342    0.770
       400  -9.5200     95.0725     96.9756   8.5649243791e+01   4.4515767318e+01    0.4415532    0.2524796 -55.15 0.0007116428    1.879    0.468
       401  -9.1067     43.2101    109.5359   1.0558032870e+02   4.8839404262e+01    0.3078324    0.1425862  19.49  0.001309029    2.742    0.635
       402  -8.3185    176.3309     93.4154   6.3339085528e+01   2.7553603682e+01    0.2673519    0.1751447 -54.94 0.0005604274    1.750    0.429
       403  -8.1071    164.8174     94.1178   6.6009302479e+01   3.0134584198e+01    0.2365431    0.2075916 -68.46 0.0005760652    1.278    0.217
       404  -7.7305    188.5229     93.5356   6.0931989019e+01   2.4671955996e+01    0.1523075    0.1433504 -58.79 0.0001042494    1.080    0.074
       405  -9.4693    138.9333     91.9779   7.1601369579e+01   3.6560584171e+01    0.4295789    0.2973665 -56.65 0.0005889822    1.703    0.413
       406 -10.5798    124.2551     91.0220   7.5247487034e+01   4.0005603385e+01    0.5561924    0.4733329 -17.18  0.001121577    1.226    0.185
       407  -9.7359      5.3449     92.3245   1.1515649938e+02   5.5833300522e+01    0.3348672    0.2021845  58.26  0.001311525    2.196    0.545
       408  -7.8825    157.6380     91.7894   6.6981334726e+01   3.2269611611e+01    0.2217536    0.1413551 -47.35 0.0004946773    1.630    0.386
       409  -9.7815     34.8585     89.8825   1.0437444426e+02   5.4334139980e+01    0.4503933    0.2673059 -86.24  0.001650878    2.540    0.606
       410  -8.5602    151.4457     95.6304   6.9536893634e+01   3.2963653950e+01    0.3603846     0.227669  16.91  0.001320178    2.571    0.611
       411  -9.1600     22.7824     90.2396   1.0874886986e+02   5.5240070138e+01    0.2817355    0.2182062 -10.85  0.001736049    1.475    0.322
       412  -7.9746    150.9556     89.1895   6.7804388354e+01   3.4337295118e+01    0.2265786    0.1689168 -58.58 0.0004713115    1.565    0.361
       413  -9.9293     86.4416     86.5829   8.5442168663e+01   4.8328912097e+01    0.4841753    0.3741361  89.26  0.001178297    2.017    0.504
       414  -9.3440     86.3372     81.3353   8.3897528699e+01   4.9474496644e+01    0.4457488    0.2423964  19.48  0.001686495    2.705    0.630
       415  -7.3765    188.3123     87.2997   5.9307615556e+01   2.5833998514e+01    0.1508821    0.1183013  14.61 0.0002425067    1.606    0.377
       416  -7.8738    164.0004     87.4777   6.4318199253e+01   3.1579220910e+01    0.2025875    0.1392988  84.00 0.0005594203    2.233    0.552
       417  -9.8721     48.5657     84.3095   9.8077110063e+01   5.4229918941e+01    0.5255367    0.3490407  79.50  0.002078156    2.794    0.642
       418  -7.5602    179.2977     85.6338   6.0600845946e+01   2.8266036220e+01    0.1602014     0.116724 -67.52  0.000638682    1.725    0.420
       419 -10.3689    103.7688     83.2630   7.8895726295e+01   4.5842115313e+01    0.4631153    0.3719991  54.98  0.001782792    1.438    0.305
       420  -8.4066    158.0135     84.0419   6.4665761314e+01   3.3641422620e+01    0.2310313    0.2237181 -49.53 0.0004146157    1.054    0.052
       421  -9.2954    140.9335     82.9647   6.8417099938e+01   3.7865071282e+01    0.3456457    0.2198841 -47.31 0.0006184818    1.661    0.398
       422  -8.3426    198.4770     83.0217   5.6330303530e+01   2.4189311548e+01    0.2299703    0.1425249 -32.25   0.00102474    1.608    0.378
       423  -8.1454    189.2265    108.1941   6.4630040652e+01   2.1798610639e+01    0.2110797    0.1740801 -58.87 0.0004523021    1.333    0.250
       424  -9.0462     74.5708     80.5535   8.7679783341e+01   5.1577642932e+01     0.346641    0.2355001 -67.77  0.001078171    2.051    0.512
       425  -9.7854     24.5183     80.4119   1.0607479338e+02   5.7382121303e+01     0.436831    0.2526946 -84.98  0.001393272    2.541    0.607
       426  -9.5683      9.7317     80.9681   1.1168212514e+02   5.8221265919e+01    0.3164456     0.195389  61.83  0.001382253    2.356    0.576
       427  -8.4810    150.0793     80.3819   6.5418836668e+01   3.6202941182e+01    0.3461178    0.2035669 -47.06 0.0009475629    1.809    0.447
       428  -8.7430    119.2780     80.4048   7.3413506833e+01   4.3218227566e+01    0.2907437    0.2421055 -58.93 0.0006880485    1.390    0.281
       429  -8.2081    166.8268     79.8287   6.1520994683e+01   3.2290296809e+01    0.2214991     0.204061   1.17 0.0004264812    1.156    0.135
       430  -8.1474    184.2914     78.4840   5.7671202204e+01   2.8317523063e+01    0.2678164    0.1317272 -35.71 0.0009966776    1.993    0.498
       431  -9.6088    128.0187     75.0390   6.9314907725e+01   4.2315203089e+01    0.4840047    0.2757925 -42.77 0.0008451139    1.791    0.442
       432  -9.9046     63.5732     74.2017   8.9702259794e+01   5.4567076155e+01    0.5731899    0.2817783 -61.47  0.002139751    2.919    0.657
       433  -7.7852    157.4042     76.5200   6.2594505220e+01   3.5148205763e+01    0.1501704    0.1476121 -38.63 0.0001175582    1.029    0.028
       434  -8.7995    140.5691     75.7202   6.6298992122e+01   3.9299556148e+01    0.2866364    0.2234908 -65.46 0.0007166097    1.602    0.376
       435  -9.7406     82.4693     72.8420   8.2533592093e+01   5.1904293769e+01    0.4267745    0.3041664 -68.68  0.001190753    2.130    0.530
       436  -8.2001    163.4682     73.0977   6.0273886826e+01   3.4276570702e+01    0.2304928    0.1467934 -38.68  0.001013278    1.565    0.361
       437  -7.7066    151.5169     73.4945   6.3014354175e+01   3.7097808117e+01    0.1504966    0.1493009 -89.41 0.0008100012    1.046    0.044
       438  -8.7714    115.7009     72.9473   7.2062093769e+01   4.5424046346e+01    0.2720177    0.2024382 -51.58 0.0006649783    1.515    0.340
       439  -9.5035    105.9123     71.4063   7.4455339799e+01   4.7770114262e+01    0.4300049    0.2071587 -45.59  0.001239331    2.180    0.541
       440  -8.5718     42.7329     72.8794   9.7214830759e+01   5.7419248634e+01    0.2389208    0.1770302 -69.82 0.0007124049    1.616    0.381
       441  -7.8315    175.2050     72.6353   5.7768852710e+01   3.1499670274e+01    0.2065339    0.1352273  46.78 0.0003710988    1.556    0.357
       442  -9.1936     95.1815     71.1969   7.7753555834e+01   4.9931169398e+01    0.3442484    0.2362043 -55.04 0.0008554615    1.762    0.432
       443  -9.6380     51.3889     69.6945   9.2934739025e+01   5.7121609025e+01    0.4477499    0.2831888 -72.19  0.001405141    2.531    0.605
       444  -9.2240     29.7985     70.0919   1.0155078037e+02   5.9268032241e+01    0.4515999    0.2151989 -19.41  0.001872806    3.070    0.674
       445  -8.9752     16.6559     70.1912   1.0680404396e+02   6.0233730759e+01    0.2472932    0.1870193 -88.98 0.0008453726    1.688    0.407
       446  -7.5981    157.0000     70.0032   6.0738351730e+01   3.6375811530e+01     0.241633   0.08633696 -35.08 0.0003995614    2.831    0.647
       447  -8.7193    147.0822     68.2781   6.2436715817e+01   3.9066022217e+01    0.3147981    0.2088353 -41.99 0.0007400382    1.545    0.353
       448  -8.7505    138.6351     66.0584   6.3745253698e+01   4.1459053639e+01    0.3053175    0.2167331 -54.82 0.0008360462    1.671    0.402
       449  -8.8658    121.5607     66.0800   6.8166543634e+01   4.5392305421e+01    0.3117511    0.2433107 -65.24 0.0006620887    1.689    0.408
       450  -8.6723     83.6339     65.5414   7.9710272455e+01   5.3147629596e+01    0.3897689    0.2246334   6.86  0.001421361    3.151    0.683
       451  -8.8489    110.1284     63.8526   7.0665157358e+01   4.8283266833e+01    0.3070517    0.2327873 -48.77 0.0008008009    1.480    0.324
       452  -8.9144     64.7292     63.6438   8.5895875542e+01   5.6578777026e+01    0.4693781     0.266568 -10.75  0.001864966    2.834    0.647
       453  -8.9903     37.2896     64.4303   9.6964736049e+01   5.9796843066e+01    0.2796416     0.215461 -76.51  0.001088707    1.760    0.432
       454  -8.3297     17.9640     63.5242   1.0466954378e+02   6.1605224746e+01    0.3689848    0.1171698 -31.19  0.001227828    4.656    0.785
       455  -8.0196    158.1530     61.8407   5.8026782518e+01   3.7438076606e+01    0.1978692    0.1725384  17.56  0.000315182    1.258    0.205
       456  -9.4912     97.7489     60.7017   7.3361006917e+01   5.1395117879e+01    0.3247697    0.2961082 -72.05 0.0009732274    1.415    0.293
       457  -9.6717     73.3475     59.5808   8.1298249026e+01   5.6032182376e+01    0.4101599    0.2501659 -53.46  0.001039391    2.010    0.502
       458  -8.2185     88.8518     59.5744   7.5865309186e+01   5.3315489335e+01    0.2277212    0.1661619 -40.30 0.0004418179    1.384    0.278
       459  -7.9688    147.0000     59.0630   5.9572391749e+01   4.0603481990e+01    0.2365053   0.08539181 -33.46 0.0004877862    2.849    0.649
       460  -9.9480     23.4601     56.5844   1.0047246585e+02   6.2674957191e+01    0.4333597    0.2841858 -88.24  0.002100774    2.894    0.654
       461  -8.1665    130.7409     57.8382   6.3024018891e+01   4.4682605706e+01    0.2008252    0.1740132 -63.73 0.0005682837    1.365    0.267
       462  -9.5053      7.2606     56.9895   1.0755478004e+02   6.3648399082e+01    0.3286936    0.1964661 -78.39   0.00119033    2.102    0.524
       463  -9.2461    119.2840     55.4348   6.5194804749e+01   4.7705561417e+01    0.5005531    0.2348397 -41.63  0.001434535    2.264    0.558
       464  -7.9934    139.9980     56.2456   6.0266219623e+01   4.2739001946e+01    0.1997204    0.1939833  50.41 0.0004554168    1.047    0.045
       465  -9.3119     54.1746     55.1668   8.7110273800e+01   5.9716404447e+01    0.3070512    0.2170541 -59.17  0.001058295    1.825    0.452
       466  -8.8823     44.2040     55.6836   9.1370663288e+01   6.0851818621e+01    0.2413841    0.1965246 -69.07 0.0008726224    1.688    0.408
       467  -8.3721    105.8173     53.1189   6.8197057936e+01   5.1032544716e+01    0.2140767    0.1977297 -67.18 0.0006559346    1.349    0.259
       468  -9.4499     92.3501     50.6728   7.1488300690e+01   5.4188700232e+01    0.3930865    0.2318287 -44.68  0.001297098    1.896    0.473
       469  -8.2093     75.3250     51.4411   7.7633750234e+01   5.7187000713e+01    0.2735196     0.116697  26.86 0.0009579583    3.308    0.698
       470  -8.1986    144.5712     49.0377   5.6905029221e+01   4.2719376648e+01    0.2178585    0.1434859 -31.69 0.0004838399    1.579    0.367
       471  -8.3171    129.8350     49.1294   6.0323861886e+01   4.6247361500e+01    0.2158687    0.2014355 -67.85 0.0005163649    1.226    0.184
       472  -8.7962    120.8847     47.6261   6.2057297303e+01   4.8555124642e+01    0.2568645     0.204253 -34.85 0.0004889348    1.318    0.241
       473  -8.4091    112.1516     46.9282   6.4154756754e+01   5.0630253459e+01     0.207278     0.195216 -63.50 0.0005020833    1.276    0.216
       474  -8.8554     82.0255     46.6551   7.3445290390e+01   5.6812405185e+01    0.2552214    0.2155299 -43.00 0.0007395783    1.371    0.270
       475  -9.3361     16.7839     44.8818   9.9932254601e+01   6.5550340831e+01    0.2489207    0.1482684 -60.44 0.0007704133    1.744    0.427
       476  -8.3928     45.0942     44.6828   8.7102477694e+01   6.2843837255e+01    0.2158953    0.1576579 -44.02 0.0005877574    1.373    0.272
       477  -8.9454    132.8121     43.4651   5.7693491449e+01   4.6356661658e+01    0.2679809    0.2187506 -66.18 0.0007138613    1.511    0.338
       478  -9.0123     58.1414     42.6310   8.0857630182e+01   6.1446130635e+01     0.304838    0.2038233 -55.86  0.001308515    2.171    0.539
       479  -8.5060     92.8913     42.8508   6.8369289777e+01   5.5323033341e+01    0.2322883    0.1758591  11.88  0.001199682    1.352    0.260
       480  -9.3214     69.6761     41.6295   7.5953563582e+01   5.9799369724e+01    0.3786903    0.2599433 -53.57  0.001454039    2.068    0.516
       481  -9.7525      5.2097     42.0068   1.0449693736e+02   6.6840197986e+01    0.3161358    0.1932234 -73.07  0.001555645    2.100    0.524
       482  -8.8017    105.8882     41.3246   6.3866480262e+01   5.2830014913e+01    0.2289645     0.190316 -39.03 0.0005725876    1.335    0.251
       483  -7.7009    140.2859     41.6465   5.5415126372e+01   4.4802300925e+01    0.1458096     0.110248 -65.70 0.0007021734    1.667    0.400
       484  -8.5744     36.7922     40.9288   8.9354001327e+01   6.4493038796e+01    0.2127363    0.1684526 -54.18 0.0008892277    1.565    0.361
       485  -8.5094     95.5044     38.0010   6.5681146446e+01   5.5505028620e+01    0.2015694     0.132744 -31.15 0.0006751932    1.548    0.354
       486  -8.2241     80.7796     36.7950   7.0004707709e+01   5.8579948228e+01    0.1691169    0.1631523 -40.30 0.0004103739    1.338    0.252
       487  -9.5940     26.1263     35.4453   9.2243695957e+01   6.6571554292e+01    0.3054669    0.2121865 -56.15  0.001035185    1.742    0.426
       488  -8.2966    132.7617     36.5660   5.5353019857e+01   4.7295544650e+01    0.2965276    0.1206453  52.68  0.001152015    2.183    0.542
       489  -8.1381    125.8597     35.8024   5.6666894952e+01   4.9039888681e+01    0.1807512    0.1665817 -72.68 0.0004182427    1.272    0.214
       490  -8.6797    111.9795     34.4042   5.9615089822e+01   5.2429690546e+01    0.3019588    0.1861035 -37.77  0.001452437    1.766    0.434
       491  -8.9399     48.4828     33.3586   8.1151046830e+01   6.4359728310e+01    0.2452753    0.2090374 -39.75 0.0006883583    1.420    0.296
       492  -8.6100    119.4678     33.1749   5.7262289089e+01   5.0873004146e+01    0.2131271     0.194526  87.74 0.0006876265    1.299    0.230
       493  -8.6367     60.5111     32.6365   7.5828228778e+01   6.2704168035e+01    0.2301517    0.1950966 -57.46 0.0006147031    1.791    0.442
       494  -8.5994     71.9828     31.1326   7.0795898982e+01   6.1003231792e+01    0.2518008    0.1811659 -49.03 0.0008565076    1.909    0.476
       495  -8.0331    139.0357     31.7229   5.2374581939e+01   4.6380360603e+01    0.1810394    0.1174447  60.06 0.0005844491    1.442    0.307
       496  -8.9653     12.9345     30.1711   9.6795746620e+01   6.8619546948e+01     0.292333    0.1599867 -60.79  0.001404219    2.285    0.562
       497  -8.4707    101.4792     29.4518   6.0587043287e+01   5.5384136068e+01    0.2174315    0.1219794 -38.98 0.0006655194    2.007    0.502
       498  -7.5623    161.9647     29.2418   4.7373556661e+01   4.1004410243e+01    0.1735159    0.1106644  65.50 0.0003285882    1.462    0.316
       499  -8.9893     81.3937     27.5138   6.5974607679e+01   5.9753783102e+01    0.2496202    0.2177791 -53.79 0.0007034049    1.587    0.370
       500  -8.8366      3.6935     27.7217   1.0069854219e+02   6.9661619605e+01    0.2367712    0.1481487 -63.50  0.001163858    1.899    0.473
       501  -8.8546     91.8631     26.2978   6.2136866592e+01   5.7813063992e+01    0.2731507    0.1775107 -41.56 0.0009642006    1.846    0.458
       502  -7.9206    104.4078     23.1414   5.7319725872e+01   5.5494605964e+01    0.1827094    0.1220394 -37.37 0.0008456821    1.696    0.410
       503  -8.1192     34.7684     23.2012   8.3012382648e+01   6.7717554958e+01    0.1660861    0.1399034  79.93 0.0009455028    2.735    0.634
       504  -8.8946     63.6544     21.1474   6.9558559338e+01   6.3807188242e+01    0.2597091    0.1991877 -46.20  0.001017507    1.818    0.450
       505  -8.8774     48.3792     21.8120   7.6132904194e+01   6.6129262320e+01    0.1986943    0.1834769 -10.48 0.0005682732    1.366    0.268
       506  -8.3418    120.5407     21.0342   5.2593471694e+01   5.2035287996e+01    0.1932052    0.1338203 -24.79   0.00101523    1.560    0.359
       507  -8.1468     19.2368     21.2593   8.9962288901e+01   6.9653143764e+01    0.1445097    0.1313955 -17.62  0.001057429    1.385    0.278
       508  -8.7340     74.0133     19.5395   6.5051344668e+01   6.2153009050e+01    0.2222207    0.1716529 -37.04 0.0006456249    1.556    0.357
       509  -8.2559     87.7481     17.3814   5.9671344131e+01   5.9697498438e+01    0.2204004    0.1525071 -35.42 0.0006748281    1.660    0.397
       510  -8.0144     38.6812     18.3561   7.8923203289e+01   6.7953290927e+01    0.1539837    0.1467621 -41.20 0.0006526017    1.667    0.400
       511  -7.7654    112.9547     16.9845   5.2821681736e+01   5.4221286961e+01    0.1618761    0.1405424  39.25 0.0004541004    1.004    0.004
       512  -8.2573     30.0303     16.0018   8.2012761423e+01   6.9357516276e+01     0.155661    0.1463329 -34.71  0.000665842    1.645    0.392
       513  -8.3267      7.5743     15.7507   9.3921995959e+01   7.1508427028e+01    0.1460357   0.09696227 -50.46 0.0009390909    1.645    0.392
       514  -8.1627     96.9277     15.1290   5.6116171961e+01   5.7994454222e+01    0.1824793     0.181789  43.90  0.000521461    1.246    0.197
       515  -8.0486    235.2095     13.7825   3.4839140407e+01   2.5395192633e+01    0.1497284    0.1363807  62.89 0.0003944713    1.325    0.245
       516  -9.1665    175.5770    247.7795   9.5762318508e+01  -1.0514568922e+00    0.2758767     0.233159  84.94  0.001211999    1.923    0.480
       517  -8.9947    156.2398    247.7293   9.9540838067e+01   1.9082676865e+00    0.2896872    0.2291652 -36.62  0.001334477    1.511    0.338
       518  -8.9027    132.4630    248.3710   1.0431343138e+02   5.4360189835e+00    0.2893031    0.1743869  58.20 0.0006522282    1.928    0.481
       519  -8.3479    113.1138    248.7001   1.0815445810e+02   8.2688569588e+00    0.1943122    0.1538068  86.84 0.0007995943    1.483    0.326
       520  -9.2868    103.7935    246.7258   1.0976603796e+02   9.9653870762e+00    0.4223959    0.2228819 -83.37  0.001967344    3.226    0.690
       521  -9.1119    243.2111    246.5565   8.3001087618e+01  -1.0480275819e+01     0.390415    0.1689315 -21.65  0.001934326    2.571    0.611
       522  -8.3845    218.4271    247.8336   8.7650460080e+01  -7.3209258795e+00    0.1944297     0.110212 -37.97 0.0009629021    2.067    0.516
       523  -9.3466    147.4469    246.5375   1.0111925966e+02   3.4446250469e+00    0.3289217    0.2057006  65.61  0.001649028    2.547    0.607
       524  -8.0768     40.6061    247.8084   1.2171623949e+02   1.7991529867e+01    0.1553177   0.08660647  85.22 0.0009603045    1.732    0.423
