#   1 NUMBER                 Running object number                                     
#   2 MAG_AUTO               Kron-like elliptical aperture magnitude                    [mag]
#   3 X_IMAGE                Object position along x                                    [pixel]
#   4 Y_IMAGE                Object position along y                                    [pixel]
#   5 X_WORLD                Barycenter position along world x axis                     [deg]
#   6 Y_WORLD                Barycenter position along world y axis                     [deg]
#   7 A_WORLD                Profile RMS along major axis (world units)                 [deg]
#   8 B_WORLD                Profile RMS along minor axis (world units)                 [deg]
#   9 THETA_WORLD            Position angle (CCW/world-x)                               [deg]
#  10 FWHM_WORLD             FWHM assuming a gaussian core                              [deg]
#  11 ELONGATION             A_IMAGE/B_IMAGE                                           
#  12 ELLIPTICITY            1 - B_IMAGE/A_IMAGE                                       
         1 -12.0022     43.7763     20.3855   2.9152420230e+02   7.2978062471e+00   0.03164611   0.01722774  -3.77  0.002270142    2.745    0.636
         2 -11.9244    216.9107     16.5575   2.8933988309e+02   6.3515186790e+00    0.0215912   0.01425338  16.55  0.001309826    1.517    0.341
         3 -11.9878     43.5416      8.4820   2.9146246799e+02   7.4373635215e+00    0.0190965   0.01254973  29.68  0.001027468    1.402    0.287
         4 -12.7806    183.5063      4.6858   2.8969190147e+02   6.6811672558e+00   0.03071096   0.01696985 -52.99  0.002893041    1.854    0.461
         5 -13.0293    187.8088      6.9451   2.8965052122e+02   6.6302528822e+00   0.02427303    0.0200812  73.91  0.002744498    1.373    0.272
         6 -11.1316    165.5772      2.1830   2.8990212548e+02   6.8130986288e+00   0.01384234  0.004544413  28.02  0.001009245    2.665    0.625
         7 -10.7984     76.1638    225.9225   2.9223254348e+02   4.7231765786e+00   0.01546396  0.009294675  18.75 0.0009822361    1.648    0.393
         8 -11.2630     95.5478    224.5917   2.9198368817e+02   4.6282468919e+00   0.01846951   0.01335092  58.94  0.001927148    1.559    0.359
         9 -11.1819    149.4781    221.9265   2.9129711477e+02   4.3515534714e+00   0.02233929    0.0114154 -59.79  0.002024596    2.001    0.500
        10 -11.0420    226.4791    221.0436   2.9033350490e+02   3.9214390770e+00   0.01018513  0.006845264 -65.49  0.001032745    1.592    0.372
        11 -10.3511    211.3990    218.2057   2.9050578823e+02   4.0407529892e+00  0.009476926  0.006669244 -85.66 0.0009530205    1.726    0.421
        12 -10.9291    220.3804    213.5958   2.9036899127e+02   4.0429212890e+00    0.0147759  0.003741005  37.64 0.0009626205    3.374    0.704
        13 -10.8000    185.8690    203.7569   2.9074532093e+02   4.3548247360e+00   0.01301542  0.008660608 -85.79  0.001269332    1.883    0.469
        14 -11.0069      5.1181    199.3700   2.9297555966e+02   5.4359475958e+00    0.0185885  0.008019692  38.91  0.001428779    2.164    0.538
        15 -10.8596    112.4048    197.6289   2.9162774287e+02   4.8458317796e+00   0.01286348  0.006514219 -87.45 0.0009566182    3.293    0.696
        16 -10.1645    193.3473    188.6862   2.9057042297e+02   4.4872506970e+00  0.007387917  0.004810285  54.12 0.0005535085    1.718    0.418
        17 -12.0662    158.7553    190.9210   2.9101356074e+02   4.6591491896e+00   0.03263256   0.01956337 -87.30  0.002946664    2.278    0.561
        18 -10.7049    183.4199    183.1127   2.9066385625e+02   4.6088712069e+00   0.01887584  0.005782219 -60.08  0.001359219    3.125    0.680
        19 -10.1685    224.0000    183.0360   2.9015803313e+02   4.3773745581e+00   0.01094965  0.003946634 -64.98 0.0008047139    2.958    0.662
        20 -10.2530    210.4878    183.0065   2.9032611475e+02   4.4551306982e+00   0.01044293  0.006802443 -63.81   0.00104466    1.627    0.385
        21  -9.9514    137.3346    178.6575   2.9121414263e+02   4.9241971289e+00  0.007428553  0.004838223  56.20 0.0004818513    1.760    0.432
        22 -10.3077    100.9851    175.9900   2.9165308229e+02   5.1627171969e+00  0.009464012  0.008881149  21.97            0    1.004    0.004
        23 -10.9376     34.3952    173.2237   2.9246916821e+02   5.5740208629e+00  0.009508788  0.006653832 -85.75 0.0009535138    1.737    0.424
        24 -10.5830     55.2455    167.1570   2.9217612049e+02   5.5260561649e+00   0.01426917  0.007426159  47.52  0.001244867    2.069    0.517
        25 -11.8596    106.0945    157.5035   2.9148922944e+02   5.3486255439e+00   0.03018216   0.01928521  65.78  0.002852624    2.015    0.504
        26 -11.1229    167.4470    157.1236   2.9072189450e+02   5.0024577800e+00   0.01580314  0.009863664  79.71  0.001428312    2.265    0.558
        27 -10.3481      7.0000    155.9561   2.9271802085e+02   5.9305012193e+00   0.01063893  0.003942073 -65.21 0.0005499154    2.876    0.652
        28 -10.4808    218.0000    156.0457   2.9008609117e+02   4.7254409716e+00   0.01099948  0.003946743 -64.98 0.0008066506    2.972    0.663
        29  -9.9021     39.8328    152.2473   2.9228797201e+02   5.7871963982e+00   0.01211016  0.006007481  56.43 0.0009438908    2.755    0.637
        30 -10.8438    189.9418    150.2963   2.9040442002e+02   4.9530489921e+00   0.01530929   0.01016287  85.00  0.001470239    1.987    0.497
        31 -11.0412     28.4934    155.8831   2.9244921545e+02   5.8093336735e+00   0.01860525   0.01024996  72.44  0.001474199    2.963    0.663
        32 -11.7299    107.8785    145.9808   2.9140453096e+02   5.4724763306e+00   0.02703044   0.01062081  53.04  0.001757097    3.994    0.750
        33 -10.5166    148.4839    144.9842   2.9089248338e+02   5.2520864849e+00   0.00968499  0.005711245  75.56 0.0008103116    2.553    0.608
        34 -10.2733    181.6775    141.3702   2.9045893808e+02   5.1041431865e+00  0.007456789  0.004848922  58.06 0.0007034301    1.804    0.446
        35 -11.7309     82.9486    129.5958   2.9162697183e+02   5.8052571299e+00   0.02895725   0.01029946 -70.77   0.00200333    3.627    0.724
        36 -11.9421     98.3510    127.6437   2.9142406770e+02   5.7401205016e+00    0.0291569   0.01514875  76.62  0.002094177    3.698    0.730
        37 -11.1774     42.5069    121.5257   2.9208843033e+02   6.1293972636e+00    0.0303981   0.01214413 -81.57  0.001763398    5.500    0.818
        38 -11.1275     25.4984    118.4816   2.9228448617e+02   6.2614803171e+00    0.0120308  0.006843009 -84.22  0.001038775    2.406    0.584
        39 -11.6223    192.9966    118.6386   2.9019426518e+02   5.3034969146e+00   0.02701478   0.01815508  63.79  0.002665645    1.817    0.450
        40 -10.4666     37.8435    121.1207   2.9214450501e+02   6.1606247480e+00  0.009942508  0.008607448  47.03 0.0003258095    1.160    0.138
        41 -11.5639     70.6687    119.3392   2.9172477275e+02   5.9945329102e+00   0.01941721  0.009322862  87.93   0.00125884    4.490    0.777
        42 -11.5830    141.0320    114.8485   2.9082184671e+02   5.6450903106e+00   0.02744318  0.008753229 -56.90   0.00203357    2.964    0.663
        43 -10.8584    108.1200    112.5321   2.9122012664e+02   5.8600957601e+00   0.01915283   0.00957814 -83.15  0.001484608    3.055    0.673
        44 -11.4625    121.8796    111.7006   2.9104381660e+02   5.7911731056e+00   0.01869578   0.01001871 -83.51  0.001548456    2.670    0.626
        45 -10.9224     78.6851    112.6841   2.9158857148e+02   6.0262516331e+00   0.01390974  0.008220105  79.40  0.001184313    2.553    0.608
        46 -10.7323    174.2651    110.9595   2.9038608353e+02   5.5000747155e+00   0.01630878  0.009620952 -69.09  0.001550306    1.878    0.467
        47 -11.5901    159.4845    110.7486   2.9056931676e+02   5.5871663168e+00   0.02309337   0.01186202 -70.54  0.002026942    2.240    0.554
        48 -11.8346     13.9096    109.4056   2.9238023738e+02   6.4328544639e+00   0.02425082   0.01334469 -73.77  0.002188558    2.156    0.536
        49 -10.0459     59.9356    109.5178   2.9180565330e+02   6.1698877689e+00    0.0105252  0.006414543  24.17  0.001016234    1.542    0.352
        50 -12.2514    140.7185    102.6462   2.9075947032e+02   5.7887323389e+00   0.02782379   0.01637485 -60.89  0.002697144    1.766    0.434
        51 -11.9355    150.2631    102.2716   2.9063831016e+02   5.7384776305e+00   0.01574547   0.01096647  84.50  0.001572557    1.827    0.453
        52 -11.4022    127.7817    101.0015   2.9091203210e+02   5.8818266810e+00   0.01634414  0.009673146 -78.33   0.00150678    2.088    0.521
        53 -11.9190    107.3095     98.1500   2.9115219050e+02   6.0319419493e+00   0.02207309   0.01414317 -86.93  0.001906267    2.019    0.505
        54 -10.7925     81.3463     99.8819   2.9148591103e+02   6.1599504855e+00   0.01322816  0.006763957 -77.91  0.001091039    2.587    0.613
        55 -10.8947     62.4969     94.9986   2.9169496464e+02   6.3241440044e+00  0.009809689  0.005717908  76.13  0.000810686    2.627    0.619
        56 -12.8968    170.1061     90.7479   2.9032804115e+02   5.7587775534e+00   0.01735022   0.01369055  44.11 0.0007862726    1.251    0.201
        57 -11.1707     34.1311     86.8588   2.9200542623e+02   6.5801904101e+00   0.02238512  0.007888039 -60.70  0.001713539    2.797    0.643
        58 -11.6561     42.2071     87.8139   2.9190963502e+02   6.5231622576e+00   0.02138397   0.01061885   1.15  0.001561577    3.216    0.689
        59 -12.3906     43.3308     99.6301   2.9195959803e+02   6.3793709553e+00   0.03220198   0.01845989  75.24  0.001356722    2.726    0.633
        60 -11.0254     85.8669     86.5788   2.9135725469e+02   6.2888392535e+00   0.01392446  0.007935324  61.18  0.001199638    2.347    0.574
        61 -11.3273    104.0202     82.8207   2.9111004208e+02   6.2289239192e+00   0.01605508  0.009623051  85.06  0.001404591    2.431    0.589
        62 -10.7922    140.5734     82.7361   2.9065306400e+02   6.0209686155e+00   0.01283339  0.006404097 -59.98  0.001139065    2.048    0.512
        63 -11.4338     46.1975     80.8263   2.9182187985e+02   6.5817055028e+00   0.02174606   0.01107511 -57.77  0.001787836    1.991    0.498
        64 -10.3382    119.3147     80.6508   2.9090720220e+02   6.1667714275e+00   0.00732538  0.004888237  57.44 0.0007047015    1.725    0.420
        65 -11.0815     81.7056     72.6914   2.9133387905e+02   6.4740031747e+00   0.01393401  0.008236377  79.18  0.001186423    2.554    0.609
        66 -12.2356    223.6779     71.0988   2.8955299384e+02   5.6796572761e+00   0.03024829   0.01176106  43.99 0.0006010585    2.693    0.629
        67  -9.8351    220.4890     65.4781   2.8956210441e+02   5.7632330409e+00   0.01566035   0.01009188 -10.57  0.001094111    1.983    0.496
        68 -11.2525     62.3731     70.5786   2.9156407567e+02   6.6087481343e+00    0.0170156  0.005553691 -58.86  0.001261735    2.932    0.659
        69 -10.8740     51.4412     69.6948   2.9169596258e+02   6.6812674503e+00   0.01258898  0.007013855 -72.93  0.001136438    2.101    0.524
        70 -12.1658    237.4809     64.1857   2.8934330646e+02   5.6805881873e+00   0.01341082   0.00950397  24.05  0.001081858    1.327    0.246
        71 -13.8007     30.1069     59.0910   2.9190527460e+02   6.9258620366e+00   0.06240344   0.03292382  32.36  0.005777828    1.717    0.418
        72 -11.0840    149.7344     52.3811   2.9037352921e+02   6.3211895256e+00   0.01176662  0.009521755  44.87 0.0005123303    1.226    0.184
        73 -12.0933    231.5779     60.7677   2.8939822179e+02   5.7541944631e+00   0.02372399   0.01320835  15.55  0.002149978    1.900    0.474
        74 -11.1497     40.1440     52.4319   2.9174360978e+02   6.9461819198e+00   0.01684062   0.01172433 -30.91  0.001717246    1.633    0.388
        75 -12.4733     20.5546     50.8744   2.9198023025e+02   7.0756263240e+00     0.024461   0.01307882 -60.01  0.002268867    1.921    0.479
        76 -10.3599    157.0366     44.9397   2.9024182772e+02   6.3657813013e+00   0.01037894  0.009451966  22.18 0.0004120279    1.032    0.031
        77 -10.6608      5.1436     42.2687   2.9212642320e+02   7.2631050733e+00   0.01342735  0.008496934  70.95  0.001234889    2.140    0.533
        78 -11.2635     69.7137     41.7301   2.9131566277e+02   6.9021580602e+00   0.01396269  0.008249398  78.23   0.00118815    2.558    0.609
        79 -11.6839     42.6858     38.4080   2.9163571108e+02   7.0946701615e+00    0.0185578   0.01444664  33.80  0.001234145    1.203    0.169
        80 -10.5326    119.7517     33.8495   2.9064721829e+02   6.7080027994e+00   0.01324945  0.009623189  77.62  0.001359812    1.704    0.413
        81 -10.4376    105.5878     30.8152   2.9080774862e+02   6.8242049219e+00   0.01639111   0.00791257  17.01  0.001189478    2.221    0.550
        82 -10.4889    101.5063     28.9477   2.9084861394e+02   6.8692116114e+00    0.0164869  0.009139246 -74.49  0.001481104    2.167    0.539
        83  -9.6583      4.4563     29.5119   2.9206587380e+02   7.4152087959e+00  0.006805162  0.006390386  25.51 0.0001114988    1.010    0.010
        84 -12.0037    220.2964    248.4483   2.9055903548e+02   3.6383207777e+00   0.02271936   0.01138461  56.56  0.001810076    2.719    0.632
        85  -9.8011      3.1530     18.1410   2.9202052436e+02   7.5546734028e+00  0.009173268  0.007422653  51.53 0.0002538952    1.282    0.220
        86 -11.7700     25.4591    242.6658   2.9295496039e+02   4.8166243903e+00   0.01227394   0.01105709  89.17  0.001014649    1.220    0.180
        87 -10.5029      7.5225    240.4962   2.9316690569e+02   4.9436621436e+00  0.006824989  0.006401039  25.08 0.0008102468    1.006    0.006
        88 -10.5301    239.4151     20.9869   2.8908350305e+02   6.1706903957e+00   0.01146328  0.009325523   1.65   0.00127573    1.282    0.220
        89 -11.4781     29.6083    233.0548   2.9285149043e+02   4.9049152334e+00   0.02590157   0.01244579  51.47  0.001849363    2.528    0.604
        90 -10.8283     12.6785    227.2986   2.9303161585e+02   5.0680114914e+00   0.01149272  0.009715077  52.39  0.000548789    1.222    0.182
