#   1 NUMBER                 Running object number                                     
#   2 MAG_AUTO               Kron-like elliptical aperture magnitude                    [mag]
#   3 X_IMAGE                Object position along x                                    [pixel]
#   4 Y_IMAGE                Object position along y                                    [pixel]
#   5 X_WORLD                Barycenter position along world x axis                     [deg]
#   6 Y_WORLD                Barycenter position along world y axis                     [deg]
#   7 A_WORLD                Profile RMS along major axis (world units)                 [deg]
#   8 B_WORLD                Profile RMS along minor axis (world units)                 [deg]
#   9 THETA_WORLD            Position angle (CCW/world-x)                               [deg]
#  10 FWHM_WORLD             FWHM assuming a gaussian core                              [deg]
#  11 ELONGATION             A_IMAGE/B_IMAGE                                           
#  12 ELLIPTICITY            1 - B_IMAGE/A_IMAGE                                       
         1 -14.8972    162.1849     43.7530   7.9914979737e+01   3.9242986778e+01     1.457427     1.119129  -4.32  0.003580722    1.337    0.252
         2 -14.7588    175.4501     11.2293   6.6010860289e+01   3.9596080263e+01     1.347264     1.205124  33.72   0.00423868    1.057    0.054
         3 -12.6877    189.9538     14.3721   6.5010639631e+01   3.5401362773e+01    0.4449355    0.2735356 -20.29  0.001765663    1.618    0.382
         4 -13.5466    125.1502    241.3586   1.2822738266e+02   1.3671950977e+01    0.3827385    0.1539933 -53.45  0.002284011    3.333    0.700
         5 -20.0896     76.2238    175.3793   1.3080102075e+02   3.0261179300e+01      13.9725      5.88519 -68.63   0.07196318    2.551    0.608
         6 -11.0668    139.9483    200.3092   1.2120241263e+02   1.7136342271e+01    0.3178923     0.171827  37.87 0.0008321252    1.544    0.352
         7 -11.7956    134.3198    244.2359   1.2699366132e+02   1.2089529994e+01    0.2103471    0.1551946 -32.19  0.001624316    2.059    0.514
         8 -10.0858     17.3103    200.2988   1.4353790673e+02   3.2008197238e+01   0.07882585   0.06983186 -65.05 0.0002490834    1.600    0.375
         9 -14.1581    180.5361    193.5161   1.1266507060e+02   1.1577576270e+01    0.8492746    0.4364453  28.82   0.00434645    1.930    0.482
        10 -12.2365    169.5370    195.4878   1.1500172686e+02   1.3125002318e+01    0.2541999    0.1793157 -43.44  0.001188535    1.772    0.436
        11 -13.9235    165.0932    189.1917   1.1489219443e+02   1.4731254655e+01    0.6657845    0.3691388  39.44  0.003678103    1.480    0.324
        12 -12.4172    170.2130    183.5367   1.1303250019e+02   1.4678123781e+01    0.3310412    0.2122581  42.50  0.001322241    1.329    0.248
        13 -13.7149    173.1017    189.1866   1.1337640573e+02   1.3398623556e+01    0.4587822    0.3472015 -39.35  0.002369702    1.606    0.377
        14 -13.4933    175.2212    185.5282   1.1239736696e+02   1.3548173333e+01    0.5477797    0.3456194 -63.35  0.002469681    3.086    0.676
        15 -12.0380    138.1885    242.3633   1.2618386074e+02   1.1789942577e+01    0.2780566    0.2308368  85.09  0.001805542    1.587    0.370
        16 -12.6788    152.8991    184.5542   1.1654053730e+02   1.7427008741e+01    0.4050276    0.2671461 -74.21  0.002081743    2.762    0.638
        17 -11.0801    126.9279    250.6734   1.2876118047e+02   1.2300971587e+01    0.1343205    0.0676661  41.98 0.0001771906    1.406    0.289
        18 -10.5365     24.9941    185.4995   1.4148438203e+02   3.3858750562e+01    0.1421317    0.1049058  83.48  0.000454546    1.138    0.121
        19 -12.5726    118.5447    181.7121   1.2295642917e+02   2.3316493083e+01    0.5418569    0.2716163  63.02  0.002393474    3.098    0.677
        20 -11.2695     30.5920    182.7422   1.4030095612e+02   3.3839234111e+01    0.1933078     0.148172  29.30  0.001357465    1.629    0.386
        21 -11.4723     27.6251    179.8103   1.4068108508e+02   3.4633238099e+01     0.237929    0.2096003  -9.46  0.001948554    1.832    0.454
        22 -12.5628    199.0566    178.5849   1.0676233717e+02   1.0373290217e+01    0.5337524    0.3627537 -65.65  0.002453024    3.645    0.726
        23 -13.2720    195.3783    168.8269   1.0568146459e+02   1.2322394558e+01     0.411263    0.3452928   7.64 0.0007158081    1.124    0.110
        24 -12.6492    193.0092    164.2849   1.0528046929e+02   1.3380877133e+01    0.4442064    0.2710367  32.63  0.002192785    1.437    0.304
        25 -12.2720    173.2915    175.1028   1.1104480632e+02   1.5365824762e+01    0.2371284    0.1497186  32.53 0.0006468498    1.398    0.285
        26 -14.2928    145.1062    169.6268   1.1578377676e+02   2.1083386318e+01    0.9106135     0.536929  64.20   0.00421187    2.608    0.617
        27 -11.9013    141.4718    174.4903   1.1729081331e+02   2.0894094929e+01    0.2620174    0.1965347  40.41 0.0008127358    1.147    0.128
        28 -13.4223    138.0667    171.1944   1.1748033018e+02   2.1999864820e+01    0.6011924    0.3724771  47.61  0.002566963    1.461    0.316
        29 -13.2588    177.3407    171.0995   1.0956124338e+02   1.5236002950e+01    0.4589865    0.3257542 -60.72  0.002472057    2.221    0.550
        30 -11.9195    126.0262    172.0062   1.2009174421e+02   2.3809511373e+01    0.2659137    0.2350192 -82.80  0.001076282    1.280    0.219
        31 -10.8236    165.5132    172.0805   1.1206176749e+02   1.7177589028e+01    0.1755152    0.1285515 -40.03  0.001029612    1.584    0.369
        32 -11.6011     26.1342    173.0879   1.4056453535e+02   3.5986470297e+01    0.2375525    0.1633365  78.24 0.0009456163    1.170    0.145
        33 -10.8264     12.8890    242.5853   1.4573058670e+02   2.5950839914e+01    0.1189451    0.1021927 -81.59  0.001057472    1.619    0.382
        34 -12.1514    230.1914    166.8672   9.8995063197e+01   6.3574535027e+00    0.2521563     0.169331 -34.80  0.001439848    1.807    0.447
        35 -11.9146    122.3679    165.6621   1.1992335266e+02   2.5495215389e+01    0.4168075    0.1905753  54.65  0.001042913    2.620    0.618
        36 -11.8285    130.4093    161.6779   1.1759075462e+02   2.4897791896e+01    0.3055032    0.1878056  54.49 0.0006529565    1.694    0.410
        37 -10.6918    160.4507    242.1243   1.2250763562e+02   8.7243263191e+00    0.1220353    0.1059475 -34.49  0.001023832    1.582    0.368
        38 -10.7556     17.6823    158.7199   1.4136079356e+02   3.9392689057e+01    0.2793942    0.1646227  17.25  0.001512848    2.506    0.601
        39 -11.3585     17.7887    154.8923   1.4110475835e+02   4.0120439554e+01    0.2677475    0.1654151  88.06  0.001266521    1.332    0.249
        40 -11.0150    191.1776    157.9430   1.0441173849e+02   1.4621574171e+01     0.398341    0.1749548  30.17  0.001582311    2.621    0.618
        41 -13.1781    161.9928    153.7824   1.0950101181e+02   2.0706575459e+01    0.4609299    0.3768105 -87.85  0.001994191    1.804    0.446
        42 -14.3785    134.2034    146.1136   1.1409544972e+02   2.7055698446e+01     1.241003    0.4633364 -57.42  0.004256463    4.171    0.760
        43 -10.4439    151.1092    241.5142   1.2397715684e+02   1.0105413247e+01    0.1436523    0.1133976  38.46 0.0006602791    1.099    0.090
        44 -14.1337    143.5557    143.3945   1.1149644176e+02   2.5880777198e+01    0.9306472    0.4459764 -58.80  0.003616639    3.240    0.691
        45 -11.1870     28.6668    239.8369   1.4334305182e+02   2.4919996000e+01     0.120357   0.07517491  63.54 0.0003822821    1.131    0.116
        46 -11.8607    174.3033    148.6884   1.0595066035e+02   1.9218641177e+01    0.2908994    0.2564712 -81.86  0.001094723    1.598    0.374
        47 -11.8799     27.6960    145.4550   1.3833886613e+02   4.1165932097e+01    0.2672061    0.2331119 -11.13  0.002014111    1.687    0.407
        48 -11.6941     21.7016    238.1985   1.4431195498e+02   2.5791776324e+01    0.1083445   0.08866991  74.16 0.0008123496    1.310    0.236
        49 -12.1411    134.5109    105.5303   1.0536659335e+02   3.4762454205e+01    0.4548839     0.142367 -44.04  0.001485796    3.234    0.691
        50 -14.0653    135.7406    128.4381   1.1028441358e+02   3.0089511943e+01     1.353853    0.3431382 -50.11  0.003962347    4.786    0.791
        51 -11.5315    131.1000    235.3051   1.2667519806e+02   1.3631536794e+01    0.1566278     0.139927 -86.74 0.0006404461    1.430    0.301
        52  -9.9974    145.0459    234.9415   1.2430035948e+02   1.1738882640e+01     0.106937   0.09726493  45.28 0.0003178529    1.241    0.194
        53 -10.6272     22.9772    156.0779   1.4011324255e+02   3.9468095933e+01     0.157255    0.1249527  78.82 0.0004395053    1.028    0.027
        54 -12.5724    160.7491    128.1305   1.0449578315e+02   2.5315862477e+01    0.3989705    0.3247476 -50.62  0.001931427    1.422    0.297
        55 -10.6914    163.0566    250.3541   1.2295532179e+02   7.4612483183e+00    0.1497094   0.09492001  39.46 0.0004450905    1.104    0.094
        56 -10.5235    140.2672    229.6123   1.2454884217e+02   1.3078734042e+01    0.2042577    0.1293448  58.18  0.001310608    1.668    0.400
        57 -12.3396    140.4720    120.7169   1.0749025708e+02   3.0665391679e+01    0.3290484    0.2395229  70.44  0.001098474    1.908    0.476
        58 -11.0605    167.6599    112.6860   9.9328760116e+01   2.6592278061e+01    0.2847829    0.2221044 -84.67  0.001321173    2.069    0.517
        59 -10.8267    139.4548    250.0682   1.2670725622e+02   1.0711865196e+01    0.3156393    0.2001966 -50.77  0.002178139    2.218    0.549
        60 -10.9536     17.1709    224.1875   1.4449609049e+02   2.8247677949e+01   0.09478959   0.05506428 -84.09 0.0004100784    1.642    0.391
        61 -10.8200    205.2043    110.1956   9.0975422030e+01   1.8849379843e+01     0.301613    0.1817202  35.55  0.001054934    1.600    0.375
        62 -10.3028    133.7046    248.2899   1.2746648133e+02   1.1688493555e+01      0.11757    0.1078991  62.29 0.0002652667    1.322    0.243
        63 -10.7372    130.7553    213.6226   1.2447986809e+02   1.6586295490e+01    0.1582679    0.1186685  75.28 0.0006460518    1.641    0.391
        64 -10.7449     16.1880    209.2715   1.4409083279e+02   3.0646834197e+01    0.1091518    0.1062148  55.71 0.0009222521    1.583    0.368
        65 -12.9988     11.4958    206.0947   1.4473065747e+02   3.1553879325e+01    0.3499803    0.1955104  34.26   0.00220319    1.872    0.466
        66 -10.6384     22.4762    205.3202   1.4289215884e+02   3.0732591181e+01    0.1037385   0.07736132 -85.71 0.0006072914    1.338    0.253
        67 -14.4613    150.8128     58.2802   8.7440600893e+01   3.9855723723e+01     1.339029     1.068138  13.55  0.001012292    1.306    0.234
        68 -11.1208    160.4252    247.4844   1.2307972886e+02   8.1352192287e+00    0.2544481    0.1346285  24.60 0.0008342013    2.246    0.555
        69 -13.2103    165.8898     35.3312   7.6209506855e+01   3.9426827805e+01    0.5155188    0.4481216  -4.51 0.0008686336    1.115    0.103
        70 -10.8904     13.5169     59.9609   1.3249932132e+02   6.0713300871e+01    0.1834565    0.1514284  64.43 0.0004333923    1.421    0.296
        71 -10.4967    144.8400     34.0627   8.0185471164e+01   4.4998176265e+01    0.2199464    0.2073462 -54.38 0.0003237863    1.240    0.194
        72  -9.7029     15.5619    246.8249   1.4547796362e+02   2.5130941030e+01    0.1366363   0.06001972  80.47  0.001036184    2.033    0.508
