#   1 NUMBER                 Running object number                                     
#   2 MAG_AUTO               Kron-like elliptical aperture magnitude                    [mag]
#   3 X_IMAGE                Object position along x                                    [pixel]
#   4 Y_IMAGE                Object position along y                                    [pixel]
#   5 X_WORLD                Barycenter position along world x axis                     [deg]
#   6 Y_WORLD                Barycenter position along world y axis                     [deg]
#   7 A_WORLD                Profile RMS along major axis (world units)                 [deg]
#   8 B_WORLD                Profile RMS along minor axis (world units)                 [deg]
#   9 THETA_WORLD            Position angle (CCW/world-x)                               [deg]
#  10 FWHM_WORLD             FWHM assuming a gaussian core                              [deg]
#  11 ELONGATION             A_IMAGE/B_IMAGE                                           
#  12 ELLIPTICITY            1 - B_IMAGE/A_IMAGE                                       
         1 -11.0043    249.7428      8.9124   3.9066148297e+01   2.1713886024e+01     1.019382    0.2338306 -31.06  0.003665262    3.672    0.728
         2  -8.5972    136.4180      8.6031   5.2342005422e+01   5.0059591222e+01    0.2289075    0.2107175  38.44 0.0001558642    1.048    0.046
         3  -7.4344    139.0377     20.9351   5.6328985272e+01   4.8119759304e+01    0.1693859    0.1525102  53.47 0.0009556153    1.043    0.041
         4 -11.8120    238.1143    178.8717   8.0184965985e+01  -1.0516271783e+00     2.095332    0.8486663  33.11  0.008509491    2.743    0.635
         5 -12.4436    180.8333    240.3651   1.0118620849e+02   1.7705662966e-03     4.751794     2.450722  13.51   0.01541006    6.474    0.846
         6 -12.3315    211.9713    244.7140   9.6310159445e+01  -5.4637922639e+00     1.418685    0.7305498  17.93  0.007078873    2.558    0.609
         7 -10.8584    216.7985    230.4965   9.3285375640e+01  -4.4944390228e+00    0.5666624    0.3202427  22.93  0.002049374    1.756    0.431
         8 -11.6775    244.6878    189.8158   8.1201186370e+01  -3.7025619693e+00    0.8926235    0.5654938  23.13  0.004976042    1.519    0.342
         9 -10.8340    228.3318    227.1062   9.0719731248e+01  -5.8832065336e+00     0.544771      0.32616  -2.27  0.002686535    2.042    0.510
        10 -11.4793    226.2740    220.2987   8.9942918182e+01  -4.7176354957e+00     1.019274    0.5240691  -7.71  0.004386116    3.393    0.705
        11 -11.7608    236.4098    208.4295   8.6100906985e+01  -4.8205793041e+00     1.110725    0.5513279  20.90  0.005142845    2.461    0.594
        12 -11.1517    242.8470    198.6362   8.3193103800e+01  -4.5806284161e+00    0.5355867    0.3376641  10.49  0.001206743    1.675    0.403
        13 -11.1140    224.8015    248.6082   9.4693678812e+01  -7.8290730151e+00     0.414092    0.2852888  18.95  0.001616025    1.209    0.173
        14 -11.4955    238.4023    217.2397   8.7311397767e+01  -6.2417125439e+00    0.5813565    0.3810351   9.75  0.001752312    1.485    0.326
        15 -10.8090    246.8269    204.9826   8.3687087835e+01  -6.0296263848e+00    0.3516189    0.2457139  17.36 0.0009025388    1.250    0.200
        16 -10.9744    249.9404    199.3009   8.2110259522e+01  -5.7969052906e+00    0.3692541    0.2136336 -29.15  0.001235947    1.689    0.408
        17 -11.3805    225.4259    240.5922   9.3371987619e+01  -7.0260107100e+00    0.4800248    0.3344184   5.58  0.002316431    1.402    0.287
        18 -11.4422    230.6956    233.9480   9.1424193830e+01  -7.0551165493e+00    0.6369317    0.3062782  32.92  0.003050589    1.730    0.422
        19 -11.5689    235.9053    227.0269   8.9402261976e+01  -7.0348421638e+00    0.5452109    0.3880742   8.70  0.001823968    1.254    0.203
        20 -12.5707    233.6277    244.4746   9.2580976576e+01  -8.6676902396e+00     1.104403    0.5746999   7.72  0.005592508    2.725    0.633
        21 -12.3319    247.7915    214.3487   8.5207874282e+01  -7.3294583818e+00    0.5950518    0.3629481 -14.44  0.002512375    1.646    0.392
        22 -12.0815    247.4161    224.3755   8.7008817104e+01  -8.4477490431e+00     0.687811    0.3926762   1.61  0.003817679    2.012    0.503
        23 -12.0625    249.2317    247.2932   9.0436164367e+01  -1.1163689476e+01    0.5869895    0.3425989  -7.96  0.003752158    1.797    0.443
        24 -11.8441    249.2323    232.5192   8.8070021762e+01  -9.6191377339e+00    0.5768998    0.3343377  28.29  0.003612277    1.408    0.290
        25 -11.9977    242.5320    246.2269   9.1369332255e+01  -1.0124905020e+01    0.5336424    0.3043428   2.98  0.002798877    1.972    0.493
        26 -12.1828    246.8835    239.4262   8.9580446582e+01  -1.0026258089e+01    0.4876352    0.3804189  17.20  0.003609853    1.102    0.092
        27  -8.7073     88.8427    249.3402   1.1860632831e+02   1.2952533413e+01     0.300835    0.1403725  43.60  0.001690541    1.721    0.419
        28  -8.9536     73.7275    250.3975   1.2125257308e+02   1.4856397976e+01    0.2548697    0.1035647  44.23  0.001419505    1.923    0.480
        29  -9.3460     49.9031    249.9036   1.2514166518e+02   1.7987989893e+01    0.4767871    0.1415446  42.09  0.002439011    2.632    0.620
        30 -10.2989     18.2738    248.7241   1.3004906349e+02   2.1782796530e+01    0.4094495    0.2004705  39.10  0.002738415    2.075    0.518
        31  -9.0537      2.6596    250.3163   1.3244476010e+02   2.3098937648e+01    0.1812126    0.1043082  40.10  0.001362445    1.873    0.466
        32  -9.3873     96.4110    244.5204   1.1687014064e+02   1.2659052237e+01     0.467141    0.1802386  43.31  0.002390709    2.050    0.512
        33  -9.1715     83.2848    244.1165   1.1912617161e+02   1.4595884535e+01    0.4579707    0.1542349  40.22  0.002184443    2.573    0.611
        34  -9.1158     42.6897    244.2201   1.2596848461e+02   1.9821088889e+01    0.3266587    0.1715994  37.16   0.00205228    2.067    0.516
        35  -9.7127     55.1448    241.3918   1.2372846087e+02   1.8793026262e+01    0.5327212    0.1655122  50.25   0.00270776    2.364    0.577
        36  -9.5253      2.3426    242.1596   1.3219307688e+02   2.4506632809e+01    0.2401397    0.1090549  70.72  0.001639101    1.602    0.376
        37  -9.2980    136.1801    238.9018   1.0912849181e+02   7.4637397546e+00    0.3541703    0.2196866  41.06  0.001694662    1.339    0.253
        38  -8.9649    140.7469    234.3990   1.0774169625e+02   7.4327832612e+00    0.3437396    0.2065791  38.86  0.001698031    1.436    0.304
        39  -9.0676    146.6537    230.5046   1.0614460391e+02   7.0775476697e+00    0.4121294    0.1834697  38.13   0.00198003    1.989    0.497
        40 -10.4123    123.9813    239.7981   1.1145771424e+02   9.2566388047e+00    0.9001999    0.2262104  43.69    0.0034822    3.060    0.673
        41  -9.4250    134.4083    230.0036   1.0838198063e+02   9.1753945461e+00    0.3620521    0.2247533  38.53  0.002086383    1.438    0.305
        42  -9.0752     70.7261    239.9884   1.2096791828e+02   1.7017591256e+01    0.3170291    0.1916227  40.31  0.002025426    1.624    0.384
        43  -9.6695     27.7781    240.1419   1.2815027778e+02   2.2232694533e+01    0.4549151    0.2007996  43.37  0.002863356    1.925    0.480
        44  -9.8329     16.0020    239.9779   1.3000740511e+02   2.3518801616e+01     0.439888    0.1410959  47.32  0.002571152    2.216    0.549
        45  -8.2848     37.6196    240.1491   1.2655688001e+02   2.1121102092e+01    0.1954284    0.1046607  55.11  0.001314283    1.391    0.281
        46  -8.2898     63.4785    239.1991   1.2215717395e+02   1.8111180766e+01    0.2163473    0.1248753  49.76  0.001404657    1.376    0.273
        47  -8.4900    130.7329    234.4061   1.0960069929e+02   9.0533807173e+00    0.2642683    0.1868826  32.78  0.001169194    1.469    0.319
        48  -8.7659     81.3285    236.3101   1.1880485726e+02   1.6206184204e+01    0.4240551    0.1163584  50.73  0.001804408    2.983    0.665
        49  -8.6349     42.8551    236.5350   1.2547314212e+02   2.1145779331e+01    0.2747127    0.1389885  49.21  0.001760571    1.557    0.358
        50  -8.3675     94.8633    235.8177   1.1633310936e+02   1.4351109787e+01    0.2295007    0.1394616  55.04  0.001416243    1.313    0.238
        51  -8.3567     91.4971    235.4948   1.1691029271e+02   1.4898149759e+01    0.1993706    0.1603731  83.51 0.0009450453    1.208    0.172
        52  -9.4799      5.4350    235.9584   1.3147873226e+02   2.5282947932e+01    0.3291743    0.1136064  38.64  0.001921828    2.678    0.627
        53  -8.1208    110.2407    232.8400   1.1321995873e+02   1.2546191789e+01    0.2284458    0.1241236  35.76  0.001224741    1.881    0.468
        54  -8.8114     11.1999    231.5831   1.3038469431e+02   2.5490645522e+01    0.1895703    0.1083702  43.35 0.0009962725    1.691    0.409
        55  -8.7862    124.6312    230.2909   1.1025320719e+02   1.0711514036e+01    0.3582565    0.2589058  18.14  0.002061762    2.043    0.511
        56  -8.6394    102.5889    230.3662   1.1437529185e+02   1.4143778275e+01    0.3352392    0.1810773  46.21  0.001899073    1.506    0.336
        57  -8.8905     37.8014    230.4719   1.2594723706e+02   2.2827979836e+01    0.2584263    0.1980647  33.90  0.001889107    1.783    0.439
        58  -8.4859     47.0431    229.4876   1.2429994223e+02   2.1914597554e+01    0.2749813   0.09252663  39.01  0.001361022    2.724    0.633
        59  -8.7224     31.0706    229.1693   1.2700517133e+02   2.3829081949e+01    0.2458881     0.102803  48.54   0.00146589    1.855    0.461
        60  -9.7037     21.3106    226.9762   1.2851364328e+02   2.5288162460e+01     0.303861    0.2581785 -43.45  0.002342756    2.126    0.530
        61  -9.3815      3.9590    227.7551   1.3137033851e+02   2.6886097155e+01    0.3636898    0.1043093  49.45  0.002054426    2.399    0.583
        62  -8.7426    174.9952    226.7969   1.0031544488e+02   2.8860272993e+00     0.326903    0.1920028  28.10  0.001234436    1.765    0.433
        63  -7.9691    169.4037    227.8035   1.0150701181e+02   3.6807676924e+00    0.1516182     0.117429 -24.68 0.0009390886    1.621    0.383
        64  -8.0290    153.4546    227.6606   1.0448603555e+02   6.3916121207e+00    0.2544323    0.1316094  40.19  0.001316035    1.620    0.383
        65 -12.1155    198.8960    239.3064   9.7804313271e+01  -2.7617001328e+00      1.99742     1.048235  13.72  0.008646477    3.486    0.713
        66  -8.7369     72.1219    227.3522   1.1968566265e+02   1.9079673202e+01    0.3191938    0.1497862  51.86  0.001774748    1.709    0.415
        67  -8.5700    144.5011    225.9625   1.0595509592e+02   8.1663290670e+00    0.2849803    0.1484736  36.72      0.00112    1.770    0.435
        68  -9.2471     58.1534    230.5627   1.2243893422e+02   2.0336727588e+01    0.4210229    0.1994434  35.32  0.002288963    2.371    0.578
        69  -8.7987      9.7808    225.3285   1.3032671187e+02   2.6763829888e+01    0.2912147    0.0927639  49.89  0.001655364    2.257    0.557
        70  -8.2880    171.0267    223.4716   1.0057023752e+02   4.0595959300e+00    0.3093452    0.1593525  25.12  0.001356822    2.679    0.627
        71  -8.4801    175.5118    220.6604   9.9300007772e+01   3.7182259067e+00    0.2576179    0.1611668  29.24  0.001397685    1.573    0.364
        72 -11.0208    214.9324    222.6431   9.2344575489e+01  -3.1948613428e+00     1.474613     0.718736  11.50  0.004785522    5.741    0.826
        73  -7.8790    130.7966    223.3626   1.0823739080e+02   1.0880763236e+01    0.1837688    0.1031349  35.91 0.0007602677    1.736    0.424
        74  -8.0259     80.9628    227.9916   1.1813045891e+02   1.7737180670e+01    0.1958984    0.1088794  64.82   0.00076066    1.658    0.397
        75  -8.6391     52.1048    222.0297   1.2287284202e+02   2.2678040596e+01    0.2430599     0.132868  49.36  0.001501863    1.509    0.337
        76  -8.2512     30.3662    222.1109   1.2670604308e+02   2.5213505942e+01     0.228728   0.09440827  54.37   0.00107208    1.885    0.470
        77  -8.6505    181.2431    220.6988   9.8223848190e+01   2.7272324975e+00    0.2897578    0.1661511  30.91  0.001510044    1.675    0.403
        78  -8.8602    186.0147    219.4712   9.7135338117e+01   2.0903428872e+00    0.3108477    0.2097837  24.30  0.001441297    1.487    0.328
        79  -8.4634    149.5863    220.4634   1.0423264022e+02   8.2084047105e+00    0.3468994     0.165029  36.47  0.001636938    1.981    0.495
        80  -8.4985     18.2313    221.1128   1.2871795733e+02   2.6694091239e+01    0.2217258   0.08327609  58.77  0.001241228    2.096    0.523
        81  -7.9864     61.3394    220.5960   1.2108403727e+02   2.1773983590e+01    0.2215258   0.08619451  44.68  0.001131083    2.108    0.526
        82  -8.4758     41.9094    220.2318   1.2456421513e+02   2.4251311709e+01    0.1759335    0.1522194  40.45  0.001088397    1.567    0.362
        83  -8.1391      1.5305    219.5374   1.3141097476e+02   2.8617257622e+01    0.1907401   0.06935541  84.98  0.001035938    2.391    0.582
        84  -6.9882    141.9563    220.0000   1.0564386105e+02   9.5846456302e+00    0.2175532   0.06195694  41.90 0.0008035467    2.950    0.661
        85  -7.7194    159.8017    217.1601   1.0178309040e+02   6.9893566669e+00    0.1778354     0.140192  22.15  0.001017877    1.374    0.272
        86  -8.6960     10.7623    216.0905   1.2971903381e+02   2.8386030884e+01    0.2540086    0.1291194  41.36  0.001234332    1.898    0.473
        87  -8.5007     33.9119    214.1287   1.2557617541e+02   2.6338991255e+01    0.2548428    0.1411174  42.97  0.001614009    1.708    0.415
        88  -7.7735    186.1834    213.5931   9.6162553667e+01   2.9406839777e+00    0.1882343    0.1052498  32.65 0.0009421106    1.672    0.402
        89  -7.7616    171.9977    213.4971   9.8865528850e+01   5.4454852761e+00    0.1906278    0.1013403  24.51 0.0008106607    2.604    0.616
        90  -7.6258     65.3324    212.6746   1.1965658808e+02   2.2769584565e+01    0.1296316   0.07093588  67.51 0.0007051028    1.709    0.415
        91  -7.6779     42.8400    212.3544   1.2383346075e+02   2.5657147164e+01    0.1455879    0.1011499  34.93 0.0009499293    1.763    0.433
        92 -10.3418    249.6225    182.8107   7.8993900537e+01  -3.5624861377e+00    0.3726235     0.246271 -12.46  0.001062315    1.476    0.323
        93  -8.1369    180.2139    215.1933   9.7555883380e+01   3.7391360563e+00    0.2623671    0.1274229  31.72  0.001190192    2.135    0.532
        94  -8.2528     19.7238    210.3702   1.2786309102e+02   2.8587712192e+01    0.1761977    0.1340303  45.06  0.001322324    1.498    0.332
        95  -8.0052    200.5262    208.9857   9.2686479886e+01   1.1252110302e+00    0.2465653    0.1548267  25.31 0.0009319733    1.589    0.371
        96  -8.0448    187.3869    208.9651   9.5170645026e+01   3.4373575752e+00    0.2523975    0.1560549  29.17  0.001117917    1.581    0.367
        97  -8.2106    193.8761    207.6475   9.3711642641e+01   2.4915826468e+00    0.3049468    0.1395991  33.23   0.00134403    2.173    0.540
        98  -7.9505    177.7721    207.9642   9.6858903737e+01   5.3057923676e+00     0.183978    0.1587929  36.20 0.0007602989    1.017    0.017
        99  -7.5169    161.6428    208.6616   1.0013192388e+02   8.0726569979e+00    0.1342823   0.09845565  10.93 0.0007039807    1.812    0.448
       100 -12.9589    155.7139    245.1452   1.0634035060e+02   3.3923089577e+00     4.755681     1.478531  38.95   0.02010684    2.742    0.635
       101  -8.8159    206.7863    205.4908   9.0910741720e+01   5.4723397152e-01    0.3189021    0.1961177  24.22  0.001124133    1.660    0.398
       102  -9.0619     10.8168    203.2675   1.2903740974e+02   3.0855989560e+01    0.3026577    0.1625358  26.63   0.00181306    2.726    0.633
       103  -8.3207    198.7137    201.3949   9.1705746047e+01   2.5859956535e+00    0.3368616    0.1877215  27.66   0.00160708    1.907    0.476
       104  -7.9411    206.6874    201.2124   9.0168747452e+01   1.1960862099e+00    0.1821794    0.1325279  16.68 0.0005534285    1.375    0.273
       105  -8.3970    210.1201    198.3008   8.9000003736e+01   1.0231053067e+00    0.2913671    0.1484945  45.64  0.001383146    1.906    0.475
       106  -8.3907    215.4752    196.0766   8.7596469190e+01   4.0694406822e-01    0.2524687    0.1784259   9.94 0.0008256572    1.504    0.335
       107  -8.6259    219.8027    192.8727   8.6200408111e+01   1.1633113740e-01    0.2862805    0.1833122   3.68 0.0008124652    1.948    0.487
       108  -9.4169    224.4064    190.0083   8.4815793985e+01  -2.7336923734e-01    0.3643571    0.2468529   9.44  0.001170269    1.614    0.380
       109  -8.6124      2.8398    195.7597   1.3006044904e+02   3.3075718103e+01    0.2103234    0.1045179  58.95  0.001346005    1.624    0.384
       110  -7.8712    202.9838    194.5223   8.9651175243e+01   2.8781914008e+00    0.2050421     0.101973  24.69 0.0008096403    2.745    0.636
       111  -7.9094    209.9786    192.5236   8.7957211174e+01   1.9204443330e+00     0.195076    0.1015554  23.40 0.0008096742    2.502    0.600
       112  -8.2937    215.0334    188.5449   8.6257803603e+01   1.6152763074e+00    0.2532976    0.1720787 -13.71 0.0009918239    1.650    0.394
       113  -8.9773    230.4716    185.1541   8.2782311684e+01  -6.2876210259e-01     0.312908    0.2003765  25.34 0.0009837594    1.531    0.347
       114 -11.9865    227.1511    197.0706   8.5656586947e+01  -1.7610278875e+00     1.896116     1.106719  18.56  0.009451107    1.951    0.488
       115  -9.2455    190.0363    180.0515   8.9438970595e+01   7.6788988805e+00    0.2261461    0.1982346 -39.11 0.0003350064    1.243    0.195
       116  -7.8839    211.8442    179.7173   8.5133969696e+01   3.5785773960e+00    0.2396085    0.1393771   9.71 0.0009592818    2.810    0.644
       117  -7.8466    219.2117    175.7719   8.2963533843e+01   2.8284455538e+00    0.1925876    0.1457512  10.17 0.0009611978    1.353    0.261
       118 -10.3580    101.0002    175.9972   1.0791223052e+02   2.5077419248e+01    0.1934917    0.1703138  74.73  0.001159179    1.002    0.002
       119  -8.5082    233.0862    172.5606   7.9790370668e+01   7.7604664563e-01    0.2662849    0.1879356   4.40  0.001201071    1.524    0.344
       120  -8.3850    226.5235    170.0186   8.0443773755e+01   2.3699185784e+00    0.2730592     0.171257  26.00  0.001073688    1.683    0.406
       121  -8.7636    237.4680    167.4311   7.7957490169e+01   7.5859058323e-01    0.2910065    0.2122134  15.14 0.0006914697    1.387    0.279
       122  -9.0373    240.2794    162.2695   7.6384972037e+01   1.0304801580e+00    0.3094876    0.2244056 -11.62  0.001133876    1.358    0.264
       123 -11.6202    248.3074    121.3592   6.5946182576e+01   5.9091592311e+00    0.8719494     0.588634 -53.15   0.00432321    1.753    0.429
       124 -11.6431    245.3146    141.5033   7.1013607997e+01   3.3044979831e+00     1.046185    0.7119978 -57.09  0.005080139    2.085    0.520
       125  -9.9282    250.0095    138.3130   6.9537231780e+01   2.9128996254e+00     0.747712    0.2501895 -42.62  0.002658798    3.154    0.683
       126 -10.0312    247.8831    129.6483   6.7919924021e+01   4.6778786451e+00    0.4118044    0.2586118 -44.74  0.002023506    1.642    0.391
       127  -9.5561    246.0502    155.5359   7.3966595671e+01   1.0017327297e+00    0.4053092    0.2706549  -0.19 0.0009126947    1.734    0.423
       128  -9.1328    250.5302    155.4914   7.3212790595e+01   1.9964118059e-01    0.4122643    0.1589767 -32.56  0.001365695    2.406    0.584
       129  -9.2808    249.7493    149.2074   7.1983672058e+01   1.2875381053e+00    0.5331635    0.1587994 -37.01   0.00191713    3.049    0.672
       130 -10.1745    245.6063    166.2350   7.6307533638e+01  -5.1855493627e-01    0.5900022    0.3367799  24.23  0.002824013    2.009    0.502
       131  -9.2608    246.7272    160.7511   7.4965850665e+01   9.5214269035e-02    0.3238748    0.2392019  21.55 0.0008121764    1.345    0.257
       132  -7.5381    233.4693    168.4534   7.8873753106e+01   1.3308657244e+00    0.1375789    0.1171849   3.43 4.679889e-05    1.049    0.047
       133  -8.7951    226.3152    164.7889   7.9387897324e+01   3.2326375282e+00    0.3702133    0.1831853 -40.77   0.00152995    2.090    0.521
       134  -8.5937    210.4346    163.6932   8.2113574358e+01   6.4825151051e+00    0.2290226    0.1984662  22.26  0.001297348    1.087    0.080
       135 -11.0746    242.6433    150.2717   7.3397784981e+01   2.4393194181e+00    0.7032014    0.4854954  -2.31  0.003594975    1.639    0.390
       136  -8.3927     75.7409    163.0057   1.1182459144e+02   3.1886150471e+01     0.204105     0.173391  64.65 0.0004338569    1.117    0.105
       137  -8.7255    228.8220    148.8179   7.5474100135e+01   5.3281609164e+00    0.3150985     0.103328 -30.64  0.001011725    3.500    0.714
       138  -9.0200    234.3448    145.5006   7.3763199818e+01   4.7843417560e+00    0.2478649    0.1229549 -34.47   0.00107317    1.894    0.472
       139  -8.1252    229.3802    139.2350   7.3214058224e+01   6.7996219339e+00    0.1973879     0.125607 -41.44 0.0002939251    1.566    0.361
       140  -9.9109    237.9670    156.5394   7.5559715545e+01   2.3389128921e+00    0.3947495    0.2317313 -20.78  0.001320863    1.805    0.446
       141 -11.1907    242.5509    110.0455   6.4177957851e+01   8.9003925902e+00    0.5749846    0.3417452 -15.55  0.002478676    2.122    0.529
       142 -12.0422    241.2055     93.6792   6.0423517318e+01   1.1831671827e+01     1.174292    0.5470685 -21.74  0.004244261    2.891    0.654
       143 -11.3601    246.8962    103.6813   6.2000596312e+01   9.0178130844e+00    0.9961657    0.4165994 -46.92  0.003781223    2.581    0.613
       144  -9.3727    248.5811     97.7346   6.0334195281e+01   9.6103375160e+00    0.3946753    0.2159014 -45.63  0.001750299    1.765    0.433
       145 -10.0215    247.3381     92.0802   5.9152788014e+01   1.0765639368e+01    0.5339845    0.2447006 -27.64  0.001427253    2.250    0.555
       146  -9.7924    248.9884     87.5007   5.7819806958e+01   1.1130905068e+01    0.5698134    0.3054941 -54.06  0.002438905    2.171    0.539
       147 -10.0949    249.6723     80.4628   5.6031200209e+01   1.2072263026e+01    0.5816581    0.1917178 -36.24  0.002081944    2.555    0.609
       148  -9.5560    211.5463    109.2420   6.9174443974e+01   1.5850810835e+01    0.2657773    0.2577328 -66.82 0.0002661918    1.097    0.089
       149 -10.3248    246.5261     79.0199   5.6097755162e+01   1.2977298249e+01    0.5012101    0.2104395 -31.43  0.001982675    2.232    0.552
       150 -10.1342    247.8862     73.3185   5.4533539608e+01   1.3549793631e+01    0.4386321     0.218514 -26.94  0.001335089    2.081    0.520
       151  -7.7424    157.0256     86.7646   7.4149478684e+01   3.3187648494e+01    0.2109745    0.2059059  46.30            0    1.037    0.036
       152  -9.1508    242.8897     81.9177   5.7299227511e+01   1.3326735648e+01     0.211714    0.1873556  -1.26 0.0006196498    1.276    0.216
       153  -9.0009    239.4115     79.8144   5.7261722386e+01   1.4429821708e+01    0.1986267     0.131561 -22.31 0.0006149032    1.618    0.382
       154  -7.9356    239.4491     71.4852   5.5184401559e+01   1.5712301509e+01    0.1418703    0.1296368 -40.21 0.0002488965    1.045    0.043
       155 -10.4491    115.0091     69.3825   7.9457635486e+01   4.6270318158e+01    0.2701129    0.2379555 -31.55 0.0003360796    1.097    0.089
       156  -7.4128    126.4786     66.5890   7.5390063000e+01   4.4269120440e+01    0.1494181    0.1467474   2.03 0.0001915535    1.021    0.021
       157 -10.2123    249.2317     62.3105   5.1699530467e+01   1.4890411698e+01    0.5108652    0.2176823 -24.19  0.001896075    2.896    0.655
       158  -8.2483    211.1897     61.4813   5.6579495876e+01   2.3992608738e+01    0.2619143    0.1970862 -34.60 0.0006012563    1.288    0.224
       159  -8.8867    250.3776     44.2279   4.7230702493e+01   1.7185407382e+01    0.2066539    0.1024473 -42.79 0.0009495122    1.728    0.421
       160  -9.4357     63.9064    248.5802   1.2275977259e+02   1.6450645784e+01    0.4383735    0.1907352  42.47   0.00254426    1.926    0.481
       161  -7.4658    169.4413     10.4897   4.7711980131e+01   4.1429279972e+01    0.1391806    0.1280425  71.01 7.713425e-05    1.019    0.019
       162  -9.7842     34.8450    247.6764   1.2742287356e+02   2.0141965164e+01    0.4173148    0.1794491  54.76  0.002639384    1.679    0.404
