#   1 NUMBER                 Running object number                                     
#   2 MAG_AUTO               Kron-like elliptical aperture magnitude                    [mag]
#   3 X_IMAGE                Object position along x                                    [pixel]
#   4 Y_IMAGE                Object position along y                                    [pixel]
#   5 X_WORLD                Barycenter position along world x axis                     [deg]
#   6 Y_WORLD                Barycenter position along world y axis                     [deg]
#   7 A_WORLD                Profile RMS along major axis (world units)                 [deg]
#   8 B_WORLD                Profile RMS along minor axis (world units)                 [deg]
#   9 THETA_WORLD            Position angle (CCW/world-x)                               [deg]
#  10 FWHM_WORLD             FWHM assuming a gaussian core                              [deg]
#  11 ELONGATION             A_IMAGE/B_IMAGE                                           
#  12 ELLIPTICITY            1 - B_IMAGE/A_IMAGE                                       
         1 -14.0659    171.3509     33.1334   7.8903249822e+01   3.7932584510e+01     1.144433    0.8375882   7.25  0.001245713    1.629    0.386
         2 -14.5426    180.3556     24.9804   7.4882941254e+01   3.6550130182e+01     1.866645     1.254225  -9.87  0.003914973    1.663    0.399
         3 -14.6375    187.9545     11.9273   6.9749616452e+01   3.5946720975e+01     1.870671     1.103014  45.89  0.002663516    1.809    0.447
         4 -12.5459    175.5010    249.3959   1.2437235120e+02   5.3108025382e+00    0.4210626    0.2494713  26.40  0.002957256    1.390    0.280
         5 -12.9609    194.4443    250.0000   1.2135477506e+02   2.7436306178e+00     1.092773    0.1103559  38.09  0.003201955    7.477    0.866
         6 -19.4458     25.5786    136.8565   1.4378380782e+02   4.3911778446e+01     17.66907       3.9291 -78.49   0.05993124    4.705    0.787
         7  -8.6282     96.3039    213.3101   1.3483328721e+02   2.0901400879e+01    0.1005467   0.08392349  10.10 0.0002519182    1.610    0.379
         8 -10.2014    124.6754    209.9476   1.2898596855e+02   1.7478867245e+01    0.1537112     0.132619  49.76 0.0005490768    1.118    0.106
         9 -11.8783    193.3435    195.5177   1.1409534563e+02   8.9517404927e+00    0.8908536     0.491933 -59.94  0.003235336    6.632    0.849
        10 -10.1587    111.4582    197.5189   1.3018046970e+02   2.1361309005e+01    0.2562444   0.09807408  38.14  0.001206212    2.151    0.535
        11  -9.9936    166.8480    190.2002   1.1817483402e+02   1.3903784600e+01    0.3021952    0.2171891  88.87  0.001546073    2.967    0.663
        12 -12.2252     85.9287    186.8815   1.3432912323e+02   2.6792342254e+01    0.4382075    0.2607137 -42.45  0.002395736    2.469    0.595
        13 -11.8583     88.9562    181.2893   1.3306928300e+02   2.7403481089e+01    0.2294657    0.1896609 -44.40  0.001198113    1.549    0.355
        14  -9.3532    127.5260    188.4200   1.2575570449e+02   2.0454866125e+01    0.1242028    0.1014069  44.94 0.0001482682    1.040    0.039
        15  -9.8994     64.0767    180.9303   1.3846860068e+02   3.0706621788e+01    0.1785225    0.1481812  63.68 0.0006610401    1.031    0.030
        16 -12.9656    162.9894    249.2236   1.2643282424e+02   6.9989463054e+00    0.7999738    0.2280359  32.55  0.003446474    3.474    0.712
        17  -9.1003    232.2626    177.6577   1.0442833904e+02   4.9727544619e+00   0.09931517    0.0934441 -32.63 0.0002598427    1.595    0.373
        18 -12.1727     99.9094    162.6662   1.2826391520e+02   2.9353063364e+01    0.5803931    0.3536534 -39.73  0.001728614    2.228    0.551
        19 -14.3129     68.0273    144.1048   1.3353260097e+02   3.7690987228e+01     2.107627     1.305107 -84.56  0.004419098    1.756    0.430
        20 -13.5945     96.2230    170.6027   1.3017224735e+02   2.8375082747e+01     5.034952          nan  38.02   0.01032886   10.691    0.906
        21  -9.8686    193.7136    156.6883   1.0723210452e+02   1.4134964978e+01    0.2347989    0.1725088 -32.62  0.001088586    1.460    0.315
        22 -11.6987    120.4487    237.1281   1.3257409157e+02   1.4187730900e+01    0.2285511    0.1532698  57.85  0.001053867    1.498    0.332
        23 -13.7954     83.9210    166.1195   1.3242787995e+02   3.1000935864e+01    0.7235059    0.5020005  74.08  0.001615347    1.536    0.349
        24 -11.0519    133.8666    145.1044   1.1748667751e+02   2.7073145289e+01    0.7224892    0.1913198 -52.89  0.002147633    5.072    0.803
        25 -11.6858    204.0556    199.9203   1.1290572699e+02   6.7577308807e+00    0.4579474    0.1762235  27.36  0.001914688    3.190    0.686
        26 -10.7962    109.5770    146.2455   1.2344174571e+02   3.1068054907e+01    0.3638249    0.2442195 -45.86  0.001918629    1.672    0.402
        27  -9.5062    111.3164    142.3540   1.2234968240e+02   3.1560109933e+01    0.1952525    0.1696927 -20.46 0.0007066016    1.410    0.291
        28 -12.3759     98.9652    146.1273   1.2602048283e+02   3.2805499662e+01    0.2638738    0.2255211  37.10 0.0004918794    1.173    0.147
        29 -10.9067    230.2528    167.0100   1.0281036646e+02   6.5193450881e+00    0.2654144    0.1317805 -41.80  0.001297114    2.700    0.630
        30 -10.5796    116.5559    133.5023   1.1943128976e+02   3.2447223386e+01    0.2932223    0.2401652 -17.73 0.0007961524    1.549    0.354
        31 -11.2182    105.0854    130.5087   1.2177037590e+02   3.5052988243e+01    0.3219405    0.2936903  48.54  0.001168094    1.053    0.051
        32 -10.5695    158.5274    220.3576   1.2388990011e+02   1.1073699011e+01    0.2237706    0.1153178  54.40  0.001157998    2.520    0.603
        33 -10.6868    169.7845    215.8163   1.2127514703e+02   9.9955249276e+00    0.1885635     0.185527 -82.91 0.0006318677    1.423    0.297
        34 -10.4747    136.0000    129.0154   1.1378975081e+02   2.9744758865e+01    0.3673566   0.08130495 -46.55  0.001035564    4.792    0.791
        35 -10.0999    160.8802    128.5461   1.0802974194e+02   2.4928831566e+01    0.2866029    0.1906185 -57.28  0.001342954    1.959    0.489
        36 -10.4374    120.7861    126.7891   1.1703987958e+02   3.3047786316e+01    0.2287716    0.1543757  -5.21 0.0009431232    2.731    0.634
        37 -10.1976    111.4868    121.8106   1.1839155540e+02   3.5764585359e+01    0.2387425    0.1872909  43.20 0.0003097976    1.229    0.186
        38 -10.1838    117.6650    216.9164   1.3109086930e+02   1.7429315891e+01    0.2019451    0.1302821  32.96  0.001301519    1.370    0.270
        39 -12.1480    183.6386    214.4948   1.1862826692e+02   8.1000932940e+00    0.3308253     0.244396  14.92  0.002303025    1.272    0.214
        40  -9.8706    168.3712    113.3341   1.0290233535e+02   2.6039836247e+01    0.2811795    0.2132265 -82.78   0.00130666    2.070    0.517
        41  -9.6219    205.5855    110.2640   9.4972316892e+01   1.8655989130e+01    0.2541185    0.1530769  30.69 0.0007372449    1.811    0.448
        42 -11.7698    116.2503    246.3631   1.3413688100e+02   1.3518506729e+01    0.2190344    0.1510606  38.40   0.00166469    1.106    0.096
        43 -15.5673      6.8707    223.2226   1.5200993352e+02   2.9073854696e+01     1.027876    0.4830385  89.35   0.00472428    1.988    0.497
