#   1 NUMBER                 Running object number                                     
#   2 MAG_AUTO               Kron-like elliptical aperture magnitude                    [mag]
#   3 X_IMAGE                Object position along x                                    [pixel]
#   4 Y_IMAGE                Object position along y                                    [pixel]
#   5 X_WORLD                Barycenter position along world x axis                     [deg]
#   6 Y_WORLD                Barycenter position along world y axis                     [deg]
#   7 A_WORLD                Profile RMS along major axis (world units)                 [deg]
#   8 B_WORLD                Profile RMS along minor axis (world units)                 [deg]
#   9 THETA_WORLD            Position angle (CCW/world-x)                               [deg]
#  10 FWHM_WORLD             FWHM assuming a gaussian core                              [deg]
#  11 ELONGATION             A_IMAGE/B_IMAGE                                           
#  12 ELLIPTICITY            1 - B_IMAGE/A_IMAGE                                       
         1 -13.7687    226.2900     31.6932   3.5354514131e+01   2.6221127974e+01     1.093975     0.788785  48.29  0.006593239    1.818    0.450
         2 -12.1184    249.7323      8.9153   2.8972196354e+01   2.4166924699e+01    0.5152545    0.2146698 -37.17  0.002677033    2.192    0.544
         3 -11.1205      1.9382     12.6577   9.0526834544e+01   7.2922570740e+01     0.318537    0.1061977 -42.65  0.001618529    2.331    0.571
         4 -10.5536      2.2973      5.2010   8.6828505338e+01   7.4032066604e+01    0.3704395   0.08743591 -47.28   0.00152417    4.108    0.757
         5 -11.7497     15.1248    248.8003   1.2205676796e+02   1.9403200496e+01    0.5647659    0.2803257  82.16 0.0009532613    1.852    0.460
         6 -13.2824     86.1063    233.8981   1.0658427793e+02   1.3844799029e+01     1.831506     1.108532  65.12  0.009472645    1.843    0.457
         7 -13.9334     39.8583    249.2856   1.1743509958e+02   1.6650464267e+01     6.737576     1.164131  29.00   0.01367501   14.898    0.933
         8 -13.4973    113.6793    241.0912   1.0144300413e+02   8.4495512354e+00    0.9280285    0.7621382  28.82  0.004286734    1.163    0.140
         9 -14.3862    108.2511    229.7073   1.0122029014e+02   1.1477847813e+01     5.027314    0.6666067  36.76   0.01354771    5.409    0.815
        10 -13.3585      3.3150    244.5343   1.2400032161e+02   2.1378708987e+01     2.847404    0.6725338 -72.99   0.01267584    3.636    0.725
        11 -15.4456     20.6838    170.5046   1.1547812869e+02   3.6210975181e+01     7.251703     2.806719  84.99   0.02583836    3.659    0.727
        12 -10.6992     17.1311    218.1564   1.1995334375e+02   2.5493024085e+01    0.2083962    0.1482087 -89.31 0.0008806066    1.214    0.176
        13  -9.5694     59.0408    230.4544   1.1208231700e+02   1.8162538235e+01    0.2487702    0.1742728 -77.47  0.001262796    1.443    0.307
        14 -12.5397     60.2626    247.5842   1.1328675084e+02   1.4538469757e+01    0.7556779    0.5616266  61.94  0.003769034    1.137    0.121
        15 -11.6653     48.1373    179.6066   1.0943904887e+02   3.1158755204e+01    0.3845303    0.2909739 -34.89 0.0005978933    1.679    0.405
        16 -11.5629     55.2362    173.4863   1.0683729930e+02   3.1825354017e+01    0.3103341    0.2616087 -42.98 0.0008051934    1.343    0.255
        17  -8.6258    110.5813    167.5069   9.1029860327e+01   2.5044718039e+01    0.1496479    0.1440143  82.19 0.0001161728    1.046    0.044
        18 -12.3866     75.9030    156.9771   9.8675704982e+01   3.3226625970e+01    0.8868486    0.6455039  66.50  0.004313479    1.561    0.359
        19 -10.9325     67.1721    163.5565   1.0219443099e+02   3.2782247423e+01    0.2618879    0.2574997  64.79 0.0003901742    1.097    0.089
        20 -13.1774     52.8581    159.9696   1.0564798852e+02   3.5516215118e+01    0.5381727    0.3322054 -38.17  0.001450301    1.988    0.497
        21 -14.1033     13.0241    206.7300   1.2008609440e+02   2.8395612137e+01     1.160653    0.8283983  34.62  0.006987987    1.519    0.341
        22 -12.8787     68.1018    144.0703   9.8684037557e+01   3.7618680169e+01     1.012607    0.6036131  63.15  0.003713401    2.251    0.556
        23 -10.1369     91.9058    143.4434   9.1515508492e+01   3.4168937854e+01     0.322556    0.2897921  -6.19  0.001036122    1.249    0.199
        24  -9.4954     95.2159    139.8785   8.9804716778e+01   3.4506986234e+01    0.3045336    0.2250881 -24.99  0.001387503    1.656    0.396
        25  -8.3614    143.3064    143.6735   7.7476228344e+01   2.4523794925e+01    0.1573034    0.1259635  87.28 0.0007036165    1.651    0.394
        26 -11.7892     79.2841    141.5902   9.4874941704e+01   3.6634783219e+01    0.3190939    0.2682138 -50.86 0.0003389669    1.148    0.129
        27 -10.3808    105.9033    131.2146   8.4753757375e+01   3.4756006373e+01    0.3735276     0.322306 -20.63  0.001113587    1.271    0.213
        28  -9.9557     92.4866    127.6718   8.7933011044e+01   3.8001827336e+01    0.3152892    0.2500023  -9.12  0.001019356    1.548    0.354
        29 -12.5653     53.9437    119.8087   9.8534713344e+01   4.5620045836e+01     2.053585    0.6507742 -70.95  0.001348575    7.770    0.871
        30  -9.5226    113.4750    125.3577   8.1171267000e+01   3.4738925732e+01    0.3037658    0.1994699   5.87  0.001136593    2.527    0.604
        31 -14.1093     24.2400    199.3240   1.1709962449e+02   2.9009806106e+01     2.358303    0.7459046  49.59  0.009047417    2.933    0.659
        32 -11.3619     22.7127    120.5606   1.0895346328e+02   4.8530028954e+01    0.3965828    0.1761781  50.56  0.001628682    2.975    0.664
        33  -9.4273    103.9357    119.9327   8.2632007669e+01   3.7839699760e+01    0.2210761    0.2176424 -45.88 0.0003059471    1.024    0.023
        34  -9.3079    204.6459    110.6982   5.6361394260e+01   1.8488034151e+01     0.306963    0.1706733  38.09  0.001299692    2.253    0.556
        35 -12.4554     86.6806    223.4638   1.0529408871e+02   1.5931524701e+01     1.123102    0.4360454  47.98  0.003622174    2.465    0.594
        36 -10.7156      1.6068     87.0787   1.1108032167e+02   5.7943231285e+01    0.4324628    0.1005293 -69.53  0.001525015    3.564    0.719
        37  -9.4326    163.7102     83.6335   5.7350716263e+01   3.2605314870e+01    0.1510065    0.1192631   6.81 0.0007024897    1.707    0.414
        38  -9.0917     24.9108     82.6886   1.0116137536e+02   5.7514911477e+01    0.1720683    0.1536103 -24.08 0.0004011859    1.121    0.108
        39  -8.8515     75.5352     81.9927   8.1557986038e+01   5.1490686778e+01    0.1925057    0.1304696 -74.15 0.0006213091    2.425    0.588
        40 -11.3445      2.4447     78.6628   1.0930480491e+02   5.9844813857e+01    0.4680646    0.1143722 -62.94  0.001852514    2.805    0.644
        41 -10.4222     13.2716     60.2360   1.0065063416e+02   6.3316230975e+01    0.2563646    0.1626685 -50.01  0.000935752    1.283    0.221
        42 -11.8375    205.6213     49.1599   4.1551385248e+01   2.8406180361e+01    0.5163131    0.3361804 -73.36  0.002687323    1.647    0.393
        43  -9.5428      2.3058     51.3434   1.0344640374e+02   6.5793934313e+01    0.1328897    0.0642839 -37.01 0.0007042065    1.689    0.408
        44 -12.4605    211.5948     44.1798   3.9664741097e+01   2.7764446179e+01    0.5899894    0.3722311 -43.91  0.003232582    1.468    0.319
        45 -12.9768     84.0604    247.4056   1.0840302710e+02   1.1459161151e+01     1.599955    0.4148148  43.09  0.003127075    3.001    0.667
        46 -11.4685     12.1654     43.5667   9.6384364704e+01   6.6769832336e+01    0.4314425    0.2289165  40.79  0.001965294    2.783    0.641
        47  -8.5683     94.5505     46.4858   6.3187447928e+01   5.4495398135e+01     0.138512    0.1266506  21.57 9.153902e-05    1.016    0.016
        48  -9.7445    123.6458     31.3501   5.0191519070e+01   5.0094239106e+01    0.2458116    0.2098789 -52.48 0.0005715874    1.325    0.245
        49 -10.8116    120.0419     28.0943   4.9891217065e+01   5.1316469029e+01    0.4395241    0.2854841 -70.27  0.001477737    2.352    0.575
        50 -10.1850    189.3247     15.0607   3.5263113929e+01   3.6331664053e+01    0.1757069    0.1484988 -68.18 0.0006137749    1.105    0.095
        51  -9.4097     28.2779    244.5468   1.1936194048e+02   1.8867355027e+01    0.1941468     0.135983 -89.03 0.0008040341    1.319    0.242
        52 -10.3050     43.2308    217.9361   1.1440410189e+02   2.2767344841e+01     0.294261    0.1797105  78.46 0.0007935833    1.611    0.379
