#   1 NUMBER                 Running object number                                     
#   2 MAG_AUTO               Kron-like elliptical aperture magnitude                    [mag]
#   3 X_IMAGE                Object position along x                                    [pixel]
#   4 Y_IMAGE                Object position along y                                    [pixel]
#   5 X_WORLD                Barycenter position along world x axis                     [deg]
#   6 Y_WORLD                Barycenter position along world y axis                     [deg]
#   7 A_WORLD                Profile RMS along major axis (world units)                 [deg]
#   8 B_WORLD                Profile RMS along minor axis (world units)                 [deg]
#   9 THETA_WORLD            Position angle (CCW/world-x)                               [deg]
#  10 FWHM_WORLD             FWHM assuming a gaussian core                              [deg]
#  11 ELONGATION             A_IMAGE/B_IMAGE                                           
#  12 ELLIPTICITY            1 - B_IMAGE/A_IMAGE                                       
         1 -19.5603    194.7380    127.5862   5.3227213594e+01   1.7490202585e+01     7.438695     6.034513  45.83   0.03272765    1.339    0.253
         2 -16.2749    223.4244     11.3598   2.2559351923e+01   2.9182548267e+01     4.002516     1.593015  77.81   0.01949044    2.469    0.595
         3 -10.8513    119.7475      9.5386   3.3479845065e+01   5.3652107033e+01    0.4653435     0.322029  35.44  0.002506657    1.631    0.387
         4 -11.6669    233.4665    163.9307   5.4149953402e+01   4.5686811322e+00    0.2058068    0.1569735  11.01 0.0004207233    1.411    0.291
         5 -15.8909    226.0189    243.3229   6.8932422018e+01  -5.8575263726e+00     3.706898     1.046755  31.65    0.0167714    3.254    0.693
         6 -10.1584    125.0527    231.1739   8.6700335768e+01   9.4395548169e+00    0.1845725    0.1840434 -30.66 0.0004139729    1.172    0.147
         7 -10.7291      8.9918    204.0145   1.1028716670e+02   2.9536192513e+01    0.1685395    0.1346614 -52.16 0.0004058366    1.613    0.380
         8 -11.3097    114.9833    193.6619   8.3825911064e+01   1.8381742601e+01     0.240675    0.2066995 -65.06 0.0003395994    1.258    0.205
         9 -12.6362     67.8759    144.5710   8.8626483284e+01   3.7384677412e+01    0.7496142    0.4505912  65.79  0.002601912    2.071    0.517
        10 -12.0012    101.0326    140.8833   7.8214786076e+01   3.2991874213e+01    0.5359794    0.2201343 -56.81  0.001906237    2.469    0.595
        11 -11.4635    250.6615    139.0408   4.6773250276e+01   5.8840189536e+00    0.1782964   0.09591781 -32.77 0.0005968182    1.579    0.367
        12 -11.0739     94.9079    130.1685   7.7744782047e+01   3.6702273966e+01    0.3332972    0.2083091 -51.21 0.0008283436    1.573    0.364
        13 -14.5421     60.9571     99.8293   8.1967667342e+01   4.9737048272e+01     1.568834     1.335421  49.32   0.00751597    1.247    0.198
        14 -12.1464     73.3460    106.8944   7.9308778388e+01   4.6106193186e+01    0.4220191    0.3742185 -69.93 0.0006950878    1.117    0.105
        15 -14.2421     85.6491    106.1289   7.5031031147e+01   4.4218407033e+01     1.378868     1.158298 -78.33  0.004097418    1.291    0.226
        16 -12.4026     76.0500    102.2498   7.7253124811e+01   4.6801503507e+01    0.5562894    0.4753038  54.82 0.0006224087    1.237    0.192
        17 -12.0806     97.2791    104.2094   7.0849589535e+01   4.2532948411e+01    0.8741664    0.2442628 -48.80  0.002579093    3.458    0.711
        18 -10.5160    248.7024    105.5778   4.0323308191e+01   1.1368210113e+01    0.1248227   0.09412553 -39.61 8.851691e-05    1.081    0.075
        19 -11.0837    250.2901    101.6222   3.9322806982e+01   1.1705788104e+01    0.1425618    0.1226497 -49.09 0.0003168299    1.089    0.082
        20 -13.9461     13.1836     88.2858   9.8150297428e+01   5.7685436921e+01     1.297743      1.09839   6.02  0.005780025    1.350    0.259
        21 -13.4184     39.0696     93.9812   8.8879154136e+01   5.3976100822e+01    0.6157628    0.3127797  36.36  0.001108239    2.075    0.518
        22 -10.7754    216.9064     69.9675   3.6497034153e+01   2.2846650244e+01    0.1879344    0.1700002 -77.75  0.000318838    1.113    0.101
        23 -11.4782    164.8617    188.3737   7.1600987190e+01   1.1263674005e+01     0.290155    0.2390319  54.29 0.0008236661    1.413    0.292
        24 -13.2468    133.0518    194.7189   7.9746506541e+01   1.5249068111e+01    0.5486242    0.3915064  47.22   0.00106958    1.388    0.280
        25 -10.4552    114.0484     60.0799   5.2637762064e+01   4.8152117642e+01    0.4369158    0.1972755 -37.06  0.001443145    2.314    0.568
        26  -9.6666    217.9815     57.0544   3.3382492660e+01   2.4534258206e+01    0.1459936    0.1230418 -89.80 0.0003431538    1.193    0.162
        27  -9.5096     68.5635    193.7335   9.5235673454e+01   2.5237757011e+01    0.1748993    0.1233326  89.55 0.0004681465    1.487    0.328
        28 -11.1511    225.2092    172.2235   5.7073482395e+01   4.4785104253e+00    0.2600315    0.1956034 -26.90  0.001208743    1.155    0.134
        29 -10.8613    176.4128     47.8971   3.6396705174e+01   3.5168249887e+01    0.2441955    0.2097185  73.37 0.0001746362    1.152    0.132
        30 -11.0060    182.5144     46.4750   3.5154888527e+01   3.3934354891e+01    0.2367515    0.2139979 -77.19 0.0005530659    1.036    0.035
        31 -10.0895    195.7733     38.3460   3.1394207311e+01   3.1982009612e+01    0.4736976    0.1786241  54.04  0.001567618    2.932    0.659
        32 -10.5342    189.6885     45.0713   3.3841455396e+01   3.2464830527e+01     0.291907    0.2334269 -64.50 0.0004547283    1.130    0.115
        33 -10.7906    188.9960     42.0000   3.3135612238e+01   3.3046441723e+01     0.458271    0.1361266  55.80  0.001656793    3.370    0.703
        34 -10.1516    230.2420    166.6392   5.5184847972e+01   4.6194389375e+00    0.1887912    0.1357452 -43.14 0.0005132454    1.390    0.281
        35 -10.5863    161.8081     42.9253   3.7218082178e+01   3.9374346578e+01    0.3039108    0.1719667  49.04 0.0009767781    1.925    0.480
        36 -10.3757    179.1806     36.0186   3.2800096681e+01   3.6140319229e+01    0.2987602    0.1629361  57.30 0.0008480074    1.860    0.462
        37 -11.1154    168.9341     34.9931   3.3889021465e+01   3.8721259032e+01    0.3384217    0.2186392  83.62 0.0006723251    1.576    0.366
        38 -11.1347    171.4353    229.5062   7.6887194323e+01   3.0787650660e+00    0.3467941    0.1711822  45.60  0.001670218    2.321    0.569
        39 -10.4846    204.2320    224.5614   6.9886457129e+01  -6.4607601490e-01    0.2166208    0.1024272  36.97  0.001120927    2.054    0.513
