#   1 NUMBER                 Running object number                                     
#   2 MAG_AUTO               Kron-like elliptical aperture magnitude                    [mag]
#   3 X_IMAGE                Object position along x                                    [pixel]
#   4 Y_IMAGE                Object position along y                                    [pixel]
#   5 X_WORLD                Barycenter position along world x axis                     [deg]
#   6 Y_WORLD                Barycenter position along world y axis                     [deg]
#   7 A_WORLD                Profile RMS along major axis (world units)                 [deg]
#   8 B_WORLD                Profile RMS along minor axis (world units)                 [deg]
#   9 THETA_WORLD            Position angle (CCW/world-x)                               [deg]
#  10 FWHM_WORLD             FWHM assuming a gaussian core                              [deg]
#  11 ELONGATION             A_IMAGE/B_IMAGE                                           
#  12 ELLIPTICITY            1 - B_IMAGE/A_IMAGE                                       
         1 -14.0942     68.5448    144.3315   1.0000851835e+02   3.7311067293e+01     4.774303     2.035495  60.43   0.01228498    6.033    0.834
         2 -12.7786     54.7569    147.0614   1.0451169081e+02   3.8418180134e+01     5.792924    0.9786325 -61.82   0.01581103    4.554    0.780
         3 -13.4848    201.2412     41.5981   4.1322231878e+01   3.0062959209e+01     1.174612     1.145354  15.66  0.004921929    1.290    0.225
         4 -13.5472    211.9583     31.2165   3.7630680950e+01   2.8970620773e+01    0.9738265    0.8735825  -5.34  0.002050037    1.517    0.341
         5 -10.6283    217.1960     12.1555   3.2856251974e+01   3.0037633090e+01    0.2196008    0.1840075 -78.54  0.001499455    1.057    0.054
         6 -12.7519    237.5536      5.6781   2.9989412896e+01   2.6442299527e+01    0.7942442    0.5644522 -88.82  0.005085487    1.222    0.181
         7 -10.9384      8.4231      8.7841   8.5343351981e+01   7.3000418546e+01    0.1921834    0.1476948 -20.48   0.00140944    1.157    0.136
         8 -10.7117    111.3805    204.0239   9.8545341127e+01   1.6183649263e+01    0.3631636    0.2607256  73.89  0.001080197    1.718    0.418
         9 -10.8120    139.7701    249.7670   9.8673675189e+01   2.8006950129e+00    0.5099801    0.2169446  32.20   0.00231761    2.113    0.527
        10 -12.9452     53.0877    187.0338   1.1040608473e+02   2.8613024865e+01    0.9454901    0.8523085 -68.86  0.003759204    1.169    0.145
        11 -13.9301     40.6823    196.1551   1.1432732880e+02   2.7908816271e+01      3.53026     1.320224  62.69  0.009206712    3.858    0.741
        12 -15.4675      6.7477    164.6260   1.1960800771e+02   3.8691984803e+01     11.46477     1.365816 -75.05   0.02941088    6.754    0.852
        13  -9.9567    107.3240    203.3118   9.9400577736e+01   1.6995440848e+01    0.2718601    0.1808831  82.47  0.001242135    2.080    0.519
        14 -10.5290    202.7802    199.6501   7.7429146382e+01   1.5804773890e+00     0.240345    0.1759981  39.08  0.001315272    1.451    0.311
        15 -10.9939    193.5363    195.8001   7.8575182964e+01   3.7958464645e+00      0.85555    0.4445835 -61.48  0.002754376    4.884    0.795
        16 -10.5443    121.3844    197.2180   9.5096634128e+01   1.6025850162e+01    0.4386713    0.2534204 -69.02  0.001347126    2.277    0.561
        17  -9.7074     59.2547    196.9949   1.1005370156e+02   2.5465306305e+01    0.2699924    0.1857956  34.27   0.00112689    1.504    0.335
        18 -14.4321      9.5532    207.0608   1.2200653676e+02   2.8591704633e+01     1.115662    0.8188683  13.55  0.006445143    1.965    0.491
        19  -9.2617    147.6265    186.5066   8.6956893025e+01   1.3755585553e+01     0.289072    0.1836101 -44.50  0.001326878    1.620    0.383
        20 -10.5684    183.9471    213.2926   8.3787636135e+01   2.2268100803e+00    0.2845978    0.2063615 -59.56  0.001481591    1.943    0.485
        21  -8.9739     79.8587    182.6095   1.0311722246e+02   2.6070228175e+01    0.3053907    0.1832705 -85.88  0.001324284    2.089    0.521
        22  -9.7335     99.3381    180.6968   9.7841002726e+01   2.3511911214e+01    0.2551942    0.2484928   3.66 0.0006349005    1.132    0.116
        23  -9.6692     65.2820    179.1722   1.0636272837e+02   2.8960680744e+01    0.2689303    0.1527463  59.07 0.0009703775    1.955    0.488
        24  -9.1863     89.2761    211.3705   1.0473928844e+02   1.8002060018e+01    0.2200569    0.1790739 -71.74 0.0004303418    1.272    0.214
        25 -10.9339     41.0481    177.0538   1.1226291335e+02   3.2453568747e+01    0.4531966    0.3145822 -20.48   0.00175043    2.245    0.555
        26  -9.7218    187.3096    175.5981   7.5864187169e+01   8.7291457300e+00    0.3616164    0.2690494 -50.26  0.001186893    1.469    0.319
        27 -10.7347    124.9131    246.2062   1.0129916199e+02   5.6522688366e+00    0.4562238    0.1572996 -53.09  0.001909798    3.327    0.699
        28  -8.9928     34.8229    171.7860   1.1325508974e+02   3.4419933998e+01    0.1890998    0.1626836 -68.34 0.0004064069    1.154    0.134
        29  -8.3421    193.6592    170.6985   7.3513815513e+01   8.5277247600e+00    0.1509017    0.1087717  -1.51   0.00070377    1.672    0.402
        30  -9.6987    240.4946    169.4800   6.4444721423e+01   7.4749657838e-01    0.1332616    0.1123217 -23.60 -2.592991e-05    1.046    0.044
        31 -10.6325    119.9401    244.8182   1.0216690283e+02   6.6483108034e+00    0.2774713    0.1850121 -51.42  0.000887725    1.753    0.430
        32  -8.7511    110.7014    167.9332   9.2644287250e+01   2.4666162901e+01    0.2160469    0.1932773 -65.42 0.0005684266    1.125    0.111
        33  -8.0792    120.5298    165.5131   8.9612198190e+01   2.3488982404e+01    0.1525614     0.146414  75.09 7.989137e-05    1.063    0.059
        34 -12.4707     80.4507    159.3626   9.9266487510e+01   3.1752030928e+01     1.462895    0.7120205  58.77 0.0002566086    3.039    0.671
        35  -9.6838     33.7050    156.3117   1.1175695008e+02   3.8398064474e+01    0.2997868    0.2213617 -71.71  0.001268063    1.175    0.149
        36 -11.5558     88.0065    152.7013   9.5945858080e+01   3.2259667997e+01    0.6728129    0.4892499 -17.63  0.003045745    1.911    0.477
        37 -10.5383    133.9787    145.9574   8.1959624664e+01   2.5561217748e+01    0.7755443    0.2517291 -54.70  0.002152448    3.849    0.740
        38  -8.6041    111.1538    149.7265   8.8892738977e+01   2.9026037812e+01    0.2725777    0.1696673  74.45 0.0009294911    2.849    0.649
        39  -9.1768    174.7224    148.7732   7.2781779889e+01   1.6651086409e+01    0.3081979    0.1814344 -62.05 0.0009816196    2.488    0.598
        40 -10.4671     28.7122    143.6235   1.1154808139e+02   4.2084119605e+01    0.3228339    0.2921589  55.88  0.002035091    1.207    0.171
        41  -9.6169    111.2712    129.5174   8.4311860546e+01   3.3940324606e+01    0.3314067    0.2675244  -4.55 0.0008423891    1.530    0.346
        42 -10.2977    101.7140    138.5937   8.9141966541e+01   3.3479402268e+01    0.6227884    0.3920966 -17.83  0.002290695    2.729    0.634
        43  -9.9597    105.9371    131.0813   8.6215956578e+01   3.4563353236e+01    0.4537417    0.3091056 -55.72  0.001749778    1.460    0.315
        44 -11.5506     89.2286    138.2242   9.2699696759e+01   3.5715857410e+01    0.3133672    0.2713646 -39.36 0.0005032609    1.177    0.150
        45 -10.6722     25.8913    137.5424   1.1156587913e+02   4.3875247880e+01     0.375476    0.2130224  38.50  0.001898697    1.922    0.480
        46  -9.9951    135.7250    128.1600   7.7276693093e+01   2.9347017589e+01    0.4990702    0.2098138 -50.09  0.001691501    2.434    0.589
        47 -11.4447     67.7382    172.4459   1.0478418748e+02   3.0292782969e+01    0.4658948    0.3060249 -34.73  0.002167236    2.025    0.506
        48  -9.0855    160.5938    127.7714   7.1014849359e+01   2.4119847207e+01    0.2327384    0.1453538 -53.45 0.0009550827    1.718    0.418
        49 -10.3097     28.4989    128.2253   1.0946341558e+02   4.6004538539e+01    0.2230884    0.1966098  24.71 0.0008423877    1.329    0.248
        50 -10.1679     98.3640    125.4184   8.7106691635e+01   3.7331297723e+01    0.3145468    0.2569706 -10.03 0.0009049735    1.465    0.317
        51  -9.8035    116.9291    124.0427   8.1365480592e+01   3.4149919238e+01    0.2539983    0.1944517 -11.85 0.0007605841    1.679    0.405
        52 -11.4231     71.9987    167.9958   1.0298586247e+02   3.0812742950e+01    0.4727598    0.2895572 -58.03 0.0007359667    1.552    0.356
        53  -9.1067     86.5429    120.2010   8.9477086672e+01   4.0661477550e+01    0.3111709    0.2235505  72.75 0.0009818064    1.942    0.485
        54  -8.7205    135.0000    119.9286   7.5383829828e+01   3.1377539377e+01    0.2642975   0.08929422 -45.80 0.0006625423    2.902    0.655
        55  -9.1350    107.6601    118.6018   8.2668745633e+01   3.7252580670e+01    0.2481426    0.2188713 -18.66 0.0004336091    1.213    0.176
        56  -8.6574    147.9587    174.0558   8.4460083163e+01   1.6411472224e+01    0.1764829    0.1719852  -3.69 0.0003767363    1.016    0.016
        57  -9.9990    231.2820    113.7162   5.4056763257e+01   1.2083969911e+01    0.2601609    0.2475977 -56.90 0.0007804129    1.113    0.101
        58  -9.3566    205.2596    110.1855   5.7519093470e+01   1.7982511282e+01    0.2891872    0.2196356  50.36 0.0009787254    1.432    0.302
        59 -10.7700     34.2390    108.9439   1.0433113347e+02   5.0322824259e+01    0.3217437    0.2658627 -88.39  0.001410126    1.310    0.237
        60 -11.0065    245.5262    107.8621   5.0708203315e+01   1.0411219263e+01    0.3551276    0.2071649  54.58  0.001818472    2.030    0.507
        61  -8.5072    137.5121    104.4869   7.0610460320e+01   3.4233386593e+01    0.1561801    0.1535062 -57.03 6.046817e-06    1.031    0.031
        62 -10.1624     39.5050    102.9447   1.0129117633e+02   5.1285741886e+01    0.4260817    0.2062681  42.80  0.001837512    2.497    0.600
        63  -9.9926    115.7602    107.5908   7.7406784069e+01   3.8204582702e+01    0.2269259    0.1488544  52.22 0.0009579409    1.686    0.407
        64  -9.3279     32.9882    100.0570   1.0301236140e+02   5.2620570978e+01    0.2129105    0.1818345 -53.07 0.0006149432    1.010    0.010
        65  -8.3434    125.2704     92.6429   7.0505933909e+01   3.9434064286e+01    0.1562097    0.1233905 -75.94 0.0002556666    1.642    0.391
        66 -12.9051     68.7950    154.5022   1.0170448535e+02   3.4676460236e+01    0.6479111    0.4498722 -52.80  0.001094318    1.391    0.281
        67 -13.1536     20.5102    220.8746   1.2064593333e+02   2.4529466691e+01    0.7509336    0.4883979  60.92  0.002008408    1.274    0.215
        68  -8.5266    233.6951     86.3310   4.7595538720e+01   1.6252428189e+01       0.1414   0.09244838 -63.47 0.0003147308    1.657    0.397
        69  -8.8526     74.9409     85.1189   8.4009145915e+01   5.0806989313e+01     0.213408    0.1979419  76.80 0.0007119032    1.324    0.245
        70  -8.8900    159.2577     82.9614   5.9414338594e+01   3.3506368735e+01    0.2135188    0.2006277 -41.42 0.0005288498    1.065    0.061
        71  -8.6316    150.9677     82.7245   6.1181031263e+01   3.5508546434e+01    0.2107353    0.1910249  60.65 0.0003922317    1.110    0.099
        72  -8.8417    111.0951     81.0692   7.1036466536e+01   4.4846733042e+01    0.2315167    0.1889476  85.52 0.0008249397    1.653    0.395
        73  -8.7930     69.3262     81.4352   8.4916085643e+01   5.2500828151e+01    0.1774409     0.137044  42.49 0.0004758998    1.447    0.309
        74  -8.5260     54.1358     65.2040   8.5611936807e+01   5.8120295430e+01    0.1701089    0.1641963  65.16 0.0004556534    1.350    0.259
        75 -10.5814     13.4322     59.8490   1.0145643278e+02   6.3346165564e+01    0.2520512    0.1957745 -53.84 0.0004360746    1.187    0.157
        76 -11.1539     95.1413    241.5130   1.0698415874e+02   1.0919169889e+01    0.4162209    0.2290208 -64.12  0.002115965    2.064    0.515
        77 -12.9370    191.3195     48.8017   4.4440324868e+01   3.1384388362e+01    0.9720556    0.7468303  40.20  0.001460508    1.586    0.369
        78  -9.5080     70.6806    247.9401   1.1262794633e+02   1.3058798643e+01    0.2227169    0.1985442  85.91  0.001434433    1.196    0.164
        79 -16.8503     16.2828    243.2192   1.2275663830e+02   2.0380084799e+01      6.53343     2.215444  25.61   0.02695541    4.513    0.778
        80  -9.0671    198.0667     23.4772   3.7280212636e+01   3.3061836314e+01    0.1921794    0.1582871 -48.51 0.0005724737    1.218    0.179
        81  -8.6342    189.4971     15.0083   3.6129800422e+01   3.5993926436e+01    0.1742995     0.123104 -34.24 0.0005766249    1.533    0.348
        82  -8.2871    224.2434    206.3940   7.4544611651e+01  -2.8692178481e+00    0.1354397   0.08556376 -12.09 0.0006933544    1.669    0.401
        83 -10.8481    114.8765    247.8557   1.0358529979e+02   6.8519944776e+00    0.2908104    0.2219162  63.42  0.001783882    1.392    0.282
