#   1 NUMBER                 Running object number                                     
#   2 MAG_AUTO               Kron-like elliptical aperture magnitude                    [mag]
#   3 X_IMAGE                Object position along x                                    [pixel]
#   4 Y_IMAGE                Object position along y                                    [pixel]
#   5 X_WORLD                Barycenter position along world x axis                     [deg]
#   6 Y_WORLD                Barycenter position along world y axis                     [deg]
#   7 A_WORLD                Profile RMS along major axis (world units)                 [deg]
#   8 B_WORLD                Profile RMS along minor axis (world units)                 [deg]
#   9 THETA_WORLD            Position angle (CCW/world-x)                               [deg]
#  10 FWHM_WORLD             FWHM assuming a gaussian core                              [deg]
#  11 ELONGATION             A_IMAGE/B_IMAGE                                           
#  12 ELLIPTICITY            1 - B_IMAGE/A_IMAGE                                       
         1 -13.1335    194.9685     30.5268   6.7796708752e+01   3.2993169406e+01     1.160776     1.004237  61.64  0.006608739    1.181    0.153
         2 -13.7615    209.9755     12.0538   6.1571391959e+01   3.1547519733e+01     1.369744    0.9752435  42.82  0.007820096    1.809    0.447
         3 -11.0444      2.2357      3.9682   1.1210342674e+02   7.1997328106e+01    0.4412788    0.1734505 -32.77  0.002643812    2.000    0.500
         4 -12.1752      2.3027     12.2533   1.1554263671e+02   7.0864115800e+01     1.081982    0.2229112 -35.67  0.004362201    4.304    0.768
         5 -11.6224    244.6271    246.1449   1.0708318459e+02  -1.3211966809e+01    0.3153556    0.1788962 -11.44  0.001713613    2.089    0.521
         6 -11.9947    140.4342    249.8811   1.2711806468e+02   3.2463453531e+00    0.7593091    0.1692124  42.07  0.002569117    3.723    0.731
         7 -11.1203    139.4598    245.5263   1.2673435628e+02   4.1584117269e+00    0.2625467    0.1884437 -51.72  0.001557416    1.657    0.396
         8 -11.3862    125.0282    250.2220   1.3008000072e+02   5.7738888970e+00    0.4924924    0.1327512  42.86  0.001862398    3.042    0.671
         9 -10.8834     66.3125    249.6425   1.4075576062e+02   1.4944243058e+01    0.2480204    0.1698864  69.97 0.0008666586    1.161    0.139
        10 -12.0935     47.9755    248.0395   1.4379238030e+02   1.7712220710e+01    0.4938459    0.3853363  56.51  0.002240663    1.284    0.221
        11 -12.4079     35.6274    243.9319   1.4557799916e+02   2.0040164666e+01    0.7231187    0.3096828  58.13  0.004029154    1.922    0.480
        12 -10.8825     29.1169    249.1038   1.4700074731e+02   1.9837318964e+01    0.3640571    0.2146425 -68.28  0.001696081    1.780    0.438
        13 -11.4984     33.7149    248.8895   1.4623611762e+02   1.9330274010e+01    0.4607596    0.2600282  47.51  0.003001125    1.598    0.374
        14 -13.8619      7.8793    245.5486   1.5016897711e+02   2.2862853655e+01     1.499071     1.190198 -87.45   0.01220546    1.364    0.267
        15 -15.5959     22.8251    170.5939   1.4176597658e+02   3.7033981565e+01     10.63221      4.61663  74.47   0.04460075    3.194    0.687
        16 -13.9369     41.4452    221.7923   1.4284096620e+02   2.3743077608e+01    0.8075544    0.6348533  82.92  0.002450426    1.077    0.071
        17 -11.7420     50.8023    235.2253   1.4227591307e+02   1.9830003511e+01    0.3590783    0.2834978 -52.20  0.001707752    1.842    0.457
        18 -10.8640     55.0144    229.7917   1.4103927124e+02   2.0364533307e+01    0.3203087    0.1794043  67.33  0.001506537    1.599    0.375
        19  -9.0160    152.6973    212.9783   1.1924881623e+02   7.7832161511e+00    0.1791129    0.1717917  76.67 0.0003085581    1.089    0.081
        20 -11.5594     61.9701    196.5000   1.3623902379e+02   2.6547768672e+01    0.3397653    0.2453904 -51.19   0.00138098    1.668    0.400
        21  -9.9153    192.5677    194.0129   1.0751455930e+02   3.7622749505e+00    0.7198451    0.3614083 -66.84  0.001364284   12.960    0.923
        22 -11.7812     67.8643    188.6641   1.3400292808e+02   2.7505745905e+01    0.2980316    0.2307933 -62.10 0.0005942214    1.318    0.241
        23 -10.9350     77.7945    176.2972   1.3003647104e+02   2.8929370943e+01    0.2532128    0.2096876 -76.45 0.0003242815    1.093    0.085
        24 -13.1995     64.6704    174.1463   1.3277180763e+02   3.1321949078e+01    0.5079085    0.2879802 -46.12  0.001591113    2.143    0.533
        25 -11.8478     85.3220    167.0096   1.2678706387e+02   2.9966565839e+01     0.631325    0.5512971 -76.82  0.003650285    1.050    0.048
        26 -10.0007     98.2010    151.4243   1.2077667066e+02   3.1566296963e+01    0.2810444    0.2510119 -67.79 0.0007582863    1.054    0.051
        27 -12.1296     86.6650    150.5185   1.2354857623e+02   3.3699408598e+01    0.3062969    0.2532498 -50.37 0.0005727342    1.231    0.188
        28 -12.4758     67.5349    143.8614   1.2728549035e+02   3.8148394692e+01    0.7185954    0.4945712  69.94  0.002858045    1.702    0.413
        29 -11.9870     57.6629    131.8828   1.2775847365e+02   4.2304871377e+01    0.8343273    0.3741177 -75.45  0.003021335    3.234    0.691
        30  -8.5903    192.2222    144.0456   9.6919448859e+01   1.3757739083e+01    0.1956802    0.1243265 -41.32 0.0003980359    1.551    0.355
        31  -9.7581    109.5960    136.9025   1.1480344137e+02   3.2976151598e+01    0.3802542    0.2544512 -26.42   0.00159874    2.142    0.533
        32 -11.5827    147.3451    229.9206   1.2299608101e+02   5.5626790320e+00    0.4696484    0.1833157  37.02  0.001846308    2.596    0.615
        33 -10.5721     96.9339    133.8179   1.1747905048e+02   3.5983749513e+01    0.2642637    0.2306161 -25.78 0.0004108849    1.326    0.246
        34 -10.5911     50.3383    129.8172   1.2938463152e+02   4.3676130466e+01    0.2503996    0.2116795  77.97 0.0005564124    1.258    0.205
        35  -9.2537    101.1164    147.1697   1.1918484609e+02   3.2075390286e+01    0.2223059     0.196129 -33.60 0.0006707061    1.296    0.228
        36 -14.1709      8.5857    209.7085   1.4787981682e+02   2.9875310506e+01     2.457486    0.7821752 -77.24   0.00809374    2.574    0.612
        37  -9.1099    106.8974    123.4993   1.1243732739e+02   3.6611810998e+01    0.2035126    0.1501339  41.21 0.0003612249    1.423    0.297
        38 -10.5276    168.0576    113.0624   9.4538124468e+01   2.5740557243e+01    0.3848076    0.2950964 -82.21  0.001104666    1.641    0.391
        39  -9.2831    203.5048    111.5470   8.6899086399e+01   1.7692938695e+01    0.1507503    0.1462507 -55.55 0.0002171208    1.040    0.038
        40 -12.6908     35.1880    230.0572   1.4463610441e+02   2.2816308311e+01    0.2850243    0.2426371 -83.35 0.0007666742    1.348    0.258
        41 -10.5800    239.8058     95.4016   7.7020659068e+01   1.2445444461e+01     0.194232    0.1311056  47.63 0.0009568245    1.701    0.412
        42 -11.2024      2.0000     60.0046   1.3045095991e+02   6.2803809007e+01     0.560908    0.0498904 -61.03  0.001416677    8.825    0.887
        43 -10.9850      2.6789     37.6356   1.2422993766e+02   6.6847887699e+01    0.2469803    0.1445718 -63.60  0.001519784    2.076    0.518
        44 -10.2053    224.9952    250.0000   1.1123227217e+02  -1.0789059608e+01    0.1998472   0.05866644  39.70 0.0008033722    2.949    0.661
        45 -12.1987     99.9364    245.2830   1.3422789278e+02   1.0743336910e+01    0.4735266    0.2684498  55.10  0.002602934    1.493    0.330
        46 -10.9739     81.6975    249.0003   1.3796149978e+02   1.2846967175e+01     0.213666    0.1777169  83.12  0.001251591    1.163    0.140
