#   1 NUMBER                 Running object number                                     
#   2 MAG_AUTO               Kron-like elliptical aperture magnitude                    [mag]
#   3 X_IMAGE                Object position along x                                    [pixel]
#   4 Y_IMAGE                Object position along y                                    [pixel]
#   5 X_WORLD                Barycenter position along world x axis                     [deg]
#   6 Y_WORLD                Barycenter position along world y axis                     [deg]
#   7 A_WORLD                Profile RMS along major axis (world units)                 [deg]
#   8 B_WORLD                Profile RMS along minor axis (world units)                 [deg]
#   9 THETA_WORLD            Position angle (CCW/world-x)                               [deg]
#  10 FWHM_WORLD             FWHM assuming a gaussian core                              [deg]
#  11 ELONGATION             A_IMAGE/B_IMAGE                                           
#  12 ELLIPTICITY            1 - B_IMAGE/A_IMAGE                                       
         1 -12.0581    104.4602     13.6632   1.6282425348e+01   5.6921290439e+01    0.5270295    0.3730095 -10.16  0.002758979    1.633    0.388
         2 -12.7096    105.7291     20.4220   1.8799980824e+01   5.5869012102e+01     0.415787    0.3331288 -72.14 0.0007493515    1.484    0.326
         3 -12.0003    163.2740     27.9116   1.0914158082e+01   4.0363516524e+01    0.5305657    0.3567322  53.07 0.0007270805    1.516    0.340
         4 -11.5418      6.6737     11.0787   5.9829653353e+01   7.5182862944e+01    0.5399698    0.4381386  18.22  0.003737196    1.352    0.260
         5 -11.5609     20.2878     22.0164   5.5685374671e+01   7.1901658280e+01     0.626206    0.3580118 -35.37  0.002778486    1.575    0.365
         6 -10.7046     12.8317      8.1936   5.3601269541e+01   7.5123872459e+01    0.2946798    0.2198831 -58.03  0.001297129    1.811    0.448
         7 -11.0322      9.5432     19.5466   6.1783669862e+01   7.3366886210e+01    0.3664678    0.2056284  -9.24  0.001056474    1.975    0.494
         8 -12.0313     22.4815     10.6239   4.8218526195e+01   7.3625670806e+01    0.4576325    0.3255379   6.15  0.001991203    1.337    0.252
         9 -11.9072     35.7323     19.3565   4.4951227469e+01   7.0414335839e+01    0.6161844    0.3019111 -33.11  0.002592534    2.030    0.507
        10 -11.9682     16.4339     13.5142   5.3967949548e+01   7.3837663838e+01    0.6441048    0.2798977 -33.52  0.003043482    2.281    0.562
        11 -10.9177     68.0487     19.2971   2.9746682271e+01   6.4644746931e+01    0.3359245    0.3140853 -37.85  0.001452501    1.243    0.196
        12 -12.0715    165.1581     17.8953   7.6224972351e+00   4.1021358421e+01    0.5720698    0.3028727  47.45  0.002584634    2.123    0.529
        13 -11.0854     86.0509     13.7841   2.1066170933e+01   6.1335535703e+01    0.4960605    0.3114864   5.01  0.001875662    2.055    0.513
        14 -10.5958     89.5135      8.5523   1.7674690186e+01   6.1063027386e+01    0.3260557    0.2278484 -18.48  0.001022322    1.566    0.361
        15 -10.9725    137.2221     14.6039   1.0434223732e+01   4.8507922175e+01    0.3875279    0.2570469  88.14  0.001497347    1.573    0.364
        16 -10.7968    127.1475     16.6181   1.2851676195e+01   5.0887327418e+01    0.3804628      0.23614  38.37 0.0008959187    1.792    0.442
        17 -11.2931    132.2076     15.6638   1.1624480457e+01   4.9688664417e+01    0.4730895    0.2609448  52.07  0.002198021    1.705    0.413
        18 -11.4202    227.8446     15.2164   1.1258648587e+00   2.6639089046e+01    0.4243105    0.2008802 -66.10  0.001253629    2.144    0.534
        19 -12.1410     48.4137     13.0084   3.4816485911e+01   6.9288717842e+01    0.6040606    0.2687507  45.25  0.002763458    2.161    0.537
        20 -11.4664    191.5279     10.8356   2.8781963178e+00   3.5278572364e+01    0.4342412    0.2521382 -10.97   0.00209049    2.411    0.585
        21 -10.1492    223.9876      2.9684   3.5859183110e+02   2.8723245601e+01    0.1872427    0.1481638 -62.25 0.0004502942    1.014    0.014
        22 -10.5836    218.8551      3.7298   3.5908072800e+02   2.9755564486e+01    0.3912034    0.1952997  53.96 0.0008206893    2.469    0.595
        23 -10.7957    204.0962      1.4724   3.5950890390e+02   3.3267523908e+01    0.6656007     0.209442 -87.68  0.002230981    4.486    0.777
        24 -11.9960    211.9628     10.3120   1.1069359371e+00   3.0612504252e+01    0.6582764    0.2449267 -36.97  0.002395216    2.226    0.551
        25 -10.7071    213.5005      5.4872   3.5984231256e+02   3.0758910745e+01     0.245246     0.165906 -80.15 0.0007994088    1.336    0.251
        26 -12.2581    168.0686      9.3306   4.7281374587e+00   4.1165609384e+01    0.7328469     0.331951  79.02   0.00318689    2.144    0.534
        27 -10.0856    165.4089      3.7997   3.3634604073e+00   4.2351866226e+01    0.2667322    0.1646987  40.03  0.001056835    2.013    0.503
        28 -11.4629    151.7159      8.2576   6.2786516724e+00   4.5407569956e+01    0.4280973    0.2779612 -66.73  0.001291086    1.610    0.379
        29 -10.0973      1.1862      8.1874   6.2682298172e+01   7.6122229038e+01    0.3120491   0.06523998 -53.86  0.001194502    3.699    0.730
        30  -9.4739     77.9883      7.6958   2.0516587701e+01   6.3828488662e+01    0.1903034     0.157954  50.56 0.0006738881    1.106    0.096
        31 -10.8207    185.4952      6.8668   2.3451229485e+00   3.7118917027e+01    0.2450671    0.1225069  52.73  0.001144853    2.223    0.550
        32 -11.1791    177.1636      5.9545   2.8459959973e+00   3.9234574149e+01    0.2805882    0.1901231 -80.45  0.000361065    1.384    0.277
        33  -9.9482     62.9454      6.5034   2.4977103236e+01   6.7238650119e+01    0.3006042    0.1965877  50.21  0.001641553    1.405    0.288
        34  -9.4959    231.6702      6.3024   3.5888198959e+02   2.6769179516e+01    0.1303202   0.06814384 -59.60  0.000703393    1.649    0.394
        35 -10.4618    242.9052      4.3943   3.5784191335e+02   2.4676986632e+01    0.2583539    0.1218574 -55.21  0.001430981    1.725    0.420
        36 -10.9515    137.8567      4.1937   6.7211503712e+00   4.9326602100e+01     0.308698    0.2231113  74.96 0.0005150936    1.236    0.191
        37 -11.7488    133.2829      2.3940   6.7194749402e+00   5.0653664813e+01    0.3979959    0.2834326  71.98  0.001488459    1.241    0.194
        38 -11.0421    113.5838      2.9467   1.0030703987e+01   5.5634087927e+01    0.4391153    0.2979502 -79.74  0.001505876    1.700    0.412
        39 -10.5265     73.3145      3.6283   1.9882947330e+01   6.5278782297e+01     0.481891    0.2039586  44.30  0.002114854    2.099    0.523
        40 -11.1571     41.3389      3.8207   3.2888344802e+01   7.1723350172e+01    0.3603418    0.2210673  22.89  0.001173267    1.652    0.395
        41 -10.7381    233.6426      2.7698   3.5799379929e+02   2.6715569817e+01    0.3210949    0.1550034 -55.11  0.001760592    1.709    0.415
        42 -10.3453    121.9569      5.5060   9.5893287052e+00   5.3287273811e+01    0.2692504    0.1764111 -29.20  0.000987642    1.656    0.396
        43 -10.4022      2.1070      2.0564   5.8560329496e+01   7.7143759284e+01    0.2479934    0.1430451 -27.82  0.001486774    1.508    0.337
        44 -10.4234    105.3549      1.9007   1.1132137749e+01   5.7788118713e+01    0.2552084    0.1785613  89.34  0.001130079    1.570    0.363
        45  -9.4697     64.4582      2.1224   2.2007606852e+01   6.7363353862e+01    0.1705491    0.1239132 -16.11 0.0003947117    1.447    0.309
        46  -9.5880     13.0815      2.3034   4.9818741520e+01   7.6053184949e+01    0.1657273    0.1312103   8.86 0.0005321295    1.160    0.138
        47 -10.8413    142.5049      2.4986   5.5347178827e+00   4.8280571369e+01    0.3423724    0.2443569 -31.52  0.001308252    1.507    0.336
        48  -9.5387    152.2713      1.4028   4.0195367271e+00   4.5880835132e+01    0.1817358    0.1150487  88.21  0.000445105    1.491    0.329
        49  -9.7234     82.1058      1.2537   1.6139018754e+01   6.3478011775e+01    0.1835364    0.1070617  68.25 0.0004606372    1.723    0.420
        50  -9.9977     28.9726    100.8267   7.3951878984e+01   5.3060855348e+01    0.2009231    0.1654709  71.30 0.0004521041    1.286    0.223
        51 -11.5099     26.0827    107.0099   7.6024751692e+01   5.1739183860e+01    0.6808028    0.3885456 -33.17  0.002837091    2.149    0.535
        52 -11.4028     28.3557    113.1533   7.6120035828e+01   4.9965244672e+01    0.3804032    0.3083218  33.89  0.001729328    1.330    0.248
        53 -10.6893      7.6109    114.7129   8.3547350875e+01   5.1143840503e+01    0.2636471    0.2349275  72.66 0.0006670515    1.121    0.108
        54 -12.0890      2.4913    111.7713   8.5015952009e+01   5.2182984857e+01    0.4764048    0.2903708 -77.35  0.001129096    1.385    0.278
        55 -11.4135      4.7108    106.0021   8.3664798658e+01   5.3510798434e+01     0.398921    0.3334033  86.76  0.002017558    1.104    0.094
        56  -9.9835     49.3810    112.1174   6.8481181648e+01   4.7996659777e+01      0.27291    0.1986458  37.50 0.0008375841    1.424    0.298
        57 -11.8681     80.0536    108.0461   5.6972364929e+01   4.4544427407e+01    0.3708247    0.3152018  19.72 0.0005341538    1.288    0.223
        58 -10.7006     15.7155    109.6737   8.0147784449e+01   5.1879737965e+01    0.3740553    0.2327936  21.24  0.001850264    1.813    0.448
        59  -9.4134     45.5109    105.5551   6.8621964514e+01   5.0133603533e+01    0.2029288    0.1223154 -54.53  0.000553572    1.530    0.346
        60 -10.2070     50.4983    101.5023   6.5952220620e+01   5.0554771721e+01    0.3262826    0.2379731 -63.57 0.0007887502    1.293    0.227
        61 -10.2861     52.6916     98.7272   6.4527496549e+01   5.0971665542e+01    0.3504821     0.205394 -58.09 0.0009991635    1.580    0.367
        62  -9.7634     85.8537    103.5995   5.3936335404e+01   4.4613440445e+01    0.2527629    0.2021189 -41.05 0.0005657081    1.275    0.216
        63 -10.3318     36.0452    102.8280   7.1627769959e+01   5.1867498165e+01    0.4955416    0.2675569  -3.14   0.00197078    3.012    0.668
        64 -11.0626     17.4688    100.7167   7.8305492316e+01   5.4030558739e+01    0.2332321    0.2108011 -64.16  0.000495802    1.057    0.054
        65 -11.5249      9.0805     97.0534   8.1002525998e+01   5.5513571416e+01    0.4372698    0.3692904  77.86  0.000988081    1.190    0.160
        66 -11.9270    247.0901     96.7504   1.7524720259e+01   1.2268370111e+01     0.684221    0.3763084 -10.26  0.002852889    3.288    0.696
        67  -9.2990    210.4169     98.4683   2.2928505293e+01   1.8975922020e+01    0.1378794    0.1234882 -32.68 0.0001169635    1.028    0.027
        68 -10.5159     79.9410     97.7909   5.4432011256e+01   4.7046956657e+01     0.445881    0.2240057  51.78  0.001659258    2.461    0.594
        69 -11.0274     79.6743     92.3358   5.3055871235e+01   4.8389452494e+01    0.7038929    0.5084206  48.22   0.00335393    1.464    0.317
        70 -11.5537     75.4263     78.9064   5.0681110780e+01   5.2242278812e+01    0.5700777    0.5136361  86.43  0.001654361    1.284    0.221
        71 -11.7177     22.6580    114.5403   7.8319035086e+01   5.0102786871e+01    0.5152006    0.3230973   1.23  0.001362682    2.093    0.522
        72 -12.0746    125.7399     94.8396   3.9467624077e+01   3.8482490692e+01    0.2830591    0.2693717 -38.16 0.0003023833    1.057    0.054
        73  -9.6476     30.5206     96.4880   7.2591061077e+01   5.4020527896e+01    0.1371642    0.1242997 -70.38  0.000810093    1.024    0.023
        74 -11.7427     22.1405     94.0177   7.5456687084e+01   5.5372171756e+01    0.5818815    0.3256462  55.05  0.001190092    2.153    0.536
        75 -10.2504     17.8775     86.6133   7.5927349057e+01   5.7558908585e+01    0.3907883    0.2762084  12.10  0.002177158    1.625    0.385
        76 -10.4645     25.7513     87.7781   7.2879786568e+01   5.6643833465e+01     0.507208    0.3354814  72.06  0.002202883    1.871    0.465
        77 -10.2291     28.8109     84.8197   7.1019416754e+01   5.7110840553e+01    0.3378794    0.2449174  53.48  0.001394363    1.592    0.372
        78 -10.4409     35.4802     92.4995   6.9864680882e+01   5.4542244460e+01    0.2783249    0.2416177 -80.37 0.0009131503    1.145    0.127
        79 -10.2535     43.3284     94.3108   6.7145838678e+01   5.3231757541e+01    0.2914284    0.2554573  14.93   0.00166257    1.249    0.199
        80 -11.5521     42.0359     90.5849   6.6839899495e+01   5.4312427341e+01    0.4666744    0.2308205  37.77  0.001141886    2.123    0.529
        81 -11.4751     98.8830     91.1672   4.6290812958e+01   4.5017631166e+01    0.3722938    0.2437479  50.06  0.001023302    1.600    0.375
        82  -9.7111    240.6587     91.3532   1.7132214911e+01   1.4200797349e+01    0.1359048   0.08690476 -58.70 0.0007041471    1.809    0.447
        83 -11.5230      7.6111     88.2953   8.0406429539e+01   5.7795937941e+01    0.4635125    0.3699144 -11.36  0.001879312    1.447    0.309
        84  -9.6100     66.8474     88.1980   5.6580986920e+01   5.1516518262e+01    0.2116265    0.1669773 -29.36 0.0006931149    1.370    0.270
        85  -9.8672     52.0257     87.0533   6.2016091563e+01   5.3951347737e+01    0.2084129    0.1911329 -49.58  0.001184519    1.023    0.022
        86  -9.7041     90.6610     85.9110   4.7430111914e+01   4.7827388415e+01    0.3571053    0.2055576  50.27  0.001466617    1.895    0.472
        87 -11.1028     44.8488     84.6968   6.4327167556e+01   5.5438678548e+01    0.5525738    0.4353843  20.62  0.002258947    1.376    0.273
        88 -10.0230     37.1140     85.8913   6.7791303614e+01   5.6022552361e+01    0.2972576    0.1908504  28.48 0.0007761426    1.668    0.400
        89 -10.3152    143.2285     84.5074   3.2055877421e+01   3.6530264854e+01    0.2553856    0.2037698 -40.76 0.0003095668    1.250    0.200
        90 -11.1838     68.1827     95.5751   5.8030165109e+01   4.9526274126e+01    0.4706704    0.3455216   9.52   0.00206845    1.697    0.411
        91  -9.5234    113.5257     83.4722   3.9527711028e+01   4.3572281977e+01      0.15302    0.1508839  82.43 0.0001246796    1.033    0.032
        92  -9.9706     67.1549     81.6817   5.4631217866e+01   5.3006211498e+01    0.3602118    0.2620742 -15.07  0.001685375    1.751    0.429
        93 -10.5169     88.9718     77.6826   4.5467561396e+01   4.9971513711e+01    0.4574233    0.3074656  50.14  0.001507544    1.577    0.366
        94 -10.2913     94.6629     76.5723   4.3199509596e+01   4.9059985628e+01    0.4027842    0.2464683  41.94   0.00129004    1.637    0.389
        95 -11.2071     53.1272     74.2374   5.8081004517e+01   5.6864926490e+01    0.6109695    0.2796699 -61.13  0.002379708    2.399    0.583
        96 -10.0877     58.0089     77.7696   5.7099504200e+01   5.5336334933e+01    0.2457415    0.1998906 -50.57 0.0005300686    1.170    0.145
        97 -11.1120    247.5758     76.8187   1.3155792268e+01   1.4988169182e+01    0.3361009    0.2104832  85.93  0.001792643    2.271    0.560
        98 -10.9970     14.3224     74.8160   7.5323118984e+01   6.0726503407e+01    0.3373019      0.25574  88.93  0.001945784    1.417    0.294
        99  -9.6224    102.8404     74.8387   4.0016214595e+01   4.7692422812e+01    0.2140781    0.1872927 -87.37  0.001076564    1.345    0.256
       100  -9.2818     24.6190     73.8094   7.0467339688e+01   6.0190666238e+01    0.1919051    0.1208886 -75.49 0.0009527755    1.657    0.397
       101 -10.9258      1.9430     71.3786   8.0328391974e+01   6.2250172723e+01    0.3692757      0.18366 -69.03  0.001858133    1.662    0.398
       102 -10.4519     81.1696     72.9027   4.6671557420e+01   5.2515598264e+01    0.3118023    0.2007396 -39.13  0.001406807    1.575    0.365
       103 -11.2873     40.8316     70.0721   6.2205672554e+01   5.9432966744e+01    0.4841486    0.2625013 -59.47  0.001107331    1.763    0.433
       104 -10.4367     34.7813     71.7933   6.5388002370e+01   5.9704089841e+01    0.4229218    0.1625538  35.77  0.001686475    2.727    0.633
       105  -9.0737    154.4567     72.4339   2.6010859176e+01   3.6034845695e+01    0.1473247    0.1457245  81.50 0.0001276445    1.030    0.029
       106  -9.4524     92.2876     71.9926   4.2493051618e+01   5.0508495117e+01    0.2137287    0.1993414 -35.98 0.0009994417    1.070    0.065
       107 -10.4576    122.7935     68.8030   3.2299141486e+01   4.4329471494e+01    0.4291283    0.2453971  44.84  0.001263198    1.755    0.430
       108  -9.5820     77.3667     67.1169   4.6134516875e+01   5.4465301597e+01    0.2127652    0.1371395 -56.80 0.0009408679    1.763    0.433
       109 -10.2224     14.0554     67.4748   7.3971269281e+01   6.2525978716e+01    0.3399017    0.1318004  14.26  0.001419643    2.993    0.666
       110  -9.8315     96.5279     65.5159   3.8892251642e+01   5.0923424159e+01    0.2453526    0.2053449  35.89 4.659455e-05    1.194    0.162
       111 -10.9093     92.5152     62.7917   3.9257845262e+01   5.2312723893e+01     0.472105    0.2842439  57.17   0.00090994    1.944    0.486
       112 -12.4343      7.2282     61.2864   7.5992292006e+01   6.4415968003e+01    0.8370215    0.4867129 -32.11  0.004061199    1.724    0.420
       113 -10.3358    202.0180     65.0168   1.5890378153e+01   2.5986153912e+01    0.2562199    0.1931918  76.71   0.00041353    1.437    0.304
       114 -10.0697    158.5354     63.0134   2.2390733956e+01   3.6613209043e+01    0.3009268    0.1877155  44.54 0.0008724789    1.732    0.423
       115 -10.0545     51.4257     55.7886   5.2845002138e+01   6.1229567686e+01    0.4608322    0.1799764 -40.69  0.001722399    2.648    0.622
       116 -10.3143     51.2222     61.4019   5.4880670557e+01   6.0046134934e+01     0.350092    0.2375165  47.10  0.001732196    1.717    0.418
       117 -10.7886     40.2649     56.8535   5.8420502383e+01   6.2517411475e+01    0.3366668    0.2191723  40.77   0.00108344    1.727    0.421
       118 -10.9851     43.0000     60.9241   5.8460975662e+01   6.1267698310e+01    0.3728299    0.1742105 -57.97 0.0007233924    2.163    0.538
       119 -11.0202     46.0470     59.5034   5.6587648378e+01   6.1184550348e+01    0.3291796    0.2829579   4.79  0.000675571    1.189    0.159
       120  -9.8962     65.4528     61.4755   4.8829576409e+01   5.7789010504e+01    0.2957201    0.2087483 -63.76  0.001406452    1.755    0.430
       121  -9.4434    113.5173     61.0564   3.2216459228e+01   4.7931014018e+01    0.2299569    0.1498815 -37.55  0.001025502    1.569    0.363
       122 -10.6880     31.0429     53.1386   6.1748779226e+01   6.4403669355e+01    0.8526269     0.291636  15.48  0.001337476    5.139    0.805
       123 -10.9405     25.3811     55.7381   6.5431823952e+01   6.4383915712e+01     0.456995    0.2831928 -13.95  0.001824479    1.914    0.478
       124 -10.0355     29.6539     59.7839   6.4484557507e+01   6.3046421684e+01    0.3482191    0.2440513 -68.18  0.001865074    1.510    0.338
       125 -10.4479     25.4940     59.5073   6.6456364140e+01   6.3509001449e+01    0.5407227     0.180236  33.81  0.002119158    3.124    0.680
       126 -10.2444    124.6204     56.5310   2.7726657190e+01   4.6057290173e+01    0.3457333    0.2611533 -10.40  0.001161717    1.652    0.395
       127 -10.6960    119.3243     56.8760   2.9197472189e+01   4.7282977813e+01    0.5388847    0.3529638  89.88  0.002115219    2.532    0.605
       128 -12.0399     75.0800     53.1014   4.1918448067e+01   5.7722061010e+01    0.4487273    0.4262347 -37.83  0.001638581    1.106    0.096
       129 -11.5432     72.7872     47.1322   4.0455405737e+01   5.9283386219e+01    0.8462537    0.3288839 -50.93  0.002419881    3.526    0.716
       130  -9.5436     91.6746     57.3276   3.7565490561e+01   5.3535409266e+01    0.1492682    0.1199627 -84.76 0.0004035509    1.698    0.411
       131  -9.6321     87.7689     56.6332   3.8635728689e+01   5.4493582286e+01    0.2733432    0.1724896 -30.14 0.0008140478    1.739    0.425
       132  -9.2061     33.9004     57.0000   6.1556178425e+01   6.3231666098e+01    0.2090791   0.07632858  26.01 0.0007999531    2.925    0.658
       133  -9.1123    100.5864     55.2506   3.3940370491e+01   5.1951986214e+01    0.1509551    0.1169493  83.62 0.0003724283    1.728    0.421
       134 -10.1276    156.7257     53.9965   1.9998109454e+01   3.8476427724e+01    0.3480442    0.1991846  78.21   0.00110603    2.231    0.552
       135 -11.0692     60.5425     48.4383   4.6018201926e+01   6.1272119971e+01    0.7041937    0.3256623 -38.55   0.00290281    2.196    0.545
       136  -9.6303     55.4943     50.4672   4.9034476259e+01   6.1705384351e+01    0.1397487    0.1283962 -12.49 0.0001040912    1.003    0.003
       137  -9.9093     51.9839     48.4630   4.9854400000e+01   6.2659901452e+01    0.3113552    0.2136368  41.69 0.0005960406    1.573    0.364
       138  -9.1305    214.9969     51.9651   1.1003383829e+01   2.4955694032e+01     0.157038    0.1385334 -59.13   0.00031286    1.020    0.020
       139 -11.0954     10.9673     51.4942   7.1802357310e+01   6.6481955234e+01    0.2647687    0.1647498 -58.14 0.0003217315    1.366    0.268
       140  -9.8247     13.0000     46.9989   6.9469569953e+01   6.7365358895e+01    0.2240052    0.1194047 -37.36 0.0009282405    1.729    0.422
       141  -9.3496    243.6588     51.3172   7.9541831194e+00   1.9130738924e+01    0.1335911   0.07715285 -58.99 0.0007048856    1.711    0.416
       142 -11.9601    119.4180     37.6985   2.2285720615e+01   5.0255077379e+01      0.61349    0.3530819 -42.35  0.001926059    1.834    0.455
       143 -11.5180    117.3710     45.1151   2.5513442774e+01   4.9667752476e+01    0.5836377    0.4298742 -29.70  0.002251263    1.437    0.304
       144 -10.9348    111.2926     40.7052   2.5435006522e+01   5.1818772569e+01    0.7373783    0.4856713 -52.78  0.003397226    1.784    0.440
       145  -9.0830    239.6739     50.7195   8.1873354799e+00   1.9987839321e+01    0.1123075   0.09595276  19.24 0.0003015127    1.596    0.373
       146 -11.7315     44.4836     44.5661   5.1895924558e+01   6.4552818575e+01    0.6439996    0.4162386 -57.78  0.001966882    1.795    0.443
       147 -10.4557     39.3892     44.1954   5.4300984340e+01   6.5322291069e+01    0.2874366    0.2260641  -6.18 0.0009642968    1.294    0.227
       148  -9.7135      2.0246     48.7653   7.6001137584e+01   6.7595233886e+01    0.1682388    0.1488901 -36.82 0.0006940988    1.100    0.091
       149 -10.6095     20.9922     46.1928   6.4803682857e+01   6.6914087303e+01    0.4380495    0.2394196 -45.55  0.002081853    1.573    0.364
       150  -9.5455     34.0252     46.0287   5.7759023771e+01   6.5608479124e+01    0.2169977    0.1431027 -22.82 0.0009575341    1.624    0.384
       151 -10.3603     29.8828     45.2394   5.9657188944e+01   6.6244738160e+01    0.3012095    0.1943132 -12.12  0.001538065    1.799    0.444
       152 -10.0164    200.6604     45.4418   1.1019690721e+01   2.9047792610e+01    0.2461728    0.1315687  75.49 0.0008316498    2.058    0.514
       153  -9.0971    179.8433     45.3811   1.3708345530e+01   3.3996784679e+01    0.1768399    0.1253908  56.01 0.0001665506    1.452    0.311
       154  -9.7823    138.7881     44.1242   2.0304668625e+01   4.4462713350e+01    0.3541913    0.1914147  29.53  0.001264729    3.069    0.674
       155  -9.9168    112.4135     50.8070   2.8886985312e+01   4.9961006310e+01    0.4132028    0.3061805   8.44  0.001407693    1.785    0.440
       156 -10.2974    156.2642     41.8953   1.6328700384e+01   4.0345211451e+01     0.252205    0.2482339 -20.37 0.0007024981    1.119    0.106
       157  -9.7482     57.0974     42.1135   4.4950648633e+01   6.3063163699e+01    0.2482052    0.1816963  41.17  0.001317293    1.420    0.296
       158 -10.0637     26.2981     43.0917   6.0827388959e+01   6.7079146713e+01    0.1858073    0.1544478 -41.41 0.0006407017    1.088    0.081
       159  -9.4430     99.3302     41.6479   2.9139479231e+01   5.4520157553e+01    0.1501605    0.1149059 -74.49 0.0007047123    1.774    0.436
       160  -9.0734     91.4329     41.4439   3.1502005416e+01   5.6353995453e+01    0.1413483    0.1373216  39.25 7.633125e-05    1.060    0.057
       161 -10.9282      4.1888     37.0489   7.1712101092e+01   7.0110611038e+01    0.4896215    0.3201956 -63.00  0.002898595    1.402    0.287
       162 -11.3359     78.9760     35.5037   3.3245391104e+01   6.0010409543e+01    0.7675447    0.5383052 -36.28  0.003931725    1.473    0.321
       163  -9.6177    231.7857     37.9132   6.0010841862e+00   2.3195560555e+01     0.171633   0.09100845 -32.06 0.0008755737    1.729    0.422
       164 -10.8105     61.3014     36.0390   4.0461828898e+01   6.3412181308e+01    0.4904741    0.2966704 -16.90  0.001569214    2.179    0.541
       165  -9.9692     67.9872     32.1322   3.5910842719e+01   6.2788897205e+01    0.3602976    0.2293644  29.87  0.001087951    1.644    0.392
       166 -10.4880     23.1299     37.3106   6.0474251860e+01   6.8608378674e+01    0.4365276    0.1738337  36.50  0.001879805    2.845    0.649
       167  -9.4324    195.2321     37.5863   9.5987537152e+00   3.1334416093e+01    0.1631384    0.1229564  61.57 0.0002075632    1.384    0.277
       168 -11.5896    175.2207     33.4393   1.0930368865e+01   3.6696600485e+01    0.4889564    0.3023618 -42.99  0.002419839    1.543    0.352
       169 -10.3749    152.9780     36.0269   1.5027141785e+01   4.1966259093e+01    0.2123131    0.1979447  78.60 0.0003058714    1.028    0.027
       170 -10.1967    131.9846    240.9994   6.5583034356e+01   7.8286126618e+00    0.1861031    0.1291936  54.49   0.00100582    1.645    0.392
       171 -10.6210     67.6365    240.9129   7.8894994143e+01   1.6374287405e+01    0.1913566    0.1453056  30.20  0.000793162    1.291    0.225
       172 -12.3410    114.6381     24.9870   1.8558177958e+01   5.3116033538e+01     0.911137    0.3289129  49.29  0.002472289    2.561    0.609
       173 -11.3455    106.3998     32.7775   2.3639452964e+01   5.4142828535e+01    0.5257762    0.3306049   8.42  0.001745316    2.448    0.591
       174 -11.3473    103.0819     32.8856   2.4570189881e+01   5.4928351402e+01    0.2855113    0.2513684  57.12  0.001592654    1.096    0.087
       175 -10.8096     10.2186     30.8974   6.5921613294e+01   7.1042540562e+01    0.4606447    0.3378496 -10.78  0.002412278    1.329    0.247
       176  -9.3085     45.5609     24.5473   4.2375260662e+01   6.8050811649e+01    0.2083206    0.1218621 -35.90   0.00050253    1.672    0.402
       177 -12.1450     58.0935     29.8648   3.9028331255e+01   6.5028060748e+01     0.382516    0.2940457   3.44  0.001153692    1.371    0.271
       178 -11.8655     49.4710     30.2534   4.3218164122e+01   6.6457730865e+01    0.6329933    0.3324758  33.53  0.002190505    1.911    0.477
       179  -9.1520     22.4545     32.4378   5.8946397391e+01   6.9667240864e+01    0.1937402    0.1512528 -45.79 0.0006086887    1.210    0.174
       180 -11.5761     26.4213     28.5374   5.4900829639e+01   7.0001672293e+01    0.4274925    0.2937677 -52.09  0.001625771    1.525    0.344
       181 -11.3701    183.0056     25.7226   7.7815263213e+00   3.5712559834e+01    0.4358114    0.3304651 -38.12  0.002197046    1.300    0.231
       182 -11.5312    188.9508     27.3677   7.5678762944e+00   3.4080851687e+01     0.486252    0.3399812  43.53  0.002575772    1.745    0.427
       183 -10.2520     76.1367    240.1470   7.7072956372e+01   1.5456133893e+01    0.1743786    0.1523468  25.43  0.001238695    1.274    0.215
       184  -9.4502     32.7979     31.2088   5.2407934730e+01   6.8725020442e+01    0.1793869    0.1325252 -18.15 0.0002496737    1.307    0.235
       185 -12.0219    125.9455     28.1449   1.7323077644e+01   4.9874976484e+01    0.4726506    0.3697414  83.73  0.001413228    1.343    0.255
       186  -9.3120     86.4648     30.4535   2.8486230743e+01   5.9135215513e+01    0.1436506    0.1275729  26.53   0.00080673    1.072    0.068
       187  -9.9637    187.5193     22.9798   6.5291406807e+00   3.4932875674e+01     0.202866    0.1839743  49.32 0.0005906747    1.285    0.222
       188 -10.4034    230.1639     26.9760   3.6348020246e+00   2.4837314112e+01    0.2420565    0.1664057  59.98  0.001283574    1.671    0.401
       189 -11.2680    145.2145     26.0758   1.3063901880e+01   4.5190310888e+01    0.6242952    0.2732886  88.25  0.001872737    4.428    0.774
       190  -9.9450    206.7521     25.9878   5.4021404026e+00   3.0072035698e+01    0.1816974    0.1524615 -53.05 0.0004302574    1.075    0.070
       191  -9.6203     98.0287     26.4699   2.3311061795e+01   5.6997581477e+01    0.2203491    0.1305531  55.57 0.0006499439    1.564    0.361
       192 -10.4021    147.6587    239.1612   6.2183711980e+01   5.9291920329e+00    0.2154612    0.1392727  38.73 0.0009331501    1.333    0.250
       193  -9.0240     15.6704    233.6640   8.9037728440e+01   2.3413343713e+01   0.09632639   0.08385395 -39.04  0.000705205    1.729    0.422
       194 -10.1132     14.0268     22.8418   6.0181818579e+01   7.2353805171e+01    0.2159723    0.1657979 -41.16 0.0003581814    1.167    0.143
       195  -9.6742    248.5953    224.1972   4.1590676963e+01  -5.2687507639e+00    0.1541973    0.0820168 -18.79 0.0009496998    1.681    0.405
       196  -9.5590     44.8212    215.3797   8.1891845848e+01   2.3966349897e+01    0.1628793    0.1082672  22.86 0.0009448182    1.691    0.409
       197 -10.5752      8.9795    211.3058   8.9484987589e+01   2.8430388202e+01    0.1669245    0.1257974  52.61  0.001081145    1.106    0.096
       198 -11.0279    135.2151     22.3163   1.3470751778e+01   4.8194404601e+01    0.4665972    0.3292826  81.59  0.002364547    1.439    0.305
       199  -9.5333    168.7358     23.4163   8.8313081928e+00   3.9510948445e+01    0.1920577    0.1172811  59.84 0.0009380719    1.581    0.368
       200 -10.8561     38.9563     22.2767   4.4688079889e+01   6.9456391134e+01    0.2457224    0.1700001 -31.42 0.0003286347    1.371    0.271
       201  -9.2669    164.5004    211.5304   5.4851940238e+01   7.8199847765e+00    0.1293063    0.1087318  19.90 0.0001198461    1.012    0.012
       202 -10.7353    178.9146     20.6495   6.8180628414e+00   3.7291102254e+01    0.4339438    0.2299587  41.32  0.001885607    2.558    0.609
       203 -10.4552     59.7052     22.8223   3.4892270040e+01   6.5815705672e+01    0.2541573    0.2138339 -33.15 0.0006806434    1.271    0.213
       204  -9.9965     78.8987    204.6265   7.3096627032e+01   2.1932599975e+01    0.3217693     0.201736  84.32  0.001136975    1.990    0.497
       205  -9.0251     61.5064    206.5604   7.7371835624e+01   2.3802177747e+01    0.1279997    0.1066944  54.05 0.0001188314    1.007    0.007
       206  -9.6158    216.6650     20.0751   3.0931479281e+00   2.8521216499e+01    0.1784622     0.142448 -48.99 0.0005018583    1.114    0.102
       207  -9.1495    229.6818    199.6517   4.0593056100e+01   1.1696595861e-01    0.1272628   0.07724789  -1.60 0.0007048381    1.732    0.423
       208  -9.8687     74.6580     19.4796   2.7420129960e+01   6.3221864065e+01    0.2607647    0.1817455  10.25 0.0009985389    1.673    0.402
       209  -9.7568     46.3450     20.0475   3.9664548423e+01   6.8633488071e+01    0.2162019    0.1861795  61.25 0.0009788789    1.595    0.373
       210 -10.2528    199.2610     17.3400   3.8893368476e+00   3.2771730957e+01    0.2315248     0.185006 -69.05 0.0003952733    1.098    0.089
       211  -9.6220     52.8813    190.6676   7.7961162957e+01   2.8300566082e+01    0.1934229    0.1650961   7.66   0.00113805    1.480    0.324
       212  -9.3344    232.5263    190.4968   3.8502484827e+01   9.6953666539e-01    0.1217382   0.09662874  -4.55 0.0008100901    1.005    0.005
       213 -11.9799      4.6562    184.1299   8.9234143276e+01   3.4617315543e+01    0.5719415    0.3442293  80.89  0.003415566    1.428    0.300
       214  -9.5086     28.0007    176.0085   8.2961139184e+01   3.4390898691e+01    0.1884708    0.1449529 -45.61  0.000625506    1.617    0.382
       215  -9.9957     15.9823    174.0058   8.5886110206e+01   3.5974974768e+01    0.2200425    0.1160405  61.41  0.001140743    1.725    0.420
       216  -9.9565    238.7411     16.5798   7.0046229290e-01   2.4236974232e+01    0.1588288   0.09851133 -79.61 0.0004533107    1.568    0.362
       217  -9.3794    190.4775    170.5465   4.2365895509e+01   1.0487134549e+01    0.1351965    0.1198213   1.82 0.0001897832    1.010    0.010
       218  -9.8798    211.1267     16.2416   2.6101552722e+00   3.0173593468e+01     0.189872    0.1617638 -32.60 0.0002898192    1.274    0.215
       219 -10.7025    186.6332     14.9472   4.4324079955e+00   3.6025803071e+01    0.2374737     0.173262 -87.18 0.0004072307    1.275    0.216
       220  -9.5216     75.8259     14.8336   2.4750464448e+01   6.3535584491e+01    0.1680978    0.1572924 -87.13 0.0002872051    1.298    0.230
       221 -10.7155      9.4346    155.1881   8.6353322137e+01   4.0972247794e+01    0.2528338    0.1388319  78.54  0.001306586    1.692    0.409
       222 -11.6034      8.6176    166.8869   8.7324362237e+01   3.8250920995e+01    0.3246441    0.2055183  30.87  0.001550543    1.623    0.384
       223 -10.6203     13.4957    156.4222   8.5325937061e+01   4.0355018464e+01    0.1950773    0.1791027  46.78 2.910513e-05    1.199    0.166
       224 -12.0956     11.5150    162.3049   8.6273185221e+01   3.9103349099e+01     0.425684    0.2835942  87.25  0.002121345    1.312    0.238
       225 -10.7010    205.1259    163.5387   3.8193505598e+01   9.1793882770e+00    0.2562401    0.1784556 -24.62 0.0009283179    1.362    0.266
       226 -11.3732     47.7131    147.2370   7.4537270375e+01   3.9257609939e+01    0.6281247    0.4468087 -24.50  0.003142006    1.940    0.485
       227 -12.6658     22.8847    148.8196   8.2043833172e+01   4.1419317887e+01    0.5663768    0.2949781 -42.44  0.001493195    2.476    0.596
       228  -9.1813    114.8171     12.6078   1.3648617493e+01   5.4437363162e+01    0.1947396    0.1250612  79.77 0.0009345629    1.649    0.393
       229  -9.5464      4.5303    153.5135   8.7586512383e+01   4.1737236938e+01    0.1261825    0.1036002  79.11 6.411697e-06    1.011    0.011
       230  -9.5782     61.1659    152.2158   7.1247090975e+01   3.6338432395e+01    0.2044584    0.1513024  60.18 0.0004904047    1.344    0.256
       231 -10.2037     16.4209    148.0126   8.3842937553e+01   4.2170061425e+01    0.2482277     0.137516  86.49 0.0009246193    1.714    0.417
       232 -11.8473      4.0798    143.0485   8.7024407441e+01   4.4307806889e+01    0.7828635    0.3475762  57.30  0.003682576    2.205    0.547
       233  -9.3643     65.9548     10.5214   2.6021923482e+01   6.6162497242e+01    0.2048651    0.1199643  51.38 0.0006471197    1.583    0.368
       234  -8.9953    104.2468    147.0044   5.8011033233e+01   3.0923481630e+01    0.1768058    0.1272814 -55.83            0    1.429    0.300
       235 -10.6503     33.1995    144.4959   7.8553738556e+01   4.1523100291e+01    0.2609206     0.212936 -89.48 0.0007173156    1.111    0.100
       236  -9.3304     40.3259    141.3381   7.6012928827e+01   4.1575409550e+01    0.2108565    0.1242629 -55.51 0.0008031633    1.679    0.404
       237 -10.0289     40.5937    138.2162   7.5527263388e+01   4.2336283187e+01    0.2604829     0.219151  61.55  0.000929467    1.150    0.130
       238 -10.7945     80.2206    138.5806   6.3360149801e+01   3.6965910068e+01    0.2879223    0.2462538  47.06 0.0004625235    1.146    0.128
       239 -11.4445     23.3666    136.7014   8.0701870448e+01   4.4405287289e+01    0.5572165    0.3360728  39.34  0.001283882    1.650    0.394
       240 -10.6549     30.1681    132.7236   7.8116257511e+01   4.4793477654e+01     0.340613    0.2331115 -41.09  0.001074297    1.680    0.405
       241 -10.9877     12.7407    135.6220   8.3867297096e+01   4.5533733639e+01    0.5138014    0.2676469 -53.81  0.002536496    1.932    0.482
       242  -9.6457     32.0016    137.5097   7.8113375449e+01   4.3402387212e+01    0.1912458    0.1338259  26.07 0.0006665405    1.558    0.358
       243  -9.5099     22.9820    126.7658   7.9724905451e+01   4.6955696823e+01    0.1743067    0.1634351  86.80 0.0003787701    1.077    0.071
       244 -10.5695     10.3615    126.6696   8.3797326606e+01   4.7949523934e+01    0.2267938    0.1747676  67.65  0.001358433    1.238    0.193
       245  -9.5506     33.3537    126.1813   7.6243448520e+01   4.6154321798e+01    0.1981578    0.1192423 -84.08 0.0008934648    1.664    0.399
       246  -9.7708      2.1012    125.7091   8.6342236980e+01   4.8717857579e+01    0.2366387    0.1486648  84.71  0.001305908    1.427    0.299
       247 -10.8276    155.1175     23.6431   1.0744822925e+01   4.2935573193e+01    0.3653363    0.2703581 -35.33  0.001954245    1.393    0.282
       248 -11.9424    245.4108    118.5929   2.2388272213e+01   9.3847890358e+00    0.4843731    0.2681245 -54.67   0.00230695    2.468    0.595
       249 -11.0193    104.4308    122.4981   5.2743512168e+01   3.6674768735e+01    0.3927579    0.3483603  58.00  0.001285569    1.155    0.134
       250  -9.1477     18.7214    123.9836   8.0805485178e+01   4.8011777390e+01     0.163917    0.1046113 -75.24  0.000452602    1.380    0.275
       251 -10.1997     56.1398    121.9216   6.7961583719e+01   4.4638542008e+01    0.2218603    0.1836749  67.05 0.0004932317    1.254    0.202
       252 -10.0120     43.4980    116.0731   7.1256109142e+01   4.7675782251e+01    0.2675871    0.1348465 -73.30  0.000744549    2.021    0.505
       253  -9.9203     79.0987    115.7725   5.9079272862e+01   4.2801969637e+01    0.2206047     0.195954  62.72 0.0004013697    1.166    0.142
