#   1 NUMBER                 Running object number                                     
#   2 MAG_AUTO               Kron-like elliptical aperture magnitude                    [mag]
#   3 X_IMAGE                Object position along x                                    [pixel]
#   4 Y_IMAGE                Object position along y                                    [pixel]
#   5 X_WORLD                Barycenter position along world x axis                     [deg]
#   6 Y_WORLD                Barycenter position along world y axis                     [deg]
#   7 A_WORLD                Profile RMS along major axis (world units)                 [deg]
#   8 B_WORLD                Profile RMS along minor axis (world units)                 [deg]
#   9 THETA_WORLD            Position angle (CCW/world-x)                               [deg]
#  10 FWHM_WORLD             FWHM assuming a gaussian core                              [deg]
#  11 ELONGATION             A_IMAGE/B_IMAGE                                           
#  12 ELLIPTICITY            1 - B_IMAGE/A_IMAGE                                       
         1 -10.7137      6.7694     31.9203   9.1426369850e+01   7.0783506215e+01    0.9704625    0.8610594 -68.13  0.006634608    1.442    0.307
         2 -11.4540     13.0766     46.1034   9.2507371946e+01   6.7412408857e+01     1.240008    0.8109285  51.22  0.006546375    2.315    0.568
         3 -10.0631     50.4867     33.4381   6.7628762008e+01   6.5401149232e+01     1.730197    0.9275232 -10.12  0.006712907    3.216    0.689
         4 -11.0391     58.4190     15.6080   5.5428292720e+01   6.6502883607e+01    0.8839418    0.6070525  14.91  0.004369395    1.472    0.321
         5 -12.7258     62.5446     30.3453   6.0895813402e+01   6.3759013628e+01     2.566836     1.474675 -21.94   0.01231944    1.923    0.480
         6 -12.2070     99.4838     45.6573   5.4411157963e+01   5.3805920910e+01     1.328915     1.031447 -64.61  0.004317678    1.724    0.420
         7 -11.7006    138.5786     55.7699   4.8049624214e+01   4.3069995988e+01     1.022816    0.5940666 -28.35   0.00452397    1.874    0.466
         8 -12.1453    128.7348     54.4892   4.9845351596e+01   4.5632398144e+01      1.86622     1.080389 -16.62  0.007627418    2.375    0.579
         9 -12.2227    152.6030     46.6205   4.2421686679e+01   4.0979001768e+01      1.61686     1.039146  27.31  0.005577369    2.155    0.536
        10 -12.4570    197.0621     52.7320   3.7386249517e+01   2.9701892741e+01    0.7256705     0.460864 -22.76   0.00367013    1.804    0.446
        11 -11.7451    181.9016     47.8725   3.8146121169e+01   3.3808475570e+01    0.5158059    0.3981518 -43.77  0.002908072    1.243    0.195
        12 -11.6424     59.9554     51.7824   7.1122516941e+01   6.0619264854e+01     1.051503    0.4340955 -31.69  0.002238583    3.076    0.675
        13 -13.2760    242.9396     14.0384   2.4382832824e+01   2.4737777826e+01     2.158814    0.9426958 -42.50   0.01215376    1.788    0.441
        14  -9.8581     39.2101     23.8378   6.8621020225e+01   6.8694954580e+01    0.5155494    0.4617501 -61.33  0.003234502    1.710    0.415
        15 -10.6535     45.0761     18.7965   6.3060900324e+01   6.8501937796e+01    0.6309118    0.4081436  27.45  0.002068954    1.413    0.292
        16  -9.9012     38.0922     15.7637   6.4992769469e+01   7.0053172903e+01    0.3162715    0.2462806 -33.85  0.001509872    1.443    0.307
        17  -9.5289     86.8670     22.4027   4.8716595454e+01   5.9751166448e+01    0.8163254     0.355293  54.33  0.003438989    2.067    0.516
        18  -8.3280     92.3327     15.2258   4.4091511459e+01   5.9277568027e+01    0.4181775    0.3396311  38.64  0.001504931    1.104    0.094
        19  -8.1086     99.2652      8.6441   3.9640586417e+01   5.8263649190e+01    0.1740837    0.1047162  53.59 0.0002641736    1.407    0.289
        20  -8.7036     92.1264      3.8525   3.9240796696e+01   6.0343891097e+01    0.1770858    0.1651222  76.34 0.0002657046    1.177    0.150
        21  -8.8633     48.9430    139.1459   9.7835002560e+01   4.1448792170e+01    0.2366469    0.1864913 -67.76            0    1.198    0.165
        22  -9.7117    206.8057    250.3907   7.7031890412e+01  -3.4785084338e+00    0.2462563   0.08644033  25.12  0.001120698    2.688    0.628
        23  -9.8409    214.8808    249.5070   7.5435322202e+01  -4.3161781692e+00    0.2175366    0.1395459   1.45  0.001158959    1.309    0.236
        24 -10.4327    188.4387    249.1457   8.0291927338e+01  -1.0694528329e+00    0.2847174    0.2189566  12.50  0.001530992    1.045    0.043
        25 -10.5479    165.8201    248.8990   8.4687296381e+01   1.8678594517e+00    0.3661495    0.2340951 -25.93  0.002211101    1.723    0.420
        26 -10.6576    160.6290    249.0244   8.5746643089e+01   2.5305501711e+00    0.4238864    0.1557782  26.03  0.001826417    2.616    0.618
        27  -8.9919    139.4049    249.7915   9.0183283535e+01   5.2253210179e+00    0.1566035    0.1087442 -30.76 0.0009555898    1.682    0.406
        28  -8.8086     37.8397    140.1303   1.0151471875e+02   4.2380148681e+01    0.1900256    0.1529154 -42.31 0.0004430387    1.302    0.232
        29  -9.1334     15.4018    136.4436   1.0815685089e+02   4.5239230793e+01    0.2866858    0.1893629  79.96  0.001523208    1.530    0.347
        30  -9.3246     24.7684    134.4690   1.0495351381e+02   4.5021098990e+01    0.2706018    0.1865521  76.03 0.0005588001    1.542    0.351
        31  -9.0348     43.7095    132.8436   9.8546926382e+01   4.3644331113e+01    0.3475386    0.1755739 -64.37   0.00151679    1.808    0.447
        32  -9.6917     30.5460    132.8575   1.0287071355e+02   4.4936394183e+01    0.3065341    0.2280266 -85.77 0.0008633186    1.317    0.241
        33  -9.7415      8.8505    131.7122   1.0974196573e+02   4.6877208444e+01    0.3157989     0.228366 -69.25  0.001154144    1.197    0.164
        34  -8.4211     61.8270    132.8450   9.2600096799e+01   4.1483128788e+01    0.1982219    0.1665737  67.59 0.0002378199    1.302    0.232
        35  -9.6514     82.9047    129.1240   8.5045007397e+01   3.9356542872e+01    0.3387444    0.2571503 -58.78 0.0008964136    1.318    0.241
        36  -8.2651     73.9140    130.4567   8.8208706951e+01   4.0402366736e+01    0.2139989    0.1455975  33.04 0.0004666092    1.496    0.332
        37  -8.7026     23.1324    128.2313   1.0470383958e+02   4.6751118707e+01    0.3533423     0.172772 -68.35  0.001612694    1.779    0.438
        38  -9.2257     10.1079    125.1864   1.0866049611e+02   4.8452087954e+01    0.2595698    0.2056769  57.25  0.001281688    1.333    0.250
        39 -10.2693      3.6700    124.8901   1.1074233228e+02   4.8903409660e+01     0.307896    0.2713382 -66.67  0.001457863    1.076    0.070
        40 -10.8460     43.3577    122.5964   9.6977030799e+01   4.6316981752e+01     0.370008    0.2557341 -75.22 0.0002038188    1.457    0.314
        41 -10.3770     45.8078    115.9809   9.4918140288e+01   4.7744434838e+01    0.4890864    0.2876983  25.38  0.001544132    1.817    0.450
        42 -10.6636     40.9842    110.0128   9.5530839270e+01   4.9789163033e+01     0.466949    0.2896629 -37.39  0.002208213    1.688    0.408
        43 -10.9863     46.6657    109.8444   9.3404436379e+01   4.9209882854e+01    0.5870565    0.3731783 -75.46  0.002719379    1.746    0.427
        44  -9.0658     34.3601    121.8861   9.9979278376e+01   4.7406845957e+01    0.2973497    0.1845074 -46.50  0.001453187    1.562    0.360
        45  -9.0189     36.8127    119.6553   9.8760526106e+01   4.7744450226e+01    0.4028606    0.2059993 -81.99  0.001630397    2.383    0.580
        46  -9.0515     76.7549    120.8710   8.5230682337e+01   4.2369135870e+01    0.3629981    0.2377668 -74.55  0.001199758    1.929    0.481
        47  -8.8857     70.0023    120.4334   8.7396877790e+01   4.3493245475e+01    0.3532874    0.1863212 -41.60  0.001133576    2.012    0.503
        48 -10.5121     12.6304    113.2507   1.0638697760e+02   5.1329089163e+01    0.6781526    0.2819632 -47.28  0.002937739    2.249    0.555
        49 -11.4087      4.0510    113.8498   1.0947910629e+02   5.1669412241e+01    0.6817684    0.3414999 -65.44 0.0009031885    1.627    0.386
        50 -10.1109      4.6541    104.1502   1.0813060827e+02   5.4083282321e+01    0.2828955    0.2313996  59.31  0.001738849    1.358    0.264
        51  -9.4751    108.0132    119.9830   7.5142454154e+01   3.7161948162e+01    0.2255922    0.2163897 -13.94  0.001194595    1.022    0.022
        52  -9.0926     89.0313    120.0672   8.1036329032e+01   4.0569429401e+01    0.2384014    0.1856574  70.96 0.0004916778    1.648    0.393
        53  -8.7032     32.7069    112.7398   9.9062769911e+01   4.9908074521e+01    0.2157669    0.1760309 -13.65 0.0004894059    1.365    0.268
        54  -9.7299     26.0380    110.7444   1.0117108603e+02   5.0998557745e+01    0.5016265    0.2951333  73.75  0.002244663    2.264    0.558
        55  -8.5946     21.2396    112.5638   1.0320145381e+02   5.0910402762e+01    0.2613796    0.1357304  18.64 0.0009737455    2.161    0.537
        56  -8.5908     82.1153    110.9424   8.1090942987e+01   4.3943808695e+01    0.2386478    0.1759776 -21.05 0.0005597845    1.602    0.376
        57  -9.9317     67.4586    108.3818   8.5540438579e+01   4.6865028559e+01    0.4877715    0.2685041   9.11  0.001781684    2.884    0.653
        58  -8.5799     89.5868    107.9947   7.7851766598e+01   4.3364673025e+01    0.2350395    0.1950197  33.30 2.901899e-05    1.221    0.181
        59  -9.2948     77.6376    107.3537   8.1719112506e+01   4.5545682293e+01     0.323714    0.2190945 -45.60  0.001493717    1.426    0.299
        60  -8.9256     59.4866    108.4804   8.8425592778e+01   4.7960919276e+01      0.14738    0.1371891 -39.53 0.0008101484    1.018    0.018
        61 -10.0547    114.5290    104.6586   6.9190013249e+01   3.9340710984e+01    0.3138036    0.2312531   8.70 0.0007315223    1.750    0.429
        62 -10.3446     64.8776    103.1439   8.5201671517e+01   4.8528236847e+01    0.6503017     0.385044 -31.95  0.002742056    1.985    0.496
        63  -9.3150     70.0220    103.0383   8.3312301163e+01   4.7788771700e+01    0.3901635    0.2161132 -63.86 0.0007593469    2.088    0.521
        64  -9.4725     36.0999    104.8709   9.6368494393e+01   5.1590423037e+01    0.2953885    0.2242835  -6.11 0.0008683808    1.499    0.333
        65  -9.2208     12.9199    105.4195   1.0522516960e+02   5.3298655007e+01     0.282317     0.133966  11.23 0.0009872767    2.501    0.600
        66  -9.3354     51.0255     70.8280   8.1708401532e+01   5.8050553665e+01     1.114953    0.6858939  70.30  0.003884598    4.232    0.764
        67 -11.9394     46.5508     97.0584   9.0674835865e+01   5.2428225935e+01     1.643083      0.83784 -69.41  0.006671072    2.276    0.561
        68 -10.2757     72.2628     89.0030   7.8694920618e+01   5.0754736653e+01      1.17438    0.6444321  54.41  0.002570216    2.691    0.628
        69 -10.7256     48.8680     85.3871   8.6843062440e+01   5.4982278069e+01    0.4585513     0.378689 -59.93  0.001246511    1.231    0.188
        70 -11.2814     51.2757     80.5569   8.4517106330e+01   5.5808685975e+01    0.7953503    0.6155003  18.23  0.002672538    1.343    0.256
        71 -11.2953     62.8597     83.1126   8.0571010755e+01   5.3582608300e+01    0.8365795    0.5149146 -30.96  0.003727912    1.790    0.441
        72 -10.2505     68.0153     82.6784   7.8435516625e+01   5.2880603176e+01     0.418434    0.2924133 -22.03   0.00087807    1.630    0.387
        73  -8.4139    144.8141    103.3886   6.0753238960e+01   3.3142151039e+01    0.2099288    0.1427378  35.80 0.0003623242    1.564    0.360
        74  -9.0564     96.5958    102.2227   7.4019232396e+01   4.3421371946e+01    0.3137195    0.2781162 -56.35 0.0009883528    1.187    0.158
        75  -9.4422     97.8822     98.2949   7.2506183505e+01   4.4063723756e+01    0.2934055    0.2526062  23.87 0.0007687902    1.180    0.152
        76  -8.3030     29.5811    103.1781   9.8540069337e+01   5.2623680701e+01    0.2160414    0.1053769 -54.10 0.0009564196    1.752    0.429
        77 -10.2963    112.3864     99.8015   6.8460603433e+01   4.0838215721e+01    0.4384417    0.2785465 -28.17  0.001820376    1.861    0.463
        78  -9.7838     74.9622    100.3446   8.0848134073e+01   4.7660521814e+01    0.4517518    0.1888218 -42.87  0.001614116    2.453    0.592
        79 -10.5796     80.4564    100.0821   7.8843220572e+01   4.6813875438e+01    0.3823788    0.2958014  13.36 0.0006043368    1.438    0.305
        80 -10.5689    118.7577     98.6973   6.6297624077e+01   3.9745628921e+01      0.48735    0.3132273  64.35  0.001945543    2.210    0.547
        81  -8.4198     15.0236    100.0060   1.0362136313e+02   5.4532990076e+01    0.1930557    0.1661676 -87.88 0.0004333581    1.188    0.158
        82  -9.6791     10.9309     97.4377   1.0482079564e+02   5.5430321250e+01    0.2711303    0.2172881 -10.53 0.0005860486    1.392    0.281
        83  -9.2927     15.5079     94.9228   1.0261066790e+02   5.5778434809e+01    0.2394059     0.190224 -14.28 0.0006332268    1.371    0.271
        84  -9.2324      4.8490     97.2961   1.0716794628e+02   5.5792300295e+01    0.3461434    0.1744439 -51.63  0.000384067    1.677    0.404
        85  -9.4349    130.8633     99.1251   6.3100871698e+01   3.7056450424e+01    0.2365065     0.217941 -87.15 0.0005530046    1.243    0.196
        86  -9.0430     33.9987     99.0724   9.6035508932e+01   5.3255802429e+01    0.2077844     0.186244 -48.87 0.0003150345    1.009    0.008
        87  -9.4444    105.4667     97.6218   6.9927450173e+01   4.2720109020e+01    0.2958893    0.1895737  37.11 0.0007033576    1.580    0.367
        88  -8.6603     62.0178     97.7184   8.4900130984e+01   5.0259987962e+01    0.2770235    0.1896719 -70.61   0.00127012    1.735    0.424
        89  -9.5600     22.3634     96.9002   1.0021965438e+02   5.4798240945e+01    0.2627821    0.1906464  20.45 0.0005841103    1.528    0.346
        90  -9.2369     39.1272     95.5685   9.3267788787e+01   5.3619152466e+01    0.3137956    0.1812434 -70.76 0.0004501374    1.863    0.463
        91  -8.6497     32.4170     95.1709   9.5866160682e+01   5.4381075793e+01    0.2316004     0.158065  75.87  0.001107114    1.978    0.494
        92 -11.0042    110.9140     93.4324   6.7057459661e+01   4.2506613165e+01     0.716027    0.3180379  44.66  0.002519358    2.265    0.558
        93 -10.9401    116.6190     88.2458   6.3843001606e+01   4.2370018775e+01    0.5254791    0.4237866 -33.88  0.001655465    1.249    0.200
        94 -10.0702    108.0394     89.5187   6.6756962812e+01   4.3929012415e+01     0.441773    0.2410996  32.92  0.001060678    2.062    0.515
        95 -11.0600    106.7773     85.8609   6.6027554381e+01   4.4952022133e+01    0.4268766    0.2854911  45.31 0.0002579045    1.504    0.335
        96  -9.1680     84.4654     93.7603   7.5688189733e+01   4.7580233903e+01     0.532889    0.1608926  46.86  0.001443316    4.516    0.779
        97  -8.8356     64.9797     94.0905   8.2837236215e+01   5.0700037105e+01    0.2176888    0.2056494 -36.96 0.0003575397    1.037    0.036
        98  -9.1754    134.2011     93.1821   6.0539308866e+01   3.7515970131e+01    0.2111234    0.1874699  85.57    0.0007117    1.322    0.244
        99  -9.6133     98.0241     85.2123   6.8579259270e+01   4.6881871286e+01     0.466276    0.2480945 -30.34 0.0009345209    2.337    0.572
       100  -9.9355     98.9977     91.7623   7.0251075966e+01   4.5287031064e+01    0.3577985    0.2379086  36.39 0.0007691269    1.518    0.341
       101  -9.2604     96.8018     89.3982   7.0253817667e+01   4.6231859961e+01    0.3514425    0.2921737 -11.83 0.0009138469    1.309    0.236
       102  -8.2538     11.7235     88.0040   1.0298431610e+02   5.7734718297e+01    0.1841359    0.1427939 -62.91 0.0004374202    1.115    0.103
       103  -9.3571     16.5047     88.6901   1.0111375592e+02   5.7264704197e+01    0.3283747    0.1662421 -73.76 0.0002510071    1.949    0.487
       104  -8.9407     15.6054     84.6183   1.0073354486e+02   5.8328089851e+01    0.3995927    0.1893321 -19.74  0.001681352    2.729    0.634
       105 -10.1622    139.6765     84.2938   5.6586305415e+01   3.7981043348e+01    0.5897211    0.3097701 -33.08  0.001878675    2.032    0.508
       106  -9.8396      7.0024     87.9129   1.0492982937e+02   5.8017148798e+01    0.2146886    0.1861064   4.41 0.0003671374    1.312    0.238
       107  -9.2475    174.8750     86.4326   4.9701520504e+01   2.9557561253e+01    0.4630333    0.2123464  39.66 0.0006986556    2.784    0.641
       108  -9.7528    163.4738     85.4646   5.1657867421e+01   3.2306575039e+01    0.4049208    0.3073042  80.01  0.001954712    1.644    0.392
       109  -8.8755     88.3441     83.9735   7.1423206534e+01   4.9034572566e+01    0.3020614    0.1949198  29.90 0.0006051802    1.638    0.389
       110 -11.1920     84.3674     76.0927   7.0297670821e+01   5.1453273514e+01     1.343749    0.7816009 -22.81  0.005257395    2.396    0.583
       111 -11.6395     81.5657     57.2394   6.4701286117e+01   5.5673919480e+01     1.073456    0.7396041 -45.54  0.002290532    1.567    0.362
       112  -9.3791    133.5130    247.5038   9.1126495916e+01   6.3757145048e+00    0.1240637    0.0999995  27.41 -3.914533e-05    1.035    0.033
       113 -11.5644     33.1023     72.7200   9.0233866838e+01   5.9743551640e+01     1.528801    0.8227791 -29.76  0.006868439    2.044    0.511
       114 -11.7258     27.8767     64.3883   9.0347161709e+01   6.2163652294e+01      1.12925     0.443297 -42.11  0.004610314    2.312    0.567
       115 -10.9169     87.8211     46.9697   5.8590922455e+01   5.6150660635e+01    0.5599945    0.4599262  12.60  0.003038981    1.243    0.196
       116 -10.8344     20.0621     56.6319   9.1975917969e+01   6.4585938054e+01    0.4713445    0.3078911  13.30  0.001860896    1.611    0.379
       117 -10.2916    198.4180    245.1932   7.7818063471e+01  -1.7792600376e+00    0.2315276    0.1775339 -12.42  0.001607626    1.211    0.175
       118 -12.1387    178.0138    241.4851   8.1210983265e+01   1.3505888777e+00     0.723228    0.4850546  23.42  0.004506457    1.221    0.181
       119  -9.1028    245.2961    242.3215   6.9084796448e+01  -6.8356508097e+00    0.1151744   0.06409863  -3.73 0.0002626763    1.617    0.382
       120 -11.0292     82.4910     38.7434   5.7078792840e+01   5.8546000065e+01    0.8036171    0.7200785   3.08  0.003262684    1.077    0.072
       121 -11.0505     85.9924     30.1884   5.2330278296e+01   5.8987816996e+01     1.310918    0.6171933  62.47  0.005109224    2.762    0.638
       122  -9.0031    221.0154    239.5234   7.2810464228e+01  -3.7709645922e+00    0.1712463   0.09401023  25.37  0.000833898    1.575    0.365
       123 -11.5407     39.6360     61.3729   8.3803485658e+01   6.1579284643e+01    0.5703775    0.4041183  10.71 0.0006679021    1.469    0.319
       124 -10.8557     42.4621     54.0243   7.9923542750e+01   6.2775512189e+01    0.7854734    0.4328796   3.91  0.003283941    2.609    0.617
       125 -10.0875     96.0601     55.9379   5.9307529037e+01   5.2904355325e+01    0.2706769    0.2439778 -10.77 0.0002886725    1.110    0.099
       126 -10.6070    191.9588    233.4883   7.7270021307e+01   6.7698356091e-01    0.2760966    0.2678369  35.59  0.001856434    1.599    0.375
       127  -9.1301    145.0848     83.1895   5.4987435458e+01   3.6940332017e+01    0.2236171    0.2013687  21.80 0.0003611013    1.174    0.149
       128 -11.9087    116.3614     78.4331   6.0884102710e+01   4.4362494559e+01     1.222743    0.7109177 -47.24  0.005152187    1.832    0.454
       129 -10.4720     96.2435     73.6965   6.5462291730e+01   4.9593426437e+01     0.735397    0.3982036 -38.70   0.00306107    1.873    0.466
       130  -9.7128    128.0333     80.1501   5.8253396936e+01   4.1414224611e+01    0.3468729    0.2580161 -20.15 0.0003213571    1.538    0.350
       131 -10.8454    126.5826     74.6994   5.6935258571e+01   4.2750662649e+01    0.7719843     0.325207  47.18  0.002214424    2.318    0.569
       132  -9.4480    153.8031     61.9907   4.6843419324e+01   3.8453914852e+01    0.4582134    0.2437203 -37.75  0.001447603    1.861    0.463
       133 -10.8233    119.5403     61.0473   5.4326248558e+01   4.6756903271e+01    0.6544122    0.5523361  -6.92  0.001664941    1.307    0.235
       134 -11.6857    107.8341     63.5014   5.8408685332e+01   4.9007340430e+01     1.661491    0.9611412 -18.39  0.006499518    2.472    0.596
       135  -9.8819    117.3482     66.9985   5.6902793057e+01   4.6243321173e+01    0.5652778    0.2968034  45.49  0.001915583    1.852    0.460
       136 -12.0487    149.8801     68.1128   4.9467789399e+01   3.8417416995e+01     1.070203    0.8167367 -66.61  0.005275911    1.549    0.354
       137 -11.7607    139.8332     72.3393   5.2956954899e+01   4.0084947401e+01    0.9790763    0.4354944  55.97  0.001119005    2.333    0.571
       138  -9.4617     40.6906     80.9773   8.9099996265e+01   5.6998063999e+01    0.4090801    0.1826282  24.98   0.00143152    2.375    0.579
       139  -9.4424      7.7537     80.3586   1.0334279862e+02   5.9831555338e+01    0.4895706    0.2092509 -24.37  0.002050165    2.841    0.648
       140  -9.5015      9.6822     76.0514   1.0168676490e+02   6.0770984390e+01    0.4477085    0.1679056  25.20  0.001932015    2.840    0.648
       141  -8.5972      1.8324     80.8126   1.0598713715e+02   6.0001206255e+01    0.1646062    0.1432253  77.07 0.0005048529    1.303    0.232
       142 -11.2770    171.6783     77.1563   4.7789137599e+01   3.1834155609e+01    0.5583339    0.4796083  31.02  0.001889219    1.294    0.227
       143 -10.2563    174.0186     71.7876   4.5900515199e+01   3.2160008087e+01     0.320764    0.2703992  30.36  0.001266142    1.354    0.261
       144 -10.6409    136.7016     77.5479   5.5285207439e+01   3.9899611640e+01    0.5994561     0.353366  64.53  0.001248744    2.115    0.527
       145  -9.7488     72.3320     76.2570   7.4779990715e+01   5.3584166873e+01    0.3381058    0.2573766  23.98 0.0009933583    1.340    0.254
       146  -9.1863     16.0893     75.1152   9.8588816909e+01   6.0602006446e+01    0.4586768    0.2681256  60.30  0.002105112    2.596    0.615
       147  -9.7396    163.3045     74.5693   4.8647331471e+01   3.4196700096e+01    0.4222323     0.178365  55.94  0.001598022    2.402    0.584
       148 -10.2282    193.4315     72.1361   4.2833251802e+01   2.7722382240e+01    0.2785612    0.1861809  88.00  0.001296266    1.963    0.491
       149  -9.5090    181.7405     71.6177   4.4542644310e+01   3.0418978128e+01    0.1888227     0.174857 -34.67 0.0008464577    1.081    0.075
       150 -10.0030     18.1617     67.0251   9.5737175695e+01   6.2367872913e+01    0.5373146      0.27439 -61.03  0.002050929    1.742    0.426
       151  -9.1120      8.2459     71.2376   1.0138941047e+02   6.2002287000e+01    0.3020462    0.2024654 -87.20  0.001197584    1.741    0.426
       152 -10.3319     10.9447     67.4245   9.9300160492e+01   6.2751896567e+01    0.3977911    0.2515101  21.53  0.001332772    1.759    0.432
       153  -8.6844      2.5928     71.1780   1.0400443360e+02   6.2290891625e+01    0.2683844    0.1598284 -52.03  0.001477232    1.349    0.259
       154  -8.9496    123.1906     68.0230   5.5680863565e+01   4.4720852255e+01    0.3348991     0.193683 -45.26 0.0009104183    1.836    0.455
       155  -8.2956     44.2845     69.0010   8.4100388495e+01   5.9335232095e+01    0.2587678    0.1337102 -14.80 0.0009091536    3.413    0.707
       156 -11.2565    206.1597     67.6991   3.9917334906e+01   2.5619989697e+01    0.3607838    0.2247691  71.77  0.001370168    1.832    0.454
       157  -9.4558    194.4922     76.9680   4.3899704756e+01   2.6747862448e+01    0.2042107    0.1852395  76.03 0.0005583645    1.163    0.140
       158 -10.1881    168.2074     67.9314   4.5862851111e+01   3.4116687041e+01    0.3618317    0.2594942 -77.60  0.001728954    1.767    0.434
       159  -9.9220     93.9603     66.9291   6.3913118246e+01   5.1371239558e+01    0.2887431    0.2717162  14.38  0.001068991    1.012    0.012
       160 -10.2596     97.3560     61.3017   6.0834224236e+01   5.1689651855e+01    0.3656424    0.2610717  16.35  0.001164752    1.692    0.409
       161  -9.9113    222.2176     63.6070   3.6955983880e+01   2.2862904797e+01    0.1672481    0.1165146  52.91 0.0005480356    1.641    0.390
       162  -8.7015    141.6539     40.2843   4.2445579898e+01   4.4498782327e+01    0.3487233    0.2853602  48.95 0.0007054663    1.195    0.163
       163 -10.0013    212.9421    216.5139   7.0524413428e+01   3.6707785525e-01    0.1867508    0.1420669 -13.37 0.0005592706    1.128    0.113
       164  -9.1919    219.6764    210.0134   6.8177082863e+01   4.1799209905e-01    0.1729121    0.1356984 -13.66 0.0005378177    1.112    0.101
       165 -12.4584    163.0858     56.1945   4.3420100585e+01   3.7100337745e+01     1.021432    0.8250685   7.42  0.005389967    1.562    0.360
       166 -10.0457    123.0945     39.6113   4.6055101539e+01   4.9120322837e+01    0.5157062    0.2994181 -31.56  0.001150102    1.816    0.449
       167 -10.9805     60.2790     64.4559   7.5651573029e+01   5.8058803557e+01    0.9250216    0.7950106  22.98  0.004383672    1.162    0.139
       168  -9.8492    230.4647    203.8260   6.5181860681e+01  -1.0624053292e-01    0.2762091    0.2227701  62.51  0.001608329    2.649    0.623
       169  -9.6848    176.0121     60.9746   4.2599866083e+01   3.3347962821e+01    0.4127011    0.1309436  49.91  0.001408658    3.289    0.696
       170  -9.9616    173.7383     65.8088   4.4306672224e+01   3.3153468399e+01    0.3016125    0.2535081  23.11  0.001519285    1.419    0.295
       171  -9.4138     48.4250     60.4915   7.9441549751e+01   6.0636814266e+01    0.2489708    0.2258407 -21.66  0.001479399    1.057    0.054
       172 -12.0048    203.7447     57.5326   3.7735321387e+01   2.7576465983e+01    0.4675664    0.3623019  14.41  0.002568507    1.816    0.449
       173 -11.6515    208.8508     56.8095   3.6927992497e+01   2.6574877223e+01    0.5289525    0.3408097  -2.60  0.002439264    2.657    0.624
       174 -11.3772    189.6704     57.6381   3.9642451239e+01   3.0686898282e+01    0.4066094    0.2066492 -48.82  0.001817953    1.968    0.492
       175  -9.8000      3.5539     51.6112   9.9313127347e+01   6.6776089154e+01    0.3569722    0.2357272 -25.28  0.002102815    1.403    0.287
       176  -8.4251      6.7781     59.0182   9.9427881674e+01   6.4935772570e+01    0.2041983    0.1185917 -38.18 0.0004069994    1.484    0.326
       177  -9.8733      3.6253     56.0575   1.0035509733e+02   6.5769996311e+01    0.3823584    0.2714151  -3.74  0.001732204    1.481    0.325
       178  -7.6961    101.2785    176.2421   8.8591363411e+01   2.5084763348e+01    0.1347768    0.1093311  -8.07            0    1.447    0.309
       179  -8.2454     68.0941     55.0523   6.9006180750e+01   5.8606025349e+01    0.2291157    0.1857584  82.33  0.001140957    1.979    0.495
       180  -9.1586     16.0000    175.4152   1.1141983794e+02   3.5568435513e+01    0.2786227   0.06473509 -76.28 0.0009352872    3.939    0.746
       181  -9.1412    236.3156    168.3520   5.7581904184e+01   4.3262443435e+00     0.133742   0.08449838  -7.04 0.0005304617    1.735    0.423
       182 -10.3615     70.4258     40.9435   6.2411254386e+01   6.0635224605e+01    0.6429133    0.3392377  37.74  0.001491744    1.818    0.450
       183 -10.2047    164.6535     39.8555   3.8415091713e+01   3.8941435330e+01    0.2925444    0.2703321  -3.44 0.0002549856    1.246    0.198
       184 -10.4212    129.1856     38.0776   4.4196171842e+01   4.7839033086e+01     0.727558    0.3575741  70.62   0.00276209    2.428    0.588
       185  -8.7010    110.9607     44.9892   5.0950628815e+01   5.1267920652e+01    0.1995704    0.1955482  64.75            0    1.089    0.082
       186 -11.0701    193.9698     43.5649   3.5439689270e+01   3.1598653774e+01    0.2520436    0.2302847  20.90  0.001572025    1.344    0.256
       187 -10.7197    189.4410     41.8726   3.5560585565e+01   3.2843738434e+01    0.3168938    0.1559012  57.51  0.001137965    2.027    0.507
       188  -9.3166     23.4619     43.6761   8.5903577495e+01   6.7047580903e+01     0.255246    0.2087518  -2.47 0.0008107116    1.155    0.134
       189 -11.1481    191.0824     49.0096   3.7206550178e+01   3.1545701507e+01    0.3949268    0.2213458  67.13  0.001355438    1.818    0.450
       190 -11.3910     30.7666     37.7769   7.9584737473e+01   6.7423934164e+01    0.3272493    0.2470893 -20.34 0.0006266597    1.169    0.144
       191  -8.8336     25.3966     38.2691   8.2757974014e+01   6.7929168350e+01     0.205339    0.1487431  12.60 0.0006915116    1.348    0.258
       192  -9.6768      7.4451    166.7609   1.1303924990e+02   3.8294765659e+01      0.22387    0.1733113  29.31  0.001348995    1.407    0.289
       193  -8.9563    109.6294     39.1423   4.9139500811e+01   5.2403538822e+01    0.3315714    0.2720698  58.38  0.001300392    1.188    0.158
       194  -9.5380    111.8889     34.3976   4.6799872646e+01   5.2493227790e+01      0.62559    0.3500164 -38.80  0.002520162    1.923    0.480
       195  -9.7295    175.0099     55.4401   4.1234026312e+01   3.4381642758e+01    0.2897168    0.2365619 -10.28  0.001010124    1.462    0.316
       196 -10.4103    180.2918     56.4401   4.0694571496e+01   3.3007034656e+01    0.2769246    0.2619832 -38.26    0.0016122    1.096    0.088
       197 -10.4595    138.0531     35.0750   4.1425933940e+01   4.6041709398e+01    0.5396894    0.2577461  62.93  0.001289368    1.969    0.492
       198  -8.9113    122.9953     31.8275   4.3325922687e+01   5.0130250628e+01     0.433847    0.1902722  64.19  0.001592691    2.268    0.559
       199  -9.9361    130.7843     30.4757   4.1269443158e+01   4.8382709576e+01    0.5559498    0.1876423  59.02  0.001528468    2.562    0.610
       200  -9.9586    125.9144     27.6370   4.1242830431e+01   4.9906880979e+01    0.3161281    0.2578608 -57.72   0.00033141    1.364    0.267
       201  -8.7575     38.1283     30.8230   7.2562965549e+01   6.7718858484e+01     0.177504    0.1607157   0.19 0.0003150319    1.173    0.148
       202  -9.0209    154.2453     30.0614   3.7087685813e+01   4.2655753543e+01    0.2433164    0.1735522 -75.46 0.0007059866    1.553    0.356
       203 -10.7853      5.6057    158.6580   1.1296579864e+02   4.0383409904e+01    0.3847001    0.2726228 -86.54  0.002304193    1.226    0.184
       204  -8.7012     30.4946    157.5325   1.0585181819e+02   3.8675926650e+01    0.1329186    0.1202032  88.51 1.419759e-05    1.003    0.003
       205  -7.8084     19.3239    149.7577   1.0831562289e+02   4.1582945151e+01    0.1314158   0.08719646  57.58 0.0002427824    1.527    0.345
       206  -8.8880     25.3850     26.3057   7.7561042693e+01   7.0138369719e+01    0.4839559    0.1736961  29.11  0.002079478    2.751    0.636
       207  -9.8440    107.2297     25.3327   4.4477279882e+01   5.4697252115e+01    0.3012491    0.2527818  53.98 0.0009277727    1.085    0.078
       208  -9.3877    103.6964     23.6855   4.4689856093e+01   5.5722150075e+01    0.2829845    0.1915022  39.86 0.0005792595    1.408    0.290
       209  -8.4223    148.1909     24.5875   3.6323644412e+01   4.4753220107e+01    0.2037375    0.1087919  55.42 0.0009492483    1.725    0.420
       210  -9.1245     94.7549     24.1561   4.7206433989e+01   5.7757552669e+01    0.2125508    0.1704897  60.65 0.0002934263    1.240    0.194
       211  -9.7259      1.7195    144.8307   1.1304516010e+02   4.4026221593e+01    0.3947913    0.1476333 -87.67  0.001615888    2.631    0.620
       212  -8.8797    236.6696    146.6812   5.3200440548e+01   7.6091060850e+00    0.1318519   0.08927492  -4.67 0.0007047814    1.689    0.408
       213 -10.2315    131.8252     21.0347   3.7847792237e+01   4.9167666202e+01    0.4535988    0.2735223 -72.41  0.002052523    2.252    0.556
       214  -9.2709    112.2678     22.3781   4.2183738521e+01   5.3814049979e+01    0.3875848    0.1790855  37.63  0.001462279    2.514    0.602
       215  -8.7420     30.4899     19.8892   7.1392258047e+01   7.0555871143e+01    0.1906889    0.1640187  34.95  0.001110509    1.458    0.314
       216  -8.3753    116.8995     16.2031   3.8900354454e+01   5.3319225480e+01    0.1896809     0.138075  42.51  0.000472818    1.322    0.244
       217  -8.1601    141.0128     14.0483   3.4044642673e+01   4.7587573604e+01    0.1462403    0.1392117  83.64 0.0003943755    1.071    0.066
       218  -8.7077     80.3174     13.0939   4.6510092501e+01   6.2214495765e+01    0.2293011    0.1551825  40.86 0.0006200184    1.292    0.226
       219 -11.1628     54.7454     45.0538   7.0713570750e+01   6.2712870424e+01     1.107551    0.4374538  27.14  0.003901185    3.361    0.702
       220  -9.6622     36.0868    144.1089   1.0259535770e+02   4.1536068403e+01    0.2004945    0.1726965 -49.71 -0.0006383859    1.183    0.155
