#   1 NUMBER                 Running object number                                     
#   2 MAG_AUTO               Kron-like elliptical aperture magnitude                    [mag]
#   3 X_IMAGE                Object position along x                                    [pixel]
#   4 Y_IMAGE                Object position along y                                    [pixel]
#   5 X_WORLD                Barycenter position along world x axis                     [deg]
#   6 Y_WORLD                Barycenter position along world y axis                     [deg]
#   7 A_WORLD                Profile RMS along major axis (world units)                 [deg]
#   8 B_WORLD                Profile RMS along minor axis (world units)                 [deg]
#   9 THETA_WORLD            Position angle (CCW/world-x)                               [deg]
#  10 FWHM_WORLD             FWHM assuming a gaussian core                              [deg]
#  11 ELONGATION             A_IMAGE/B_IMAGE                                           
#  12 ELLIPTICITY            1 - B_IMAGE/A_IMAGE                                       
         1 -10.6221    192.1668     29.4264   6.0834696293e+01   3.3876984617e+01    0.5706128    0.4964753  -1.35  0.002984913    1.697    0.411
         2  -7.6564    120.2316      9.2367   6.6369970748e+01   5.2178334402e+01     0.174556   0.08446369 -39.23 0.0005316159    2.449    0.592
         3  -7.3098    144.6261      6.5362   6.1589147870e+01   4.7024365665e+01     0.118479   0.09995975  72.28 0.0001025772    1.035    0.034
         4  -8.1441    209.6284      3.5265   5.3581496771e+01   3.2924649922e+01     0.192334     0.141022  27.65  0.001163127    2.497    0.600
         5  -9.3136    248.5347    241.1720   9.5879128762e+01  -1.3259952566e+01    0.2074573    0.1836514   5.92 0.0003167427    1.269    0.212
         6  -7.3320    250.3413    250.3148   9.7123429765e+01  -1.4787306290e+01    0.1237036   0.07477383  -4.17 0.0007047716    1.705    0.414
         7 -10.1010    230.5671    250.4438   1.0072152889e+02  -1.2299453372e+01    0.2605744    0.1513124  30.37 0.0001288739    1.621    0.383
         8  -8.3790     83.5292    231.5590   1.2839359456e+02   1.4395913654e+01    0.2467036    0.2069196  59.02  0.001039578    1.066    0.062
         9  -9.0586    125.6616    233.5119   1.1947057381e+02   7.1852992876e+00    0.3300707     0.158952 -49.72  0.001438479    2.264    0.558
        10  -9.3955    124.1213    228.8580   1.1912049586e+02   8.4184788793e+00    0.3631976    0.2407114  72.69  0.001694492    2.015    0.504
        11  -8.5339     71.2725    231.1549   1.3097306650e+02   1.6302437019e+01    0.3010577    0.2389434 -46.21  0.001752388    1.601    0.375
        12  -9.0822    133.0042    231.7982   1.1760748364e+02   6.2977445433e+00    0.2495059    0.1785812 -36.68   0.00128342    1.672    0.402
        13 -10.1747    142.5329    228.1600   1.1494931847e+02   5.4126449947e+00    0.2675464    0.2509651  -5.30 0.0003499218    1.158    0.136
        14  -9.0561    114.0480    236.5833   1.2243574614e+02   8.4765372415e+00    0.3172283    0.1226849  37.83  0.001139784    2.386    0.581
        15  -7.7853     68.5137    226.0882   1.3098892251e+02   1.7830960090e+01    0.3252652    0.1273689  40.36  0.001038983    2.332    0.571
        16  -8.4785     95.8467    223.6641   1.2467416080e+02   1.4226675476e+01    0.2517416    0.2091219  70.49 0.0009592865    1.134    0.118
        17  -9.3518     79.4077    221.1763   1.2801294923e+02   1.7344986259e+01    0.4351931    0.2333826 -56.42   0.00149558    1.917    0.478
        18  -8.2502     89.4978    219.6040   1.2554977921e+02   1.6150564585e+01    0.2447028    0.1771835  80.60 0.0007127028    1.468    0.319
        19 -10.0494     69.4007    219.0387   1.2996940463e+02   1.9310248350e+01    0.9105306    0.4551001  80.16  0.002838741    3.158    0.683
        20 -11.5072     70.4901    198.5860   1.2709044995e+02   2.4000556725e+01      1.47942    0.7005471  69.61  0.004929614    3.813    0.738
        21 -11.2573     71.3179    190.1711   1.2569877394e+02   2.5941709893e+01    0.8463213    0.6198317 -59.48  0.004449308    1.319    0.242
        22 -10.3422     71.8677    212.1239   1.2856123275e+02   2.0561898981e+01    0.5627112    0.3194023  53.24  0.001635294    1.720    0.419
        23 -11.2227     63.1472    204.4759   1.2958924493e+02   2.3623547359e+01     1.175582    0.4605247 -71.47  0.002174659    2.747    0.636
        24  -8.3109    121.9524    223.0267   1.1872312570e+02   1.0035985675e+01    0.2220067    0.2074798  54.87  0.000881172    1.021    0.020
        25  -8.7328     78.0376    212.3083   1.2717868548e+02   1.9603468558e+01    0.2335162    0.1861748 -78.62 0.0004393174    1.193    0.162
        26  -7.5849    144.4894    213.5393   1.1209063719e+02   8.1367801682e+00    0.1430341    0.1364708  37.38 0.0002377064    1.014    0.014
        27  -9.2900    101.8204    202.3157   1.2016463408e+02   1.8174532556e+01    0.5730737    0.2967972 -81.85  0.001937637    3.490    0.714
        28  -8.9234     55.8587    199.0653   1.3060182277e+02   2.5920185780e+01    0.2148004    0.1602123  80.04 0.0004646962    1.275    0.215
        29  -8.0286    250.7252    198.1580   8.7703144612e+01  -6.7342127975e+00    0.1750501   0.09513229 -33.89 0.0008869909    1.611    0.379
        30 -13.7915     57.9900    248.6192   1.3547978984e+02   1.4412321517e+01     3.437861     1.278408  40.65   0.01569691    2.342    0.573
        31 -14.0058     19.0064    231.2310   1.4159353395e+02   2.2927798573e+01     1.138287    0.8800401  52.43  0.005732906    1.297    0.229
        32  -7.9031     81.9860    194.4938   1.2373506241e+02   2.3271859464e+01    0.2172121    0.1351346  42.51  0.001021579    1.592    0.372
        33  -8.0457    135.6993    195.5682   1.1093134492e+02   1.3740400084e+01     0.259608    0.1849095 -79.24   0.00072911    1.817    0.450
        34  -8.5813     52.9265    193.2803   1.3056369612e+02   2.7713789811e+01    0.1895084    0.1664151  71.23 0.0005537469    1.095    0.087
        35 -13.1910     11.3531    241.0724   1.4370785169e+02   2.1647482004e+01    0.5233604    0.3516102  53.50  0.001680909    1.336    0.251
        36  -9.6836     60.0195    187.2161   1.2804727223e+02   2.8265773551e+01    0.3975725    0.2401222  66.73  0.001839919    1.897    0.473
        37  -9.6595     54.5044    184.4992   1.2902720520e+02   2.9672979692e+01     0.291262    0.1865157  41.43 0.0009527022    1.616    0.381
        38  -8.1562     13.8800    184.0898   1.3862832314e+02   3.4284675827e+01    0.1869157    0.1632412  58.41 0.0004775465    1.257    0.204
        39  -9.5883     31.7730    182.0755   1.3423763568e+02   3.2979994567e+01    0.3643791    0.1472831  45.49  0.001582834    2.531    0.605
        40  -9.0718    249.1239    180.1483   8.4528381062e+01  -3.3659709500e+00    0.3109546    0.2399266 -66.74  0.001451201    1.785    0.440
        41  -7.4658    162.4562    179.0242   1.0145830795e+02   1.2388361089e+01    0.2258183    0.1478935 -48.79 0.0004248125    1.512    0.339
        42  -7.6353    100.5723    176.4266   1.1607582817e+02   2.4690914288e+01    0.2816388    0.1229998 -46.13 0.0006987443    2.470    0.595
        43  -9.5028     32.1477    186.4597   1.3465359469e+02   3.1868315702e+01    0.4427276    0.1904461  45.95  0.001998957    2.351    0.575
        44  -7.6632     19.8881    177.2781   1.3652792524e+02   3.5361593998e+01    0.1682568    0.1502896  86.77 0.0004852354    1.127    0.113
        45  -9.1003     82.2595    175.6411   1.2065270164e+02   2.7907576620e+01    0.4076969    0.2064626 -42.11  0.001577836    2.432    0.589
        46  -8.6439     85.8939    170.5378   1.1881961164e+02   2.8613040701e+01    0.2974298     0.222285 -32.03 0.0009895776    1.659    0.397
        47  -8.9902    237.3126    175.0573   8.5539104352e+01  -5.7273407207e-01    0.2460699    0.1953575  37.86            0    1.425    0.298
        48  -8.0669      8.6720    174.9393   1.3892353858e+02   3.6938628444e+01    0.2284208    0.1699889  10.94  0.001355928    1.892    0.471
        49  -7.1409      4.2180    175.3614   1.3999539374e+02   3.7207726450e+01    0.1243477   0.07296853 -58.33  0.000304423    1.566    0.361
        50 -14.9956     22.5238    249.0913   1.4222275459e+02   1.8749926354e+01     1.185295     1.017522 -43.79  0.003270336    1.813    0.449
        51 -14.3050     10.8815    249.8171   1.4434672557e+02   1.9890033589e+01     1.003005    0.4159242  55.01  0.004209824    1.990    0.498
        52  -9.0804     17.3579    173.0506   1.3666989012e+02   3.6626038627e+01    0.3575955    0.1560504  22.93  0.001620114    2.999    0.667
        53  -8.7333    237.9607    170.4218   8.4503150740e+01   1.8098181885e-01    0.2434444    0.1750586 -39.12 0.0003340559    1.208    0.172
        54  -7.2592     81.5045    170.5318   1.1997032556e+02   2.9310571515e+01    0.1492569     0.136111 -86.02 7.239833e-05    1.033    0.032
        55  -9.3271     92.7499    167.9305   1.1654227604e+02   2.8143116323e+01    0.2470842    0.2336706  79.20 0.0002326075    1.045    0.044
        56  -9.5896    103.1106    239.5093   1.2518025707e+02   9.6355435773e+00    0.5151181    0.3068786  18.57  0.002222738    2.726    0.633
        57  -8.4495    159.0045    166.3381   9.9592221544e+01   1.5948181588e+01    0.2603167    0.2126554 -38.03 0.0003231592    1.242    0.195
        58  -8.2435    238.0394    165.5141   8.3505946444e+01   1.0834073831e+00     0.197752    0.1631602 -38.22 0.0003486038    1.050    0.048
        59  -8.5987     48.0073    164.9847   1.2789518770e+02   3.5369925191e+01    0.2223926    0.1548916 -39.45  0.001131576    1.671    0.402
        60 -10.1563    206.1547    163.1371   8.8823810611e+01   7.2771213161e+00    0.2614307    0.2587522 -59.10 0.0003061689    1.090    0.082
        61  -7.8295     92.5055    161.9076   1.1546644866e+02   2.9695592741e+01    0.2311397    0.1431115 -57.19 0.0008723607    1.533    0.348
        62  -8.6316     62.0409    162.3750   1.2375095155e+02   3.4222682661e+01    0.2709057    0.1460659  21.48  0.001118089    2.530    0.605
        63  -9.1946     57.0715    161.0246   1.2486499070e+02   3.5226178555e+01    0.2729904    0.1863628 -72.85  0.001365406    1.385    0.278
        64  -9.9706     81.4255    156.5991   1.1745050377e+02   3.2835728848e+01    0.4225011    0.2859031 -43.95 0.0008958002    1.532    0.347
        65 -10.5254     50.8872    154.7931   1.2552707833e+02   3.7578715581e+01    0.6747689    0.2691079 -44.04  0.002459688    2.970    0.663
        66  -8.4262     97.1693    155.4421   1.1292899847e+02   3.0517080724e+01    0.3533565    0.2000222 -56.83  0.001473179    1.697    0.411
        67  -8.8278     91.9285    152.7128   1.1380346351e+02   3.2096759246e+01    0.2538717    0.2050254 -63.15 0.0002921348    1.188    0.158
        68  -9.6864     70.6751    145.2998   1.1827434523e+02   3.7304504682e+01     0.362354    0.2427221 -64.94  0.001185347    1.434    0.303
        69  -9.9183     67.7819    142.9989   1.1865255974e+02   3.8295735561e+01     0.379142    0.3244605  73.01  0.001259663    1.279    0.218
        70  -9.4178    107.2277    234.8894   1.2368485423e+02   9.9452456823e+00     0.312101    0.2338638  -4.94  0.001339066    2.161    0.537
        71  -7.6946     10.0872    146.8941   1.3543614859e+02   4.3587795822e+01    0.1798724    0.1462173  84.11 0.0003670894    1.217    0.178
        72  -8.5217    225.7815    145.9404   8.1581442676e+01   7.0011122148e+00    0.2036023     0.201294  52.54 0.0003881317    1.141    0.124
        73  -7.4461    211.5612    144.7765   8.3866104172e+01   9.9580276957e+00    0.2126332    0.1271643 -54.17 0.0009369472    1.709    0.415
        74  -7.6482    153.9507    143.6895   9.5726673893e+01   2.2180854643e+01    0.2082157     0.202129  73.73 0.0003531271    1.046    0.044
        75  -8.7433     97.0944    140.0390   1.0967545161e+02   3.4342404667e+01    0.2658651    0.2393739  24.96 0.0003538706    1.207    0.172
        76  -8.0008    135.3862    148.1107   1.0128226078e+02   2.5026952817e+01    0.2568937    0.2186388  26.42 0.0006405329    1.301    0.231
        77  -7.3970    158.4928    139.0269   9.3575780892e+01   2.2265638805e+01      0.22812    0.1515715 -46.03 0.0004531539    1.464    0.317
        78  -8.1799     40.5187    130.0713   1.2420963110e+02   4.4897285797e+01    0.1865466    0.1826174 -16.92 0.0004466803    1.155    0.134
        79  -8.5703     87.5319    234.3613   1.2787324989e+02   1.3173266643e+01    0.2961903     0.238782  35.84   0.00172956    1.321    0.243
        80  -7.1673     19.2801    126.2862   1.2990976305e+02   4.7812857709e+01    0.1298207   0.08184358 -42.74 0.0002268525    1.519    0.342
        81  -8.0469    242.8444    120.1421   7.3508510734e+01   8.6870288037e+00    0.2069297    0.1600137 -61.94 0.0004207992    1.222    0.182
        82  -6.9636    181.9987    120.7890   8.4142637034e+01   2.1060103384e+01    0.1850729    0.1229178  51.41 0.0003388058    1.565    0.361
        83  -8.5742    167.9789     97.9380   8.1428951655e+01   2.8779940925e+01     0.214164    0.2057927 -78.60            0    1.028    0.027
        84  -7.3368    130.5796     96.5332   8.9616492389e+01   3.7482427102e+01    0.1464454    0.1460141 -30.66 0.0001240365    1.017    0.016
        85  -9.6948    224.1781     90.8538   7.0079082126e+01   1.7618330892e+01    0.2475448    0.2166251 -81.92 0.0002520993    1.083    0.076
        86  -9.0313    228.7538     87.1537   6.8656272628e+01   1.7308139833e+01    0.3232673    0.2257946  29.11 0.0009014744    2.536    0.606
        87  -8.2017    111.0672     78.7259   8.9722096081e+01   4.5008699324e+01    0.2190828    0.1986431 -26.87 0.0003067993    1.122    0.109
        88  -7.3759     19.5248     78.5743   1.2028327740e+02   5.8436195516e+01    0.1238463   0.09949654 -35.63  4.95178e-05    1.017    0.017
        89  -7.6288    250.5945     73.2595   6.3165807451e+01   1.5234079990e+01    0.1705078     0.109985 -38.42 0.0009480048    1.622    0.384
        90  -7.5752    212.0202     72.0000   6.7706870527e+01   2.3388969852e+01    0.2133655   0.07383222  60.82 0.0005112442    2.916    0.657
        91  -7.3219    168.1863     71.2137   7.4598119232e+01   3.3498184572e+01    0.1871434    0.1548053 -78.47 0.0004335212    1.241    0.194
        92  -8.6719    142.3866     60.3597   7.6807867460e+01   4.1191998584e+01    0.2867476    0.1911992  35.23  0.000516322    1.742    0.426
        93 -10.3321    124.7980     56.7584   7.9696346686e+01   4.5686701126e+01    0.2438175    0.2286282  42.72 0.0002578954    1.022    0.021
        94  -7.6741    136.0073     53.7386   7.6293500058e+01   4.3621100353e+01    0.1911886    0.1619386  53.65  0.000224243    1.086    0.079
        95  -8.4543    173.5842     48.9273   6.8041073424e+01   3.5610997899e+01    0.3269424    0.1802455  85.52  0.001392831    2.422    0.587
        96  -9.5519    220.6295     42.1555   6.0283241519e+01   2.5965877864e+01    0.3282802    0.2506969 -40.96  0.001302654    1.458    0.314
        97 -10.4068    183.9333     38.5350   6.3993696065e+01   3.4611292593e+01    0.5593622    0.3509862  86.95  0.002925555    1.646    0.392
        98  -8.7458    194.0903     34.8885   6.1823612021e+01   3.2767635859e+01    0.2756623    0.1881198 -74.99 0.0003192173    1.431    0.301
        99  -9.9524    187.0023     33.9820   6.2521069889e+01   3.4487058321e+01    0.5286228    0.2271861 -51.81  0.002355783    2.480    0.597
       100 -14.3358     10.1457    211.2046   1.4180401244e+02   2.8305121630e+01     4.442331     3.337904  51.23    0.0296325    1.357    0.263
       101  -7.9034    167.0765     24.9447   6.3069125007e+01   4.0111568415e+01     0.184807    0.1582058  75.65            0    1.038    0.037
       102  -7.5091    188.3785    246.2916   1.0821204929e+02  -5.5551977156e+00    0.1363226   0.09248167   4.18 0.0007020009    1.741    0.426
       103  -8.1791    115.9343    244.3914   1.2308748893e+02   6.5714076455e+00    0.2134034    0.1743451 -89.19 0.0005903451    1.344    0.256
