#   1 NUMBER                 Running object number                                     
#   2 MAG_AUTO               Kron-like elliptical aperture magnitude                    [mag]
#   3 X_IMAGE                Object position along x                                    [pixel]
#   4 Y_IMAGE                Object position along y                                    [pixel]
#   5 X_WORLD                Barycenter position along world x axis                     [deg]
#   6 Y_WORLD                Barycenter position along world y axis                     [deg]
#   7 A_WORLD                Profile RMS along major axis (world units)                 [deg]
#   8 B_WORLD                Profile RMS along minor axis (world units)                 [deg]
#   9 THETA_WORLD            Position angle (CCW/world-x)                               [deg]
#  10 FWHM_WORLD             FWHM assuming a gaussian core                              [deg]
#  11 ELONGATION             A_IMAGE/B_IMAGE                                           
#  12 ELLIPTICITY            1 - B_IMAGE/A_IMAGE                                       
         1 -11.2962    196.9263     13.1901   4.2403696896e+01   3.4189353161e+01      2.41953     1.034347 -74.34  0.007948598    4.112    0.757
         2 -12.5120    234.9565     64.8648   5.1060137292e+01   1.8218841166e+01     4.014321    0.5772336 -41.81   0.01055111    5.156    0.806
         3 -13.2465    229.7977     44.7180   4.6752658215e+01   2.2311127631e+01     10.29651          nan -37.46   0.02251516    7.887    0.873
         4 -12.0250    183.2577     80.4237   6.3443120774e+01   2.8045700502e+01     2.365076    0.6636476 -43.99  0.006748676    3.691    0.729
         5 -12.3124    163.9429     53.4723   5.9259296388e+01   3.7392919864e+01      3.50965      1.74281 -68.98  0.008242017    7.069    0.859
         6 -11.3428    221.7591     38.0021   4.6018340809e+01   2.5112555072e+01    0.9314396    0.4353939 -53.83  0.003409357    2.259    0.557
         7 -12.1259    131.2626     37.8762   6.1093517867e+01   4.7815243009e+01     1.827237    0.6398721  60.12  0.006114006    3.084    0.676
         8 -10.2595    179.9549     23.0444   4.7309831584e+01   3.7385575993e+01    0.7786224    0.5434188 -84.51  0.003915123    1.550    0.355
         9  -9.1149    223.9226     16.6114   4.0500501776e+01   2.7241186150e+01    0.3517541    0.1395042 -46.08  0.001139757    2.280    0.561
        10  -9.6183    133.7008     15.5445   5.2572901588e+01   4.9916684666e+01    0.3379085    0.2307092 -25.65 0.0008842346    1.577    0.366
        11  -9.4509    178.7245     14.9893   4.5120552810e+01   3.8592049678e+01    0.4573299    0.1868014 -31.74  0.001892728    2.442    0.591
        12  -8.8076    206.5150      8.6643   4.0205352396e+01   3.2298615289e+01    0.5460365   0.08515241  62.05  0.001690656    4.344    0.770
        13  -9.6541    216.4791      7.3658   3.8936451713e+01   3.0025244730e+01    0.4906587    0.3190003 -82.56  0.001936364    1.469    0.319
        14  -9.5992    227.1328      8.4713   3.8268810980e+01   2.7393813697e+01    0.3194979    0.2171838 -48.53 0.0005833741    1.336    0.251
        15 -11.2859    234.0426      2.6680   3.6376442817e+01   2.6421302155e+01     1.837806    0.1479267  69.13  0.005115129    6.427    0.844
        16  -9.2229    120.3415      9.3177   5.2992339903e+01   5.3757312236e+01    0.2958982    0.2614569 -36.28   0.00114662    1.281    0.219
        17  -8.4435    106.2889      8.3877   5.5801860012e+01   5.7100585058e+01    0.2157918    0.1484457 -42.38 0.0009451326    1.752    0.429
        18  -7.4300    145.7404      8.3819   4.7906575725e+01   4.7625450982e+01     0.138396   0.09708519 -58.48 0.0006974604    1.674    0.403
        19  -9.3375    173.2009      3.4238   4.2433284891e+01   4.1135661908e+01    0.5449117    0.2771077 -70.53  0.002189883    2.600    0.615
        20  -8.2826    139.5473      5.5184   4.7961663425e+01   4.9429859532e+01    0.2452999    0.1352835 -20.10 0.0006919432    2.031    0.508
        21  -8.1985    194.2809      1.7492   3.9621536234e+01   3.6001563235e+01    0.2726005    0.1313688 -47.50  0.000900489    2.065    0.516
        22  -7.2987    125.2503      1.3239   4.8998836990e+01   5.3282737226e+01    0.1345075   0.08848479  32.37 0.0003306596    1.539    0.350
        23  -8.9951    223.8417    206.4018   8.4560175007e+01  -2.5880671000e+00    0.2814921    0.2302267  71.59  0.001603513    2.164    0.538
        24  -9.0297    230.4806    160.9705   7.4341795920e+01   3.2644639774e+00    0.2091681    0.1268653 -33.89 0.0004157266    1.555    0.357
        25  -7.9621    159.0685    157.9649   8.8304641185e+01   1.8035259096e+01    0.2303055    0.1839474  87.14 0.0008055162    1.653    0.395
        26  -8.3022    222.9890    149.5646   7.3219780394e+01   6.5973001422e+00    0.2995706    0.2151224 -65.75  0.001388528    2.188    0.543
        27  -9.5953     69.3417    144.6740   1.0820200311e+02   3.7056415544e+01    0.4149551    0.2700276  74.85  0.001803968    1.816    0.449
        28  -9.6227     66.3975    144.2291   1.0890834843e+02   3.7562159919e+01    0.5393271    0.2753066 -79.06  0.001561928    2.356    0.576
        29 -10.2322    242.9578    144.6829   6.8635156565e+01   3.6120191466e+00      0.31726    0.2421937  73.78  0.001343244    2.064    0.516
        30  -8.5253    192.4989    144.0330   7.7911545423e+01   1.3830136729e+01    0.2327812    0.1971392  39.45 0.0006998685    1.182    0.154
        31  -7.9423    180.6534    143.3259   8.0251539011e+01   1.6493116615e+01    0.1545784    0.1233857 -87.87 0.0007050008    1.748    0.428
        32  -7.8211    159.5805    143.5690   8.5028199598e+01   2.0948927862e+01    0.1495436    0.1482695  40.16 0.0008009351    1.019    0.019
        33 -10.2393    113.0766    247.4887   1.1180300872e+02   9.1091448827e+00     0.198087    0.1765195  89.68 -6.294095e-05    1.271    0.213
        34  -8.1409    141.3376    246.6689   1.0644216691e+02   4.8918759133e+00    0.1237657   0.08099046  62.28  0.000705201    1.737    0.424
        35 -11.5371    243.5244     36.9583   4.3418989813e+01   2.0228449103e+01     0.643474    0.3827847  65.02  0.001896959    1.745    0.427
        36  -8.6199    115.8598    233.2110   1.0972168623e+02   1.1098235437e+01    0.1858995    0.1378719  58.98 0.0002656197    1.200    0.167
        37  -8.6569    222.9995    129.0379   6.8527292754e+01   1.0163788619e+01    0.2202386    0.2027705  -1.00 0.0004049193    1.069    0.064
        38  -9.0247    212.2652    127.4201   7.0102453775e+01   1.2712732626e+01    0.3049396      0.25482  84.83  0.001099338    1.571    0.364
        39  -8.9153    231.4716    126.2671   6.6405354269e+01   8.9061557844e+00    0.2827833    0.1329477 -31.30 0.0008591852    2.082    0.520
        40  -9.2436    202.5387    126.1963   7.1665055215e+01   1.5045854701e+01    0.3601846    0.2485922  68.53  0.001366307    1.964    0.491
        41 -11.3634    187.3615    112.5905   7.1303732550e+01   2.1061082112e+01     1.992439    0.5028698 -33.79  0.004595005    5.673    0.824
        42  -8.4270    225.4605    224.2180   8.7394537674e+01  -5.2832047727e+00    0.2079696    0.1401532  31.72 0.0004590356    1.285    0.222
        43  -9.9841    191.7889     70.3472   5.9035778065e+01   2.7657225823e+01    0.3208607    0.3018738  -7.84 0.0005454574    1.155    0.134
        44 -13.1549     15.3917    188.6245   1.2557729957e+02   3.3042607334e+01      1.16866    0.9095894 -84.01  0.002754943    1.182    0.154
        45  -9.4620    249.3064    118.8606   6.1826234589e+01   6.5995552637e+00    0.3422498    0.1550156 -29.56  0.001407292    2.161    0.537
        46  -8.7401    215.2124    119.4390   6.7636295325e+01   1.3517608198e+01    0.3398601    0.2489428 -87.75  0.001517815    2.127    0.530
        47  -8.6467    148.3717    120.0794   8.2051103685e+01   2.8428257287e+01    0.2304446    0.2118055  27.14 0.0002364792    1.131    0.116
        48  -9.8852    167.9928    113.7286   7.5779135523e+01   2.5322661787e+01    0.3452565    0.3175931  53.39 0.0004528255    1.113    0.101
        49  -8.5127    209.8393    114.3469   6.7369277725e+01   1.5617411740e+01    0.2052321    0.1358428  39.95            0    1.632    0.387
        50  -7.1109    110.7371    115.2850   9.0734732807e+01   3.7329756842e+01    0.1463756    0.1188436  89.93 0.0001960139    1.488    0.328
        51  -8.1526    156.9619    112.8013   7.8090661279e+01   2.8050260689e+01    0.2690738    0.1939898  83.94   0.00109729    2.065    0.516
        52 -10.2522    206.3351    109.2076   6.6731569141e+01   1.7339978002e+01    0.4843138    0.3429808  18.63  0.002152984    1.889    0.471
        53  -8.2292    140.0940    104.9374   8.0131655133e+01   3.3535486348e+01    0.2523765    0.1975714   1.92  0.001125799    1.670    0.401
        54 -10.1926    198.9672     99.0429   6.5494428183e+01   2.0896526181e+01    0.5089568    0.4003832  58.49  0.001712006    1.347    0.258
        55  -8.6227    145.0139    101.5006   7.7941278887e+01   3.3154040216e+01    0.3117277    0.1525447  42.33 0.0005132043    2.129    0.530
        56  -8.3434    171.8444     97.3465   7.0520948990e+01   2.7684384793e+01    0.2856522     0.208668 -51.66  0.001024341    1.435    0.303
        57  -9.2795    152.1564     96.0853   7.4669398590e+01   3.2617751165e+01    0.4757683    0.3668371 -55.91  0.002203041    1.399    0.285
        58  -8.4407    137.3638     94.3364   7.7857503778e+01   3.6388971373e+01    0.2842629    0.2150336 -82.60 0.0003063992    1.850    0.459
        59  -7.8921     93.9420     95.3259   9.0462596395e+01   4.5011900423e+01    0.1852048    0.1820811   2.06 0.0002665773    1.066    0.062
        60  -8.2740    163.1608     89.7871   7.0314674346e+01   3.1239612093e+01    0.2436987    0.2092581  23.42  0.000427045    1.287    0.223
        61  -9.3171    166.9763     87.7278   6.8879855084e+01   3.0707443680e+01    0.3566856    0.3201383  16.81 0.0009760222    1.219    0.180
        62 -10.6481    147.1676     42.3001   5.9084916416e+01   4.3283363343e+01    0.7776867      0.30215  64.70  0.002588268    3.052    0.672
        63  -9.4820    146.6329     85.7178   7.3000674036e+01   3.5988624994e+01    0.3095883    0.2842178 -18.88 0.0007116171    1.122    0.109
        64  -9.0727    205.8568     69.5195   5.6444371158e+01   2.4331679277e+01    0.5608826    0.3447633 -30.26   0.00241634    1.660    0.397
        65 -10.5161    203.4315     62.6856   5.4988813651e+01   2.6008550224e+01    0.3509059    0.3204525  51.71 0.0009103327    1.161    0.139
        66 -10.3401    210.0499     58.6887   5.2913964157e+01   2.5003059046e+01    0.4470209    0.3007569  34.23   0.00170731    1.947    0.486
        67 -11.0570    215.9734     75.5672   5.6443328598e+01   2.0929406417e+01     1.042854    0.5065653 -64.23  0.002260663    4.139    0.758
        68 -11.0421    214.1072     68.3300   5.4847581898e+01   2.2532094086e+01     1.250974    0.4857532 -55.80  0.002113624    4.557    0.781
        69  -7.2709    126.2831     81.2446   7.6894263042e+01   4.1549788884e+01    0.1469554    0.1189418  10.46 0.0006820094    1.458    0.314
        70  -7.9339    202.2835     80.0785   5.9867708002e+01   2.3450377464e+01    0.2546442    0.1588386 -60.58  0.001058126    1.973    0.493
        71 -10.9668    163.7207     77.5878   6.6636955935e+01   3.3388114313e+01    0.4046172    0.3140481 -18.71  0.000768804    1.456    0.313
        72  -7.4165    139.5372     78.5108   7.2581225048e+01   3.9058828308e+01    0.1534804    0.1519302 -39.98 3.378814e-05    1.029    0.028
        73 -10.3696    109.7344     74.9791   7.9618952609e+01   4.6347559183e+01    0.2458634    0.2363603  13.30 0.0002302676    1.044    0.042
        74  -7.3045     70.7140     74.7404   9.2152985647e+01   5.3350008133e+01    0.1356628    0.1014705 -18.23 0.0002427441    1.485    0.326
        75  -9.4342    248.1431     72.7141   5.1265747153e+01   1.4142934366e+01    0.2553683    0.1604039 -44.66 0.0007887722    1.402    0.287
        76  -8.3269    151.8468     72.0993   6.7633710523e+01   3.7299891825e+01    0.2451871    0.2129861 -66.19  0.001223479    1.272    0.214
        77  -8.0015    144.9692     70.0482   6.8609409314e+01   3.9340284469e+01    0.2425044    0.1859641 -68.55 0.0006559756    1.637    0.389
        78 -11.0550     27.1303    181.2579   1.2261968051e+02   3.3500958498e+01    0.3658771    0.3425429 -63.07   0.00120125    1.412    0.292
        79 -11.8040    184.9946     59.5785   5.7176257868e+01   3.1098660697e+01    0.5633494    0.4053147  21.55   0.00254794    1.882    0.469
        80  -9.5198    144.3882     59.3559   6.5325695785e+01   4.1336140739e+01    0.2722884    0.2526657 -57.89 0.0005608204    1.143    0.125
        81  -9.8160    245.4217     57.2775   4.7965560017e+01   1.7011874486e+01    0.4246167    0.2909806   4.26  0.001746874    2.479    0.597
        82  -7.5867     72.5628     58.4843   8.6255288728e+01   5.6402699580e+01    0.1389461    0.1230635 -23.16 6.073663e-05    1.012    0.012
        83  -9.0284    191.7327     54.3698   5.4554570854e+01   3.0198718249e+01    0.9903709    0.4543457  81.12  0.002902872    4.414    0.773
        84  -9.2255    189.0494     48.3756   5.3283108961e+01   3.1761108796e+01    0.9865572    0.2582967 -47.49  0.002531455    5.283    0.811
        85  -9.7986    186.1513     41.5130   5.1768331800e+01   3.3464751270e+01    0.5946609    0.3093814 -59.72  0.001849929    2.530    0.605
        86  -8.4485    105.8319     52.6193   7.3178154839e+01   5.1315086694e+01    0.2734499    0.1985545 -42.41 0.0008005518    1.433    0.302
        87  -8.4668    212.0527     49.6979   5.0256119218e+01   2.5840293083e+01    0.2292295    0.1744784 -54.03 0.0003535811    1.259    0.205
        88  -8.5677    197.6760     44.4548   5.0867072699e+01   3.0141491220e+01    0.3546932    0.1582672 -53.64  0.001243499    2.722    0.633
        89  -8.2104    135.4846    124.5118   8.6390974260e+01   3.0231922578e+01     0.349342    0.1370151 -60.29 0.0008089113    5.795    0.827
        90  -8.3364    205.3895    121.6714   7.0010474075e+01   1.5260565200e+01    0.2653742     0.175109 -54.74 0.0009694434    1.775    0.437
        91  -7.4835    201.2155     33.0272   4.7248080643e+01   3.0784301085e+01    0.1646398    0.1122306 -31.97 0.0002073859    1.506    0.336
        92  -9.7684    204.7132    117.4911   6.9108970076e+01   1.6183890992e+01    0.3047085    0.2785583  71.27 0.0002775231    1.227    0.185
        93 -12.8283     34.8585    175.6599   1.2046266041e+02   3.3947302323e+01     1.533319     1.185117 -11.37  0.009270855    2.199    0.545
        94 -10.3736    248.6572     24.7812   4.0167638404e+01   2.0639140437e+01    0.3384065    0.1911367 -49.24 0.0007730416    1.522    0.343
        95 -10.0889    135.1023     27.0087   5.6378442873e+01   4.8289203844e+01    0.2895186     0.227469  44.72 0.0007597094    1.190    0.159
        96 -10.3389    124.0013    205.9989   1.0459409583e+02   1.4799242347e+01    0.1888354    0.1651624  53.78            0    1.004    0.004
        97  -8.9738    174.4282     18.3433   4.6697638254e+01   3.9327097904e+01    0.2333098    0.1416712 -19.26 0.0006420922    1.930    0.482
        98  -9.0867    158.8416     23.6119   5.0736777785e+01   4.2723500433e+01    0.2055488    0.1300885  78.54 0.0009467493    1.702    0.412
        99  -8.7684    211.9907    201.1754   8.5817182545e+01   1.6161714319e-01    0.1962748     0.174076 -11.31 0.0002687784    1.149    0.130
       100  -8.5337    165.9355     18.2243   4.7902604973e+01   4.1511728018e+01    0.2649009    0.1653176  49.77 0.0006332379    1.553    0.356
       101 -10.3890    243.5219    199.4508   7.9746403603e+01  -4.7526899078e+00    0.2417069     0.211953   1.49 0.0001098629    1.169    0.145
       102  -7.8297    142.9658     17.3113   5.1433670741e+01   4.7434846855e+01    0.1902928    0.1639392  58.59 0.0002850865    1.059    0.056
       103  -9.1078    212.9952    196.5277   8.4762658084e+01   7.0360553942e-01      0.21934    0.1841096 -19.70 0.0003270596    1.191    0.160
       104  -8.9876    182.9416     13.8293   4.4241645805e+01   3.7642650414e+01    0.3033235    0.1615289  54.16  0.001382587    1.801    0.445
       105  -9.2406    213.6724    191.9064   8.3757833056e+01   1.3074776259e+00    0.2200268    0.1619771  23.42 0.0003743306    1.260    0.207
       106  -8.3479    223.4945    191.5696   8.1847251744e+01  -3.4053071371e-01    0.1339565     0.112525   8.37 8.271931e-05    1.026    0.026
       107  -9.8040    181.4502    187.5206   8.9332744758e+01   7.9119148574e+00    0.2435715    0.2300593  34.61 0.0002443258    1.101    0.092
       108  -7.9761    240.2238    187.4395   7.8019630198e+01  -2.5264800250e+00    0.1575705    0.1200756  43.48 0.0003218695    1.521    0.343
       109  -7.8826    133.9769    187.2976   9.9546378002e+01   1.6788063103e+01    0.1883013    0.1629055  44.58 0.0002506347    1.074    0.069
       110  -9.0479     66.4480    182.7610   1.1416889978e+02   2.8564004698e+01    0.1991414    0.1887091  53.91 0.0006089141    1.258    0.205
       111  -8.8056    237.9657    175.7612   7.6088106895e+01  -4.0533622738e-01    0.2162762    0.1840968  54.55 0.0009565264    1.571    0.363
       112  -8.5316    202.1347    171.9635   8.2043243677e+01   6.7441104887e+00    0.2098229     0.190699   0.40 0.0004643669    1.027    0.026
       113  -8.7007     66.9849    167.0577   1.1208400412e+02   3.2069003238e+01    0.1910309    0.1669744  85.24            0    1.020    0.019
       114  -7.3321    130.2377    164.3375   9.6328520385e+01   2.2352240120e+01    0.1400471    0.1140178 -21.65  0.000261116    1.546    0.353
