#   1 NUMBER                 Running object number                                     
#   2 MAG_AUTO               Kron-like elliptical aperture magnitude                    [mag]
#   3 X_IMAGE                Object position along x                                    [pixel]
#   4 Y_IMAGE                Object position along y                                    [pixel]
#   5 X_WORLD                Barycenter position along world x axis                     [deg]
#   6 Y_WORLD                Barycenter position along world y axis                     [deg]
#   7 A_WORLD                Profile RMS along major axis (world units)                 [deg]
#   8 B_WORLD                Profile RMS along minor axis (world units)                 [deg]
#   9 THETA_WORLD            Position angle (CCW/world-x)                               [deg]
#  10 FWHM_WORLD             FWHM assuming a gaussian core                              [deg]
#  11 ELONGATION             A_IMAGE/B_IMAGE                                           
#  12 ELLIPTICITY            1 - B_IMAGE/A_IMAGE                                       
         1 -11.6399    236.4942     27.1391   3.5793952215e+01   2.3947642391e+01    0.4794953    0.3439393  -5.29  0.001119301    2.423    0.587
         2 -11.5873    111.5747     19.5390   5.1270621474e+01   5.4302303983e+01    0.4647085    0.3856684  44.43  0.001823262    1.068    0.064
         3 -11.2762    149.9273     18.4923   4.3620062284e+01   4.5214725110e+01    0.3791328    0.2984236  51.37 0.0005061342    1.227    0.185
         4 -11.8983    155.8170     14.0185   4.1397234976e+01   4.4225000999e+01    0.9050972    0.4411445  -8.08  0.003632189    3.510    0.715
         5 -10.5110     87.0372     16.8291   5.6532984038e+01   5.9992584666e+01    0.3550062    0.1704341 -31.87  0.001274801    2.239    0.553
         6 -10.7619    102.0389     15.8531   5.2140340772e+01   5.6842164945e+01    0.3797818    0.2550659  29.69  0.001268575    1.506    0.336
         7 -10.9332     57.3203     13.6446   6.5116075087e+01   6.6030864733e+01    0.5445068    0.3138539  16.04   0.00218889    1.929    0.482
         8 -11.3323     39.5224     16.0128   7.3866860773e+01   6.8535873178e+01    0.2230198    0.1686307  15.17 3.806054e-05    1.139    0.122
         9 -11.7064    189.4387      7.2970   3.5567852506e+01   3.6773400072e+01    0.7047659    0.4716755  58.10  0.004075324    1.510    0.338
        10 -10.9503    186.8173     13.8218   3.7481418989e+01   3.6728422911e+01    0.2667873    0.2022959  84.10 0.0003326418    1.157    0.136
        11 -11.7742    182.2971     13.0002   3.7768919625e+01   3.7894622351e+01    0.5065245    0.3458029  62.41  0.001985572    1.378    0.274
        12  -9.4671      4.4033      6.9520   8.8363505311e+01   7.3707943147e+01    0.1648487    0.1519733 -41.88 0.0004830812    1.699    0.411
        13  -9.5172     20.4830     14.9818   8.2979234420e+01   7.1032047000e+01     0.263667    0.1844695 -20.07  0.001190882    1.156    0.135
        14 -10.9928     17.5518      3.2989   7.8628415642e+01   7.2950764895e+01    0.4224266    0.2128025  30.57  0.002518496    1.932    0.482
        15 -10.5798      6.8994      2.1020   8.4310846932e+01   7.4185144219e+01    0.5350147     0.189404  22.49  0.002692918    2.874    0.652
        16  -9.7322     19.2939     10.7061   8.1526872019e+01   7.1770265491e+01    0.1891077    0.1390597  -7.13  0.000259262    1.052    0.049
        17 -11.3905     15.4965      8.1630   8.2370897071e+01   7.2522053685e+01     0.489188    0.2850519  38.94  0.002033571    2.353    0.575
        18 -12.5538    122.2865     11.3110   4.6069897693e+01   5.2598578942e+01    0.4927962    0.2923221  62.10 0.0004343666    1.465    0.318
        19 -12.0170    127.1362      4.8070   4.2962085348e+01   5.2010001097e+01    0.3832906    0.2772972  43.42  0.000306587    1.320    0.243
        20 -10.8149    210.5629      9.7686   3.4203091168e+01   3.1635166050e+01    0.3938885    0.2682702 -72.39  0.001834871    1.298    0.229
        21 -11.2268    212.8198      6.2128   3.3211336621e+01   3.1500537591e+01    0.5306253    0.2828912 -75.72  0.002538233    1.843    0.457
        22 -10.0328     29.5779     17.3662   7.9355929918e+01   6.9655481545e+01    0.3304802    0.1620204 -19.34  0.001216784    2.337    0.572
        23  -9.0346    250.4659      9.4481   3.1157986407e+01   2.3160253660e+01    0.1167467   0.08983841 -68.49 9.584348e-05    1.020    0.020
        24  -9.9874     78.3901      7.7653   5.5196513081e+01   6.2662336973e+01    0.3379542    0.2013982  26.37  0.001820916    1.672    0.402
        25  -9.5274    102.0705      7.8612   4.9035747225e+01   5.7577154569e+01      0.25576    0.1435637  43.55 0.0007684889    1.564    0.361
        26 -10.5588     24.1335      7.4620   7.7227682624e+01   7.1655943243e+01    0.2933202     0.161328  15.04 0.0007643386    1.801    0.445
        27 -10.6553    107.4610      5.4779   4.6938977104e+01   5.6556396673e+01    0.3533193    0.2493713 -48.90  0.001495674    1.762    0.432
        28 -10.3038    163.9414      3.4866   3.7324369732e+01   4.3233610809e+01    0.3448635    0.1819436 -63.52  0.001364909    2.207    0.547
        29  -9.1248     65.0541      5.3323   5.8342128303e+01   6.5492973247e+01    0.1747381    0.1337142  34.43  0.000712882    1.102    0.092
        30 -10.6948     90.8356      3.3136   4.9899079390e+01   6.0433356649e+01    0.3658983    0.2656252  76.80  0.001651447    1.654    0.395
        31 -10.2036     85.2890      1.3769   5.0499324290e+01   6.1773537686e+01    0.2803204    0.1360254  65.74 0.0006213582    2.238    0.553
        32  -8.8506     51.7809      2.3954   6.1759453436e+01   6.8155437070e+01    0.1770568   0.08944285  36.99 0.0009564607    1.684    0.406
        33  -9.0360     34.4515      1.9644   6.9053891700e+01   7.0941745251e+01    0.1567245   0.09861401 -18.61 0.0003274305    1.471    0.320
        34 -10.7634     46.5156      9.4150   6.7471620281e+01   6.8294549765e+01    0.3809543    0.2400405  19.24  0.001748573    1.462    0.316
        35  -9.7112    137.3510      1.5522   4.0270256809e+01   4.9826712294e+01    0.2390333    0.1143354  75.08 0.0005459395    1.986    0.497
        36  -9.4503    101.5052      1.5075   4.6696031651e+01   5.8221011330e+01    0.2236586    0.1166571  75.14  0.001013978    2.286    0.563
        37  -8.4711     40.7184      5.2854   6.7910975094e+01   6.9652456365e+01   0.09658459   0.09247961  -6.57 0.0006935053    1.520    0.342
        38  -9.3776     38.3370    114.6366   1.0540365924e+02   4.8628286877e+01    0.1437823   0.09892914  72.83 0.0007034405    1.827    0.453
        39  -9.2076     46.1675    113.1263   1.0252525024e+02   4.8173165535e+01    0.1861468    0.1587641  75.59 0.0007563099    1.318    0.241
        40  -9.2726     32.0223    113.4736   1.0727307335e+02   4.9524484451e+01    0.1728619    0.1365203  19.08 -1.093911e-06    1.489    0.328
        41 -11.2579     20.2355    109.3752   1.1047832303e+02   5.1520354597e+01     0.407881    0.2443464  40.33  0.001305399    1.940    0.485
        42 -10.3128      6.7215    108.7515   1.1481899455e+02   5.2576200554e+01    0.2566365    0.2048035  57.50  0.001077206    1.450    0.310
        43 -10.6354     79.9539    103.6628   8.9078547330e+01   4.5847068530e+01    0.3432124    0.2616391   6.97 0.0008122206    1.601    0.375
        44  -9.5636     34.7351    107.8665   1.0533931479e+02   5.0655692749e+01    0.4010088    0.1135483 -66.31  0.001126875    3.442    0.709
        45 -10.2412      8.1734    103.1689   1.1354006982e+02   5.3837949031e+01    0.2622676    0.1884639 -74.65  0.001319059    1.205    0.170
        46  -9.4489     11.5754    101.4807   1.1212795663e+02   5.4036747020e+01    0.2087615    0.1568884 -61.65 0.0004473891    1.071    0.067
        47  -9.5179     19.5247    136.5050   1.1453155323e+02   4.4852847484e+01    0.1320784    0.1091219 -76.96 -7.000425e-06    1.006    0.006
        48 -10.4958     45.3451    101.8985   1.0045237096e+02   5.1021594626e+01     0.268259    0.2377953  84.00 0.0004630122    1.283    0.221
        49  -9.6053     53.4136     98.4668   9.6826477574e+01   5.0900687877e+01    0.3616947    0.1367501 -63.03  0.001262427    2.943    0.660
        50  -9.2898     97.6662     98.5771   8.2017705531e+01   4.3902824127e+01    0.2009609    0.1462913  50.01 0.0009289606    1.501    0.334
        51  -9.9262     69.2600     96.4758   9.0788238214e+01   4.9208265294e+01    0.3100139    0.2385755 -54.55 0.0008857955    1.242    0.195
        52 -10.9020     11.5375    139.9156   1.1717561465e+02   4.4622986129e+01    0.2207596    0.1675652 -33.45  0.001340164    1.602    0.376
        53  -9.3784     78.8703     94.4602   8.6963512393e+01   4.8167584342e+01    0.2577592    0.1937603 -30.97  0.001141307    1.364    0.267
        54  -9.7633     34.1248     95.3238   1.0301482777e+02   5.3755841503e+01     0.212126    0.1567519 -23.94  0.001178624    1.463    0.316
        55 -10.3699     16.0818     94.8996   1.0943889985e+02   5.5317991976e+01    0.2592523    0.1932086  55.18  0.001059334    1.656    0.396
        56  -9.7381    116.4843     93.5044   7.4922103067e+01   4.1230886739e+01    0.2567767    0.2117391  62.04 0.0001735209    1.362    0.266
        57  -8.8528      1.2906     94.2307   1.1456028795e+02   5.6336600420e+01    0.1718738   0.09402467 -76.89 0.0004002403    1.634    0.388
        58 -10.3649     87.5521     89.2802   8.2585035400e+01   4.7839561911e+01    0.6314378    0.3272556 -63.85  0.002176376    3.164    0.684
        59  -8.4568    126.2961     91.6603   7.1648754439e+01   3.9486503181e+01    0.1575862    0.1244766 -80.29 0.0007031455    1.657    0.397
        60 -10.3426     35.3644     89.8621   1.0134604456e+02   5.4931448136e+01    0.2793863    0.1968634   5.39  0.001237784    1.668    0.400
        61  -9.8624    139.2246     87.5442   6.7078693761e+01   3.7381821876e+01    0.3563199    0.2090647 -50.76  0.001042459    1.843    0.457
        62  -9.0386     30.6709     89.2513   1.0295848505e+02   5.5511439768e+01    0.1216061   0.09902051  65.89 0.0002914603    1.550    0.355
        63 -10.1277    120.9737     87.7262   7.1943492051e+01   4.1469043842e+01    0.2587057    0.2205986 -47.25 0.0002672492    1.186    0.157
        64  -8.7151     47.6705     88.7602   9.6505746526e+01   5.3877788233e+01    0.1360189   0.09671069 -22.90 0.0001914118    1.534    0.348
        65  -9.5682    131.2954     86.7380   6.8864253370e+01   3.9363039927e+01    0.2115149    0.2006061 -53.04 0.0008015156    1.074    0.069
        66 -10.1125     28.0139     85.0963   1.0302998397e+02   5.6713641797e+01    0.2515581    0.2297328  78.34  0.000759409    1.318    0.241
        67  -8.9941     81.9067     84.8473   8.3156155142e+01   4.9800754767e+01     0.186641    0.1741502  71.38 0.0004118099    1.268    0.211
        68 -10.5062     76.2181     83.3954   8.4678205802e+01   5.1074543518e+01    0.2986666    0.2339808 -44.28 0.0005248494    1.209    0.173
        69  -8.9511     60.4948     85.0300   9.0779521173e+01   5.3095713564e+01    0.2055826    0.1287805 -49.76  0.000340575    1.457    0.314
        70  -8.6602     39.2675     85.3387   9.8798277614e+01   5.5594057145e+01    0.1426163   0.08739296 -35.43 0.0006981835    1.597    0.374
        71 -10.2992     71.3301     82.7768   8.6214753712e+01   5.1994733590e+01    0.2998937    0.2400571 -57.05 0.0006214407    1.323    0.244
        72  -9.1883     65.5681     83.9547   8.8627297181e+01   5.2611274600e+01    0.2193099     0.131259 -50.67   0.00101464    1.569    0.363
        73  -8.8270    112.6349     81.8555   7.2525575200e+01   4.4462269044e+01     0.212463     0.140092 -51.15 0.0009309039    1.635    0.388
        74 -10.6118     54.7983     80.7170   9.1675142718e+01   5.4826308964e+01    0.3096267    0.2224447 -52.54  0.001639263    1.313    0.239
        75  -9.4741     22.0720     80.9927   1.0439900831e+02   5.8141958948e+01    0.3794681   0.09090114 -51.28  0.001413845    2.875    0.652
        76  -9.0535     97.0064     80.9814   7.7002334153e+01   4.7838563287e+01    0.2090005    0.1810065  89.45            0    1.483    0.326
        77  -9.0220    109.1605     80.6247   7.3162138227e+01   4.5444854505e+01    0.2155533    0.1390761  33.86 0.0009381651    1.662    0.398
        78  -9.9785    104.3409     78.6010   7.3973341340e+01   4.6851471529e+01    0.3192941    0.2541461 -28.52  0.001051479    1.280    0.219
        79 -10.0373    107.6841     75.6860   7.2038904394e+01   4.6730914670e+01    0.2966286    0.1829676   5.07 0.0009031374    3.228    0.690
        80 -10.3791     49.1820     77.6520   9.2946278185e+01   5.6213728984e+01    0.4114431    0.2032464 -42.69  0.001174056    1.827    0.453
        81  -8.9840      7.0589     80.4866   1.1012322909e+02   5.9239319437e+01    0.1592175    0.1217514   3.23 0.0003993958    1.535    0.349
        82  -9.5692     36.0483     76.7630   9.7852101936e+01   5.7868442897e+01    0.1794392     0.166979 -52.62 0.0003776889    1.157    0.136
        83  -9.9184     98.9861     76.4507   7.4943262280e+01   4.8365447309e+01    0.2216534     0.144484  40.30 0.0004995432    1.544    0.352
        84 -11.5309     78.5484     74.8493   8.1213973287e+01   5.2492872237e+01    0.3393573    0.2715768  -0.52 0.0007584157    1.358    0.264
        85 -10.3163     74.5356     75.4990   8.2838016700e+01   5.3033419341e+01    0.2624454    0.2143273 -12.39  0.000549964    1.261    0.207
        86 -10.1638      3.0722     73.6754   1.1037425353e+02   6.0989607633e+01    0.3290494    0.2329441  78.09  0.001392024    1.854    0.461
        87 -10.1468     55.8131     74.0275   8.9322749484e+01   5.6151244738e+01    0.3089699    0.2132732  -4.81  0.001547052    1.737    0.424
        88  -8.8971     24.8671     73.7929   1.0158232631e+02   5.9548594288e+01    0.1575095    0.1389984 -73.98 0.0002269648    1.292    0.226
        89 -10.3660     45.7651     72.0910   9.2675936808e+01   5.7835914043e+01    0.2404669    0.2202845 -11.43 0.0004548695    1.104    0.094
        90  -8.5734     30.3201     72.2709   9.8967617030e+01   5.9412908438e+01    0.1339591   0.08456248 -29.13  0.000178362    1.566    0.361
        91 -11.7717     97.2060     69.2898   7.3163731522e+01   5.0114061728e+01    0.3924964    0.2642766 -37.35 0.0008462942    1.475    0.322
        92 -11.2767    101.0545     68.0128   7.1536945706e+01   4.9571982348e+01    0.4478922    0.3049389 -64.32 0.0006977253    2.161    0.537
        93 -10.2052     64.7195     70.8025   8.4928885721e+01   5.5557678771e+01    0.3861198    0.2236668  32.07  0.001823534    1.807    0.447
        94  -9.2341    103.6896     72.8519   7.2326266907e+01   4.8112671988e+01    0.2040993    0.1781469 -36.60 0.0003612407    1.145    0.126
        95  -9.2817     17.5259     70.5526   1.0379942038e+02   6.0828464646e+01    0.2287827   0.08070653 -50.88 0.0006669573    2.106    0.525
        96  -9.9188    136.6822     69.6920   6.2320060773e+01   4.1313438936e+01    0.2441423    0.2172603  24.77 0.0007737139    1.195    0.163
        97  -8.7888    142.9419     68.7814   6.0562945235e+01   3.9980699564e+01    0.1950473    0.1196439  52.56 0.0003551238    1.587    0.370
        98 -10.0170     89.8164     67.7834   7.5046976176e+01   5.1848360342e+01    0.2560244    0.2263609 -65.77 0.0002859212    1.382    0.277
        99  -9.4929     70.8284     66.3561   8.1195292620e+01   5.5495656551e+01    0.2156588    0.1823965 -43.77 0.0002847269    1.212    0.175
       100  -9.7394    111.0335     65.8300   6.7840517120e+01   4.7854383491e+01    0.2077537    0.1952648  85.66 0.0002431624    1.219    0.180
       101 -10.0622     60.6103     65.3628   8.4716979488e+01   5.7275122708e+01    0.3940707    0.2412944 -14.31  0.001764743    2.183    0.542
       102  -9.2060     49.1430     65.6652   8.9350161953e+01   5.8778390493e+01     0.181146    0.1571681  -9.02 0.0004256779    1.097    0.088
       103 -10.6910     43.3313     62.8502   9.0833225054e+01   6.0065170575e+01    0.3372462    0.3054599 -84.01  0.001323627    1.492    0.330
       104  -9.9615      3.7623     64.9444   1.0827687815e+02   6.2888499550e+01    0.2820492    0.1959944  84.55  0.001245572    1.965    0.491
       105 -10.8939      3.9857     59.6480   1.0697084734e+02   6.4020560822e+01    0.2472967     0.163445 -45.31  0.000390564    1.173    0.148
       106 -12.2896      7.9172     56.6373   1.0447593121e+02   6.4445618430e+01    0.2463064    0.1866238 -37.89  0.000314163    1.072    0.067
       107  -9.6901     76.2008     61.8651   7.7703574286e+01   5.5455604974e+01    0.2293726    0.1635918  -1.25 0.0007263971    1.672    0.402
       108  -9.2861     66.9818     63.2780   8.1581837737e+01   5.6716396130e+01    0.1887187    0.1704163   1.55  0.000260442    1.061    0.058
       109  -9.7373     33.2986     62.9390   9.5084535838e+01   6.1133970939e+01     0.251666     0.185632   2.88  0.001480874    1.430    0.301
       110  -9.2660     16.8163     63.0659   1.0221768856e+02   6.2509137263e+01    0.1806586    0.1358842  88.01 0.0006030365    1.898    0.473
       111 -10.5753     90.6760     61.9717   7.2774109773e+01   5.2763211080e+01    0.4134008    0.3112862  20.08  0.002109523    1.418    0.295
       112 -10.6712     96.5416     58.5216   6.9687425533e+01   5.2203716734e+01    0.3564349    0.2863635  38.49  0.001344441    1.210    0.173
       113  -9.7092     96.2746     55.3427   6.8646090399e+01   5.2801208392e+01    0.2823815     0.204985 -11.37 0.0009562646    1.585    0.369
       114 -12.0669    150.8495     57.7274   5.5466838259e+01   3.9884123274e+01    0.3018915    0.2675103 -62.42 0.0002850562    1.173    0.148
       115  -9.9162     51.0054     59.7926   8.6664075921e+01   5.9722443236e+01    0.2116803    0.2011984 -42.66 0.0005173158    1.244    0.196
       116 -10.7319     59.7769     57.9174   8.2494958147e+01   5.8852818453e+01    0.3599226    0.3066273 -15.58  0.001408405    1.048    0.045
       117  -9.1811     34.5251     57.5098   9.2869399013e+01   6.2125563354e+01    0.1962979    0.1193287 -60.71 9.432643e-05    1.896    0.472
       118  -9.9951    200.1921     55.5378   4.6429745235e+01   2.8237032877e+01    0.2433881    0.1759156  21.84  0.001163165    2.173    0.540
       119  -9.1362     26.5489     56.4826   9.6059065245e+01   6.3106862910e+01    0.1283349    0.1041451 -32.79  5.50608e-05    1.004    0.004
       120  -9.3674     85.4063     54.8206   7.1985313604e+01   5.5044339678e+01    0.2079187    0.1756492 -16.72 0.0006653042    1.149    0.130
       121 -10.5621     81.1290     54.1329   7.3197979618e+01   5.5967292540e+01    0.4338476    0.3039404 -17.39  0.002195011    1.552    0.356
       122  -9.9912    206.7986     52.3518   4.4742359659e+01   2.7164149449e+01    0.4254467    0.1899862 -26.79  0.001658163    2.868    0.651
       123  -9.4608    162.8372     52.3345   5.1534279499e+01   3.7758541555e+01    0.2506784    0.1870096 -48.19 0.0006469054    1.366    0.268
       124  -9.6233    144.3711     53.1755   5.5423230492e+01   4.2167263012e+01    0.2570428      0.18548  46.92 0.0005883421    1.359    0.264
       125  -9.2555     43.8709     52.8747   8.7261605039e+01   6.1976761073e+01    0.2060192    0.1520008 -17.17  0.001135876    1.280    0.219
       126  -9.1555     29.1917     52.7614   9.3693051745e+01   6.3609497985e+01     0.216001    0.1193433 -33.83 0.0003921609    1.630    0.387
       127  -9.8936     28.9160     48.2640   9.2311070280e+01   6.4514946644e+01    0.2097516    0.1950292  -2.36 0.0009266755    1.243    0.195
       128  -9.4208     25.2060     48.4489   9.4090631997e+01   6.4830003387e+01    0.1934987    0.1883307 -27.56  0.000590802    1.321    0.243
       129  -9.9583    112.0097     55.6740   6.4128559133e+01   4.9376011655e+01    0.2442974    0.2098273 -43.36 0.0003658026    1.246    0.198
       130  -9.5259     67.2540     52.1628   7.7514277339e+01   5.8738869276e+01    0.1713651    0.1671373  82.01 0.0006915346    1.357    0.263
       131 -10.5795    126.7270     50.2372   5.8469428899e+01   4.6848465442e+01    0.2686078      0.22483  20.15            0    1.302    0.232
       132  -9.0423    115.6817     51.2787   6.1618444871e+01   4.9248533492e+01     0.274396    0.1974694  88.19 0.0007913034    2.117    0.528
       133  -9.0739    112.1657     49.3279   6.1882818542e+01   5.0342751999e+01    0.2921044    0.1270421  47.59  0.001150472    2.146    0.534
       134 -10.7728    106.4449     50.2970   6.3813256197e+01   5.1461475943e+01    0.3019731    0.2534236 -67.44  0.001612189    1.521    0.343
       135 -10.2597     17.6922     50.4786   9.8244518789e+01   6.5058097807e+01    0.2507225    0.1825731 -18.04 0.0005455521    1.274    0.215
       136  -9.2479    212.6747     49.9853   4.3423183003e+01   2.6155148293e+01    0.1883005    0.1582192 -59.07 0.0004526628    1.068    0.064
       137  -9.4117     55.5324     49.4983   8.1140927481e+01   6.1032966123e+01    0.2344299    0.1496775 -26.63 0.0007731214    1.530    0.346
       138 -10.0610     59.1399     47.8258   7.9049630111e+01   6.0789309843e+01    0.3015685     0.241454  52.63  0.001717396    1.679    0.405
       139 -10.1941     84.8406     47.0602   6.9301547477e+01   5.6440041002e+01    0.3763107    0.2093238 -27.14  0.001712504    1.941    0.485
       140  -8.6634     73.6432     49.7289   7.4224623036e+01   5.8073187947e+01    0.1418876   0.09907711   7.46 0.0006998306    1.642    0.391
       141  -9.2988     49.5182     49.3117   8.3569115353e+01   6.1912506753e+01    0.2173332    0.1622671   7.95 0.0005985687    1.329    0.248
       142  -9.5071     45.9213     47.1404   8.4296705900e+01   6.2784568240e+01     0.197639    0.1626954  27.70 0.0002714532    1.327    0.246
       143  -9.5949     42.5633     45.9882   8.5330153045e+01   6.3421106687e+01    0.2836013    0.1397341 -42.37   0.00138427    1.832    0.454
       144 -10.2424      5.7757     48.2369   1.0320399382e+02   6.6300488933e+01    0.2259985      0.13521 -34.95 0.0002454302    1.375    0.273
       145  -9.4094    233.0844     47.9191   4.0629448941e+01   2.1941731909e+01     0.205644    0.1440885 -61.80 0.0004091389    1.271    0.213
       146  -9.2307     89.0397     48.0164   6.8276832797e+01   5.5462949988e+01    0.2008069    0.1852109  12.83 0.0003174141    1.032    0.031
       147  -9.1309     10.8390     47.8432   1.0067662964e+02   6.6071873894e+01    0.1445277    0.1331672 -54.23 0.0002388962    1.299    0.230
       148  -9.6510     33.9365     46.3263   8.9325596487e+01   6.4364321202e+01    0.1953042    0.1590152 -43.49  0.000439835    1.262    0.208
       149 -10.5217    142.6531     43.6409   5.2782854433e+01   4.3967487760e+01    0.4764075    0.3743779  15.81  0.001647283    1.565    0.361
       150  -8.7352    155.3409     45.6698   5.0941008022e+01   4.0567499215e+01    0.1518657    0.1060918 -72.20 0.0007051509    1.744    0.426
       151 -10.6953    167.4837     43.0386   4.8041279798e+01   3.7933405197e+01    0.3413792    0.2356108  60.35  0.000641999    1.364    0.267
       152  -9.7082    163.0689     42.3159   4.8572943053e+01   3.9121004095e+01    0.2016714    0.1829225  49.52 0.0003344316    1.151    0.131
       153 -10.1431    108.7980     43.4444   6.0708815931e+01   5.1969953498e+01    0.2467767    0.2332226 -10.20 0.0002571266    1.095    0.087
       154 -10.7136     55.9358     42.1166   7.8130034382e+01   6.2250651582e+01    0.3863167    0.2333439  16.44  0.000983139    1.874    0.467
       155  -9.1503     19.7924     43.4180   9.4954290500e+01   6.6272000947e+01    0.1620782    0.1044794  -2.14 0.0009480193    1.600    0.375
       156  -9.7257     35.6377     40.1598   8.6238822477e+01   6.5295406348e+01    0.3888299    0.1380464 -50.01  0.001585117    3.007    0.667
       157  -9.7865     27.9340     41.2196   9.0261189877e+01   6.5935172619e+01    0.2100928    0.1426603  -8.90 0.0004319593    1.438    0.305
       158 -10.1081    112.1465     38.8675   5.8176349696e+01   5.1855348059e+01    0.3587697    0.2701485 -54.22  0.001871812    1.626    0.385
       159 -10.0762     83.6631     37.0911   6.5835996118e+01   5.8174986875e+01    0.5726042     0.288916 -55.53  0.001920494    4.718    0.788
       160  -9.6829     76.5531     23.5375   6.2628693542e+01   6.1350719442e+01    0.2147676    0.1167914  47.20 0.0004819946    1.707    0.414
       161 -10.7454     78.4357     30.9968   6.5120538386e+01   6.0035293866e+01    0.3208546     0.225482  -8.76  0.000322382    1.514    0.340
       162 -10.0140     80.9782     26.2154   6.2299903547e+01   6.0154925381e+01    0.3213736    0.2147731 -36.13  0.001749408    1.656    0.396
       163  -8.8945     40.4083     39.1955   8.3675396293e+01   6.4890138867e+01    0.1524157    0.1126795 -44.18 0.0002435833    1.438    0.304
       164  -9.6873    148.9768     37.8741   4.9746036744e+01   4.3188106452e+01    0.2061926    0.1895332  75.21 0.0004033318    1.028    0.028
       165  -9.7592     49.0030     37.7178   7.9277050642e+01   6.3992089733e+01    0.2421767    0.1678972 -64.07  0.001181353    2.742    0.635
       166  -9.6058    127.6824     36.5486   5.3643097882e+01   4.8535309302e+01    0.2380337    0.2232823   3.74 0.0008208631    1.136    0.120
       167 -10.1876     61.9996     36.8089   7.3541922473e+01   6.2143993918e+01    0.2264443    0.1361611  13.43  0.001082188    2.034    0.508
       168  -9.2873    215.5895     34.8183   3.9498628698e+01   2.7549702153e+01    0.1801108    0.1042162 -48.48 0.0003331142    1.559    0.359
       169  -9.1365    170.7739     35.6142   4.5412285326e+01   3.8100884232e+01    0.1888856    0.1238992  79.11 0.0003821513    1.540    0.351
       170  -9.2948    106.8042     35.1414   5.8219870019e+01   5.3556473905e+01    0.1896368    0.1796115  52.54 0.0002945381    1.113    0.102
       171  -9.6046     33.7895     34.8522   8.5001799949e+01   6.6427060352e+01    0.1889651     0.138259 -17.11 0.0004731496    1.176    0.150
       172  -9.4586    193.0043     33.6472   4.1818066134e+01   3.2953714210e+01    0.3539425    0.1657044  47.13   0.00148026    2.634    0.620
       173  -8.8710     98.9973     34.0131   5.9940839357e+01   5.5421835979e+01    0.1632335     0.146761  27.96 0.0003637638    1.004    0.004
       174 -11.0955    237.5835     32.4044   3.6818836358e+01   2.3056806462e+01    0.4758961    0.2288906  77.00  0.002374796    2.147    0.534
       175 -10.2204    100.8171    247.9951   1.0787839501e+02   9.2341713383e+00    0.2081783    0.1269726  71.12  0.001094207    2.036    0.509
       176 -10.4568    239.4710     22.5067   3.4574931980e+01   2.3888050960e+01    0.2482997    0.1621321 -58.93 0.0008069263    1.274    0.215
       177 -10.0902    115.1247     31.9098   5.4933749672e+01   5.2073958907e+01    0.2474887    0.1954111  28.38 0.0004666291    1.289    0.224
       178  -9.6292    151.4383     30.2441   4.6960306693e+01   4.3532067192e+01    0.2792117    0.1975175  41.35  0.001451358    1.512    0.339
       179  -8.9922    143.2787     31.5615   4.8830091487e+01   4.5379503602e+01    0.2018191    0.1149906  51.70 0.0008408086    1.617    0.381
       180  -9.6057    124.7569     30.3344   5.2165100041e+01   5.0006091371e+01    0.2217706    0.1990162  87.56 0.0005234839    1.213    0.175
       181  -9.4730     60.6951     31.6335   7.1888181945e+01   6.3132879513e+01    0.2427775    0.1110539  37.05 0.0008310866    2.097    0.523
       182  -9.7062    110.5820     29.7357   5.5258662494e+01   5.3383022560e+01    0.2575012    0.1753157  55.45  0.000602912    1.361    0.265
       183 -10.0698     43.0712     29.2516   7.8326784604e+01   6.6159002546e+01    0.2129756    0.1614535 -29.74 0.0001994655    1.264    0.209
       184  -8.8225     21.4891     30.5333   8.9315093118e+01   6.8456907117e+01    0.1215644   0.09510593 -19.50 4.817832e-05    1.005    0.005
       185  -9.7421    216.2567     28.1691   3.7889112242e+01   2.8237396344e+01    0.2182052    0.1956818  30.21  0.001000336    1.532    0.347
       186  -8.9723     99.8164     28.8486   5.7736374602e+01   5.5896918523e+01     0.169179    0.1598591 -88.70 0.0003854654    1.278    0.218
       187 -10.5584     48.1150     28.6820   7.5836369884e+01   6.5530360237e+01    0.2749238    0.1999558  32.06  0.001084959    1.383    0.277
       188  -9.5665     14.7846     29.3743   9.2335450713e+01   6.9252051400e+01    0.2120855    0.1368989 -11.66 0.0008996158    1.434    0.303
       189 -10.5658    183.3512     26.2750   4.1118520347e+01   3.6173933208e+01    0.5279729     0.269968  48.92  0.002411682    2.177    0.541
       190  -8.9294      1.8511     28.1063   9.8823540491e+01   7.0387728901e+01    0.1692856    0.1003952 -31.16 0.0007359296    1.328    0.247
       191  -8.5461     67.6735     27.3298   6.7375751703e+01   6.2526781540e+01    0.1175267     0.106016 -76.91 0.0007050826    1.706    0.414
       192  -9.6900    206.3734     25.9257   3.8374800522e+01   3.0765070206e+01    0.2273207    0.1737219  71.12 0.0006844333    1.265    0.210
       193 -10.0682    120.6613     25.9507   5.1537619293e+01   5.1486934916e+01    0.3030541    0.1851815  56.96 0.0008196648    1.463    0.317
       194  -9.3542     21.4524     26.4671   8.7652855215e+01   6.9144177549e+01    0.1210483   0.09310895 -17.45 2.527295e-06    1.013    0.012
       195  -9.8894    156.2004     24.9617   4.4583296459e+01   4.2971959558e+01    0.1965355    0.1750306 -87.72 0.0006331208    1.083    0.076
       196  -9.4862    159.2522     22.5656   4.3406478748e+01   4.2487976533e+01     0.195737    0.1871594 -87.69 0.0007509353    1.091    0.083
       197 -10.5663    226.5130     22.9826   3.5763164218e+01   2.6594740597e+01    0.3641725    0.1941401  84.20  0.001718485    1.865    0.464
       198  -9.5333    222.6806     20.2973   3.5509573819e+01   2.7752280647e+01    0.1813328    0.1455154 -54.32 0.0006911552    1.155    0.134
       199 -10.4438    179.3496     22.8197   4.0707445412e+01   3.7542162997e+01    0.2548022    0.2026822  69.64 0.0009148195    1.161    0.138
       200 -10.7178    165.0502     21.5147   4.2259109875e+01   4.1178915325e+01    0.3328681    0.2251625  51.02   0.00093236    1.482    0.325
       201 -10.1150     51.6176     21.8656   7.1272024164e+01   6.5957884307e+01    0.3098225    0.1434083 -29.72   0.00151067    2.137    0.532
       202 -10.3498    141.8237     21.4364   4.5876421466e+01   4.6888918153e+01    0.2502013    0.2139056   4.87 0.0007660781    1.382    0.276
       203 -11.8957     75.7683    219.1490   1.1005140121e+02   1.8572055854e+01    0.7225335    0.6050983  75.65  0.003501073    1.087    0.080
       204  -8.6877      8.2718     22.6719   9.3181141260e+01   7.0914557757e+01    0.0943391   0.08977236 -56.21 0.0003450826    1.583    0.368
       205  -9.5612      1.6697     21.5715   9.6475881276e+01   7.1553691317e+01    0.2166157    0.1202857 -49.53  0.001333958    1.589    0.371
       206  -9.1367    218.2716     21.6181   3.6202095915e+01   2.8574693785e+01    0.1620948    0.1058071  66.65 0.0002828697    1.518    0.341
       207  -9.2208    205.9290     21.2611   3.7309498123e+01   3.1418131950e+01    0.1740563    0.1424403  89.55 0.0002227059    1.082    0.076
       208 -11.4805     69.1176    217.2770   1.1130591634e+02   1.9895305370e+01    0.5584542    0.3896441  63.36  0.002543297    1.308    0.235
       209 -10.3218    154.5219     18.0146   4.2770995018e+01   4.4137178840e+01    0.2603741    0.2233696  -6.91 0.0008150769    1.412    0.292
       210  -9.3495    124.0159    205.9889   9.7424486609e+01   1.3880294338e+01    0.1955777     0.180911  43.54  0.001151566    1.020    0.019
       211  -9.1318    130.2678     19.6451   4.7395695506e+01   4.9880816315e+01    0.1332238   0.09829053 -64.53 0.0006991189    1.632    0.387
       212  -9.8064    119.5533     18.7908   4.9248061883e+01   5.2520619384e+01     0.240265    0.1698212  57.38 0.0006326618    1.247    0.198
       213  -9.0899     69.1897     18.9299   6.3148717120e+01   6.3296822296e+01    0.1653053   0.09352463 -27.09 0.0008576235    1.816    0.449
       214 -10.0397      1.4356    184.9908   1.2342206815e+02   3.4627569452e+01    0.3121162   0.09499443 -78.02  0.001262486    2.684    0.627
       215  -9.0892    242.3066     17.3181   3.3288593887e+01   2.3915099703e+01      0.10429   0.09212802  43.72 0.0002575888    1.632    0.387
       216  -9.7896    236.0611     16.6958   3.3633128591e+01   2.5288927571e+01    0.1705324     0.135454 -84.14 0.0008527754    1.115    0.103
       217 -11.0019      7.4174    168.9985   1.2092417945e+02   3.7879461537e+01    0.2680119    0.1608288  73.95 0.0007857421    1.528    0.346
       218 -10.8975      6.9027    163.7671   1.2062641444e+02   3.9167439079e+01    0.1828463    0.1494919 -66.54 0.0006108038    1.234    0.190
       219 -11.5631      8.5401    155.9967   1.1955313393e+02   4.0913931152e+01    0.2784649    0.2321871 -25.95 0.0009532227    1.592    0.372
       220 -10.2787     10.6292     15.4477   8.8709336313e+01   7.1902332635e+01     0.244071     0.173657  -5.09 0.0009898619    1.188    0.158
       221 -10.8187      9.8778    152.1251   1.1885375566e+02   4.1753465928e+01     0.202394    0.1630819 -84.83 0.0006201709    1.006    0.006
       222 -11.3372      1.8201    153.1468   1.2100480047e+02   4.2087374125e+01    0.4241674     0.197092 -80.31  0.001934038    1.759    0.431
       223 -10.7606      4.7008    151.3745   1.2011967791e+02   4.2314539100e+01    0.2688308    0.1592336  69.56 0.0007991856    1.672    0.402
       224  -9.5283     24.9856    152.0245   1.1485490798e+02   4.0520934128e+01    0.1591835    0.1299918 -81.26 -0.003769674    1.023    0.022
       225  -9.0987     32.0050    147.2610   1.1235870378e+02   4.1049904357e+01    0.1764867    0.1599624 -89.42   0.00036735    1.082    0.075
       226 -11.2045     11.4972    145.1246   1.1773549127e+02   4.3344693465e+01     0.251054    0.2079057  39.90 0.0002640593    1.392    0.282
       227 -11.2818      3.5296    142.5379   1.1961842258e+02   4.4539018761e+01    0.3892234    0.2533054 -43.14  0.001989685    1.739    0.425
       228 -10.7380     28.5965    138.8064   1.1221770381e+02   4.3495168341e+01    0.3962086    0.2041572 -60.26  0.001263847    1.637    0.389
       229 -13.3964    234.1228    128.2979   5.8542835125e+01   8.7011318827e+00     1.489383     1.189667 -32.63  0.008482778    1.114    0.102
       230  -9.4975    144.1588     14.1455   4.3190055667e+01   4.7062616829e+01    0.2039819    0.1641634  44.40 0.0006063987    1.258    0.205
       231 -12.5034    214.6104    131.7467   6.2617038941e+01   1.1843113603e+01      1.61586      1.16601 -85.39   0.00736678    2.246    0.555
       232 -13.2873    221.3438    115.6649   5.7767553853e+01   1.3442065113e+01     2.139021     1.663393  -1.92   0.01099976    1.666    0.400
       233  -9.3575     30.1087    133.3049   1.1101558492e+02   4.4738467108e+01    0.1751058    0.1638795  85.82 0.0005485095    1.125    0.111
       234 -10.1560     15.8337    131.2557   1.1495225126e+02   4.6444877882e+01    0.2237234    0.1503588 -84.65 0.0004920425    1.340    0.254
       235  -9.0682     93.1932     10.3546   5.2185855799e+01   5.9316282400e+01    0.1725408    0.1129839  65.91  0.000257464    1.622    0.384
       236 -10.3765     11.9064    128.8701   1.1581106912e+02   4.7320242870e+01    0.1953529    0.1449409 -55.81  0.001183615    1.243    0.195
       237  -9.3529     76.6375     16.4906   5.9564185780e+01   6.2142212659e+01    0.2667462    0.1137725  50.97  0.001205629    2.147    0.534
       238 -10.3565     28.0168    125.9773   1.1057719434e+02   4.6766333770e+01    0.2549931    0.1693229 -69.91 0.0008849996    1.284    0.221
       239 -10.2186     23.8776    125.3238   1.1175136437e+02   4.7284550277e+01    0.2389926    0.1849889 -88.70 0.0005652395    1.244    0.196
       240  -9.0521     47.3891    125.7222   1.0451334045e+02   4.4878356028e+01    0.2342225    0.1283971  25.32  0.001064246    2.113    0.527
       241  -8.8873     93.9766    122.9154   8.9453175154e+01   3.8820075434e+01    0.1888673    0.1613251 -52.81 0.0006799481    1.119    0.107
       242 -10.5663      8.6108    122.2666   1.1598754200e+02   4.9166144770e+01    0.2981018    0.1344117 -51.60  0.001441944    1.956    0.489
       243  -8.7787     73.4846    121.9883   9.5550010944e+01   4.2388629589e+01    0.1883813    0.1269569  89.90  1.04158e-05    2.083    0.520
       244  -9.7849     21.5036    142.0133   1.1463974312e+02   4.3317573796e+01     0.197237    0.1104198 -72.82 0.0003654687    1.496    0.331
       245  -8.7708     69.9921    118.4894   9.5884033375e+01   4.3774880983e+01    0.1966721    0.1178761  58.28 0.0004488098    2.254    0.556
       246  -9.3814     57.9749    117.9367   9.9632185460e+01   4.5557182105e+01    0.2132639    0.1924776 -60.14 0.0003720298    1.012    0.012
       247  -8.8498     98.5193    117.4331   8.6753046484e+01   3.9335308398e+01    0.1527503    0.1478455 -43.82 9.749801e-05    1.011    0.011
       248  -9.9165     25.1789    116.2269   1.0996393011e+02   4.9439662054e+01    0.2794903     0.163334  34.09  0.001444546    1.935    0.483
       249 -10.4807     11.0639    115.1142   1.1430324929e+02   5.0759073842e+01    0.2747077    0.1833822 -44.58 0.0009231292    1.464    0.317
       250  -9.4697      1.7819    115.9637   1.1730147064e+02   5.1109972101e+01    0.2505994   0.07157141 -69.80 0.0003644587    2.572    0.611
       251 -10.1766      2.1075    111.9499   1.1671097238e+02   5.2062776842e+01    0.1982619    0.1671574 -76.93 0.0006419125    1.081    0.075
