#   1 NUMBER                 Running object number                                     
#   2 MAG_AUTO               Kron-like elliptical aperture magnitude                    [mag]
#   3 X_IMAGE                Object position along x                                    [pixel]
#   4 Y_IMAGE                Object position along y                                    [pixel]
#   5 X_WORLD                Barycenter position along world x axis                     [deg]
#   6 Y_WORLD                Barycenter position along world y axis                     [deg]
#   7 A_WORLD                Profile RMS along major axis (world units)                 [deg]
#   8 B_WORLD                Profile RMS along minor axis (world units)                 [deg]
#   9 THETA_WORLD            Position angle (CCW/world-x)                               [deg]
#  10 FWHM_WORLD             FWHM assuming a gaussian core                              [deg]
#  11 ELONGATION             A_IMAGE/B_IMAGE                                           
#  12 ELLIPTICITY            1 - B_IMAGE/A_IMAGE                                       
         1 -12.6588    247.7604     13.1656   2.6386022316e+01   2.3966474735e+01     1.019517    0.4214282 -32.54  0.002887985    2.335    0.572
         2 -11.7104    238.8269      7.8558   2.5868606627e+01   2.6220693102e+01    0.4244306    0.1719007 -40.19   0.00178187    1.972    0.493
         3 -11.7423    245.6570      1.6150   2.4300280036e+01   2.5572161250e+01     1.008486     0.148876  75.10  0.003582997    6.012    0.834
         4 -12.4563    228.0894     10.8465   2.7122516356e+01   2.8008560678e+01    0.5902134    0.2715214 -35.75  0.003260732    1.970    0.492
         5 -11.9722    227.7044      3.8291   2.5708902853e+01   2.8811549141e+01    0.6516725    0.3356711  48.47   0.00340508    3.060    0.673
         6 -13.0009    238.0104     19.2449   2.8183438783e+01   2.5140790610e+01     1.150079    0.2754758 -40.45  0.005069694    2.862    0.651
         7 -12.6273    210.4420      8.6178   2.7845477472e+01   3.1874296461e+01    0.5326368    0.4725831  -2.01  0.002973398    1.612    0.379
         8 -12.0576    216.9925      6.3717   2.6907003423e+01   3.0731166769e+01    0.4212098    0.3357622 -24.75  0.001110501    1.569    0.363
         9 -10.9463     10.1482     15.1580   8.1574225319e+01   7.3256817420e+01    0.2582558     0.217798 -11.64 0.0008163211    1.162    0.140
        10 -11.7095     33.0239     21.2898   7.1184764195e+01   6.9531764361e+01     0.786718    0.4289572  -2.18  0.003522191    2.756    0.637
        11 -10.8560     28.3476     18.4210   7.2244119865e+01   7.0607708012e+01      0.50738    0.2781068  -7.24  0.002412561    2.465    0.594
        12 -12.6168     24.2496     12.1142   7.1191116486e+01   7.2059470902e+01    0.3225254    0.2383381 -14.46 0.0004644456    1.190    0.160
        13 -11.9525     16.3094     13.6597   7.6825203167e+01   7.2830402891e+01    0.2971292    0.2029193  24.08 0.0004024863    1.407    0.289
        14 -11.5459    118.4631     17.2218   4.1110170732e+01   5.2485398969e+01    0.6874852    0.2086413 -38.34  0.002572031    3.411    0.707
        15 -11.9712    128.0045      4.8320   3.5280209277e+01   5.1303266997e+01    0.3965217    0.2912956  76.97  0.001452475    1.215    0.177
        16 -10.4618    119.7010      2.6393   3.5796673158e+01   5.3475464460e+01    0.4056918    0.1916521 -37.78  0.001222352    2.300    0.565
        17 -12.0895    122.4964     11.1245   3.8268753017e+01   5.2090210724e+01    0.4638666    0.3567526  29.28  0.001255212    1.471    0.320
        18 -10.3004    117.0300      9.0054   3.8468128204e+01   5.3592349201e+01    0.2657166    0.1925875 -87.31 0.0006775666    1.496    0.332
        19 -12.2992    112.0953     18.8761   4.2957628390e+01   5.3843919709e+01    0.4368664    0.3678098  19.46  0.002624446    1.312    0.238
        20 -12.0783     58.2346     13.9487   5.6028251319e+01   6.6191735279e+01    0.4777702    0.3796665  20.94  0.003004946    1.109    0.099
        21 -11.6568    150.4360     18.6470   3.6424359310e+01   4.4595867638e+01    0.3463952    0.3091778 -52.81 0.0005556259    1.168    0.144
        22 -11.3974    155.4165     14.6194   3.4592217685e+01   4.3802707605e+01    0.4390939    0.2913398  74.26  0.001976871    1.347    0.258
        23 -10.8007    156.1889     10.0806   3.3196003752e+01   4.4054725569e+01    0.3011067    0.2087484  63.85 0.0009616222    1.322    0.244
        24 -12.1940    100.8659     14.9578   4.3897132087e+01   5.6881014297e+01    0.7283157    0.3687206  28.03  0.003097945    2.708    0.631
        25 -11.0774     76.8056     14.8269   5.0130284296e+01   6.2303498146e+01    0.3849014    0.1466726 -44.00  0.001428614    3.939    0.746
        26 -12.2876    187.0849     13.7058   3.0939073661e+01   3.6478882358e+01    0.2635093    0.2144973 -78.25 0.0003140607    1.043    0.041
        27 -11.9555    182.5064     12.7110   3.1120735398e+01   3.7624220934e+01    0.3720832    0.3320738  48.58  0.001126906    1.365    0.267
        28 -10.6812    144.5111     12.0902   3.5259034325e+01   4.6674695639e+01    0.3062113    0.1676399 -35.92  0.001176291    1.902    0.474
        29  -9.6458    176.2012     12.2065   3.1606901277e+01   3.9128808301e+01    0.1754908    0.1546482  76.66 0.0003660072    1.146    0.127
        30 -10.1449     97.1572     10.8488   4.3114251373e+01   5.8126468127e+01    0.1913392    0.1742543  82.53 0.0006551867    1.187    0.157
        31 -11.0244     92.0169     10.5411   4.4185304222e+01   5.9337044068e+01    0.3527339    0.2000358  60.79  0.001055294    1.564    0.361
        32 -11.9132     89.7980      3.6104   4.1830394185e+01   6.0429595089e+01    0.4417797    0.3439218  41.81  0.001714491    1.149    0.130
        33 -11.8804     46.2487      9.1047   5.8412055386e+01   6.8953368818e+01    0.3026901     0.200646  27.92 0.0003905047    1.328    0.247
        34  -9.5483    137.9005      8.8040   3.5147860080e+01   4.8573695284e+01    0.1931629    0.1554319  54.15 0.0005113947    1.215    0.177
        35 -10.2926     34.8186      8.7635   6.3585735741e+01   7.0929980515e+01    0.2226912    0.1948696  32.09  0.001399542    1.324    0.245
        36 -10.3932      7.9990      8.9415   7.9708201509e+01   7.4437973812e+01    0.1741565    0.1367127  -5.95 0.0003878012    1.055    0.052
        37 -10.8594     77.7451      6.8584   4.6279010723e+01   6.2854673641e+01    0.3079818    0.2578931  49.54  0.001104376    1.074    0.069
        38 -10.1003    167.7554      6.0340   3.0825128908e+01   4.1690342167e+01    0.3302007    0.1914121 -45.56  0.001815589    1.681    0.405
        39  -9.9872    169.9934      2.5057   2.9674131946e+01   4.1485638471e+01    0.2352039    0.1812322  48.49  0.001067498    1.501    0.334
        40 -12.2175    194.1682      2.8134   2.7722510194e+01   3.5967870800e+01    0.5495968    0.3312984  69.98  0.003259519    1.556    0.358
        41 -11.2733    203.7542      2.1221   2.6871062648e+01   3.3944816153e+01    0.5157796    0.1761125  52.82  0.002102097    3.992    0.749
        42 -11.0594    153.9162      3.1125   3.1463765328e+01   4.5220784166e+01    0.4036609    0.2511272  32.39  0.001988732    2.195    0.544
        43 -10.8503     13.1076      5.0233   7.4001947681e+01   7.4440964348e+01    0.3038029    0.1834491 -20.22  0.001801242    1.511    0.338
        44 -11.0942    104.5094      2.8270   3.8469955375e+01   5.7075646540e+01    0.6003328    0.3014458  84.05  0.002639343    2.540    0.606
        45  -9.4342     40.8757      5.2862   5.8715698578e+01   7.0310218327e+01      0.16694     0.127219  26.97  0.000281107    1.090    0.083
        46 -10.7585      2.0181      2.9620   8.0564051785e+01   7.5908259270e+01    0.2464329    0.1853074 -52.80  0.001443155    1.987    0.497
        47  -9.6996     18.3088      3.6098   6.9820911901e+01   7.3975214931e+01    0.1939351    0.1414489  -9.65  0.001301988    1.172    0.146
        48  -9.2176     25.4065      2.1596   6.4741596887e+01   7.3152281624e+01    0.1538489    0.1029888 -34.55 0.0009509858    1.729    0.422
        49 -10.0775    137.5082      1.5252   3.2922246122e+01   4.9281597986e+01    0.2779409    0.1097415  72.11  0.001217224    2.193    0.544
        50  -9.0252     84.2972      1.2759   4.2120703023e+01   6.1855324752e+01    0.1301762   0.07894801  38.26 0.0001937144    1.531    0.347
        51  -9.4316      9.6938      1.5470   7.4189157125e+01   7.5307117832e+01    0.1411559   0.09747401  30.36 0.0009265465    1.542    0.351
        52  -9.5644     15.5491    128.5539   1.0858757799e+02   4.7258247801e+01    0.1983073    0.1665905 -38.98 9.771666e-05    1.270    0.212
        53  -8.7488     84.2963    250.7304   1.0394807515e+02   1.0850804089e+01     0.122888   0.07752886  54.25 0.0001539174    1.519    0.342
        54  -9.9539     15.0911    250.2420   1.1800363842e+02   1.8861746964e+01    0.1511777    0.1351344  56.66 0.0005274294    1.238    0.192
        55 -10.0782     11.6823    128.8612   1.0989063143e+02   4.7457894660e+01    0.2684972    0.1827976  52.95            0    1.592    0.372
        56 -10.0964     23.7939    125.7089   1.0545683844e+02   4.7339876400e+01    0.4138003    0.1726337 -84.85   0.00145808    3.169    0.684
        57 -10.3783     47.8208    125.5991   9.7276580562e+01   4.4925616619e+01    0.2627036    0.1468029  20.47  0.001132904    2.074    0.518
        58 -10.2179     31.6706    123.3553   1.0241271476e+02   4.7241686657e+01    0.4353888    0.2301362 -18.48  0.001697962    3.013    0.668
        59  -9.4431     93.7421    123.0316   8.1646933397e+01   3.8681547993e+01    0.2124748    0.1964905 -51.27 0.0001825576    1.057    0.054
        60  -9.0312      1.3265    123.3538   1.1266356357e+02   4.9521142898e+01     0.143361   0.07832961 -47.30 0.0007046805    1.768    0.435
        61 -10.0932     45.5262    117.7755   9.6586303451e+01   4.7224909777e+01    0.2956046    0.1325815 -62.19  0.000763416    2.029    0.507
        62 -10.0501     44.0742    113.3730   9.6231729016e+01   4.8526699305e+01    0.2665535    0.1775207 -50.58 0.0007848347    1.369    0.270
        63  -9.4690     26.9495    116.5670   1.0295632332e+02   4.9439804335e+01    0.1867891    0.1386195  19.67 0.0003281103    1.521    0.343
        64  -9.9022     38.2743    115.3624   9.8701428232e+01   4.8652557550e+01    0.1895733    0.1293004  35.82 0.0009405056    1.583    0.368
        65 -10.6543      2.7384    112.2260   1.1091969857e+02   5.2279024197e+01    0.3028889    0.1823063  41.30 0.0008012409    1.883    0.469
        66 -10.3272     52.9848    111.4916   9.2629953447e+01   4.7923612671e+01    0.2331669    0.1844548 -56.38 0.0005557701    1.170    0.145
        67 -10.6360     34.8772    108.3549   9.8601719676e+01   5.0804013878e+01    0.4620776    0.1405649 -56.40  0.001527914    2.602    0.616
        68 -10.4782     13.9944    109.3260   1.0648549982e+02   5.2325426904e+01    0.3378486    0.2563005  72.51  0.001896224    1.468    0.319
        69 -10.2153     17.0000    107.0550   1.0502439508e+02   5.2691266326e+01    0.4697014    0.1710478 -75.87  0.001700615    2.959    0.662
        70  -9.8288     71.9129    107.5486   8.4996442213e+01   4.6190321722e+01    0.2262164    0.1489531  33.74  0.001022839    1.578    0.366
        71 -11.6357     80.3910    103.4917   8.1029117876e+01   4.5771393932e+01    0.6019321    0.3521187  18.36  0.002347978    2.343    0.573
        72 -10.1196     65.3374    103.7360   8.6357381827e+01   4.8141512659e+01    0.2048033     0.126005 -53.13 0.0001725092    1.530    0.346
        73  -9.6988     57.1972    103.8725   8.9345965737e+01   4.9278907618e+01    0.2116765    0.1978125  88.93 0.0003955912    1.179    0.152
        74 -11.5808     44.8025    101.9498   9.3523023520e+01   5.1341938051e+01    0.4068122    0.2961741  57.91  0.001652889    1.697    0.411
        75 -10.3339     52.6384    100.0952   9.0124048424e+01   5.0827085133e+01    0.3329746    0.2205742 -35.29  0.001316688    1.565    0.361
        76 -10.8909    101.6262     97.9777   7.2595956444e+01   4.3078090737e+01    0.2673536    0.2235763  35.92 0.0001936159    1.213    0.176
        77 -10.0327     70.8094     96.7476   8.2553665263e+01   4.8975545448e+01    0.2732198    0.2366003  68.37 0.0007305664    1.384    0.278
        78 -11.3663     47.5313     95.9170   9.1053248392e+01   5.2507714684e+01    0.3141731    0.2629792 -83.56 0.0003128886    1.383    0.277
        79  -9.7831     96.8852     95.6477   7.3406466643e+01   4.4537932104e+01    0.2190695    0.1976447  43.66  0.001133543    1.140    0.123
        80 -10.0187     16.3808     95.2926   1.0324726502e+02   5.5707873908e+01    0.2126091    0.1838673 -54.42 0.0003075638    1.011    0.011
        81  -8.9689      1.4200     94.4430   1.0902692677e+02   5.6820261064e+01    0.1312638    0.1069165 -60.08 0.0001558746    1.018    0.017
        82  -8.7810      4.9965     94.0000   1.0755097193e+02   5.6746265577e+01    0.1815501   0.07562003  13.16 0.0005517172    2.805    0.644
        83 -11.5841    126.4946     91.4705   6.3602588085e+01   3.9179764670e+01    0.2751103    0.2718441 -38.42 0.0002097501    1.007    0.007
        84 -11.7304     34.8931     89.8290   9.4609698086e+01   5.5438550498e+01    0.2815137    0.2323006 -56.95 -0.0006383859    1.126    0.112
        85  -9.2923      4.0168     90.5028   1.0738666195e+02   5.7664527377e+01    0.1663201    0.1292932   6.47 0.0005453626    1.484    0.326
        86 -10.9921     86.6768     86.9953   7.4177019892e+01   4.8417013789e+01     0.424806    0.2698449 -59.11 0.0009842012    1.869    0.465
        87 -11.1101     50.0695     89.1587   8.8329170151e+01   5.3819682331e+01    0.3802787    0.1882197  27.63  0.001186637    2.157    0.536
        88 -10.4045    121.4282     87.3878   6.3747801232e+01   4.1127974037e+01    0.4874772     0.317636   8.73   0.00166018    2.780    0.640
        89 -11.1419    115.9673     85.0276   6.4535918021e+01   4.2806177638e+01    0.3072257    0.2665913 -84.90            0    1.369    0.270
        90  -9.5783    139.0691     86.9811   5.9156539808e+01   3.7224568967e+01    0.2163244    0.2112648 -37.35  0.001180748    1.026    0.025
        91 -10.6304    131.1804     85.9128   6.0771733337e+01   3.9229293932e+01     0.252257    0.2153722  41.49 0.0002979242    1.189    0.159
        92 -10.4457    102.9366     85.1702   6.8386515453e+01   4.5568587794e+01    0.2700255    0.2197074 -39.09 0.0005892567    1.223    0.182
        93 -10.1018     27.8465     84.9118   9.6373193838e+01   5.7324049800e+01    0.3051952    0.1834372  34.07  0.001229679    1.849    0.459
        94 -11.1889     75.9042     82.2466   7.6478333533e+01   5.1423472935e+01    0.4453157     0.286307 -55.26  0.001045419    1.688    0.407
        95 -10.2830     80.0132     80.9686   7.4611428771e+01   5.0961549896e+01    0.2193329    0.2100472 -10.17 0.0002986011    1.019    0.018
        96 -10.3812     70.9873     82.1392   7.8243757585e+01   5.2296100129e+01    0.2360138    0.2022827 -38.20  0.000250567    1.118    0.105
        97  -9.5426     20.0419     83.4638   9.9362796491e+01   5.8343272214e+01    0.1841099    0.1321075   8.52  0.001010696    1.545    0.353
        98  -8.8640     66.6340     82.2815   7.9918963933e+01   5.2984687665e+01    0.1449354    0.1162164  68.97 0.0007015197    1.686    0.407
        99  -9.6328     47.2109     82.1888   8.7573684456e+01   5.5831524744e+01    0.1836567    0.1689813  69.56 0.0006316204    1.317    0.241
       100 -10.0329    104.8552     80.7493   6.6429382120e+01   4.6067573860e+01     0.288358    0.2012479 -69.22   0.00107004    2.057    0.514
       101  -9.0940    109.3177     80.3289   6.4979580908e+01   4.5193414473e+01    0.1564873    0.1199008   3.99 0.0005602712    1.682    0.406
       102 -11.8381     76.2678     74.7981   7.3967064416e+01   5.2947725710e+01    0.4717802    0.4008223 -12.01 0.0007192749    1.208    0.172
       103  -9.3671     36.7876     76.7601   9.0451126364e+01   5.8341024941e+01    0.1702587    0.1595414  85.04 0.0003235027    1.293    0.227
       104  -9.3837      7.3257     77.2760   1.0360138149e+02   6.0698149013e+01    0.1928149    0.1524671 -61.61  0.000475748    1.122    0.109
       105 -10.0477      4.6912     75.6703   1.0445454460e+02   6.1226406142e+01    0.3731875    0.1490903 -42.57  0.001669633    2.158    0.537
       106  -9.8460     98.4895     76.0359   6.6871929124e+01   4.8348541724e+01    0.2187476    0.1469093 -41.43 7.705556e-06    1.495    0.331
       107  -9.9049     60.9693     75.9880   8.0158462634e+01   5.5274620378e+01    0.2171998    0.1974949 -15.62  0.001226922    1.029    0.029
       108 -10.4938     83.3341     75.1014   7.1558956721e+01   5.1570530918e+01    0.2371985    0.1946252  22.39 0.0003257776    1.250    0.200
       109  -8.8588    130.6801     74.7277   5.7535743319e+01   4.1443046315e+01    0.1489476    0.1166875  19.52 0.0002824354    1.568    0.362
       110  -8.8084     11.6954     74.6896   1.0109884919e+02   6.1043817591e+01    0.1408802   0.07972938 -37.83 0.0004610773    1.612    0.380
       111 -10.2550    151.4889     72.7644   5.2293096467e+01   3.6911237199e+01    0.2424375    0.2206775  55.79 0.0002449793    1.107    0.097
       112 -10.3522    141.3195     72.1809   5.4290526046e+01   3.9406766386e+01    0.4840044    0.2018546  44.44  0.001725633    2.613    0.617
       113 -10.8619    136.9872     69.5476   5.4468830629e+01   4.0881738135e+01    0.2592763    0.2122031 -40.17 0.0004869881    1.233    0.189
       114 -11.5327    101.9474     69.4927   6.3655918451e+01   4.8872629633e+01    0.4570882    0.2786297 -54.40  0.001947329    2.001    0.500
       115 -11.9938     46.3495     73.3191   8.5332270994e+01   5.7962296769e+01    0.5157095     0.409932  73.63  0.001725292    1.833    0.454
       116 -10.7224     17.5312     70.7606   9.7502290901e+01   6.1547123554e+01    0.3134295    0.2240182 -33.01  0.001575529    1.274    0.215
       117 -10.2466     97.0693     69.0264   6.4996652322e+01   5.0000214877e+01    0.2952616    0.2025232 -38.54 0.0006836808    1.475    0.322
       118 -10.7087     63.8306     69.5394   7.6924192677e+01   5.6191274806e+01     0.288083    0.2548635  63.63 0.0009310601    1.423    0.297
       119  -9.3074     90.1581     68.1743   6.6924941723e+01   5.1593965102e+01    0.1885197    0.1746624 -75.93 0.0003983943    1.275    0.216
       120 -11.4511     32.7998     62.5668   8.8029792671e+01   6.1957580101e+01    0.4503269    0.3344076 -69.39  0.002435961    1.678    0.404
       121  -9.9193    154.7894     67.1977   5.0029632069e+01   3.7061250983e+01    0.1905115    0.1684459  26.42 0.0003214322    1.303    0.232
       122 -11.6683    110.8576     65.4162   5.9717506401e+01   4.7647999514e+01    0.3872369    0.3232554 -61.71  0.002005063    1.373    0.272
       123 -11.0995     57.9609     66.0540   7.8102945296e+01   5.7853711700e+01    0.3111911    0.2361439  32.62 0.0008407639    1.345    0.256
       124  -9.5377      5.4888     67.4464   1.0236223940e+02   6.3112472878e+01    0.1296657    0.1059182 -45.20 0.0001447686    1.009    0.009
       125 -11.6011     71.0859     63.9463   7.2187271071e+01   5.6070764435e+01    0.3343056    0.3029311 -18.80 0.0004461442    1.053    0.050
       126 -10.7789     48.4573     66.2089   8.2160933312e+01   5.9224065844e+01    0.2828766    0.1769089   9.02   0.00130972    1.954    0.488
       127  -9.6576    194.0164     64.0841   4.2716338010e+01   2.8496686135e+01     0.196518    0.1750692 -58.44 0.0002869521    1.023    0.022
       128  -8.9709     26.4866     65.5305   9.1899047993e+01   6.1959967577e+01     0.136728    0.1139872 -31.87 1.780245e-05    1.039    0.037
       129  -9.7134      1.5018     62.9657   1.0327856688e+02   6.4350090496e+01    0.1953031    0.1089241 -65.55  0.001029151    1.591    0.371
       130 -11.1182    147.0929     61.6337   4.9918268852e+01   3.9788426101e+01    0.2428899    0.2108694 -55.33 0.0003730814    1.159    0.137
       131 -12.7013    150.7907     57.6413   4.8008784174e+01   3.9524808858e+01    0.3028189    0.2977097  16.76 0.0004188424    1.118    0.106
       132 -10.9361     89.8482     61.3000   6.4631780217e+01   5.2932131610e+01    0.4010582    0.2927216 -88.74  0.001757654    2.375    0.579
       133 -11.1776     96.2257     57.8678   6.1389370290e+01   5.2187619668e+01     0.418634    0.2619834  58.19  0.001887447    1.804    0.446
       134 -11.7918     60.7870     57.5725   7.3926745693e+01   5.9084251606e+01    0.4320767     0.355539  32.69  0.002429985    1.229    0.186
       135  -8.7814     50.6180     59.7232   7.8995124504e+01   6.0256557997e+01    0.1458048    0.0998892  -7.47  0.000700261    1.713    0.416
       136  -9.8795    160.5548     56.5104   4.5905737204e+01   3.7361152202e+01    0.2444864    0.2184749  39.76 0.0006923431    1.247    0.198
       137  -9.6782    162.3051     52.9503   4.4595795395e+01   3.7467918280e+01     0.232704    0.1911599 -19.59 0.0004165369    1.418    0.295
       138 -12.0950     79.5458     55.7887   6.6125709327e+01   5.5994682146e+01    0.6511628    0.4389229  26.06  0.002175957    1.604    0.377
       139 -11.2690     90.9617     40.1006   5.6380433745e+01   5.6127457594e+01    0.3963742    0.2193552 -33.75   0.00183359    1.899    0.473
       140 -10.9887     85.5238     49.2441   6.1620615885e+01   5.5892391163e+01     0.279066    0.2670607  29.49 0.0004722576    1.081    0.075
       141 -11.3287     85.9414     44.6778   5.9729390958e+01   5.6525801713e+01    0.4219492    0.3383142  33.37  0.001663673    1.178    0.151
       142 -10.1397      7.9265     57.0509   9.8622159966e+01   6.5321070885e+01    0.1916994    0.1529444 -38.24 0.0003412946    1.029    0.028
       143 -10.4195    175.8566     55.0381   4.3017049299e+01   3.3968520926e+01    0.4473292    0.2167142 -52.26  0.001881822    2.210    0.548
       144  -8.9918    111.9864     56.0012   5.6229356452e+01   4.8982131552e+01    0.1722717    0.1637804  41.69            0    1.007    0.007
       145  -9.1149    105.2595     56.5990   5.8278920343e+01   5.0412283423e+01    0.1467955    0.1119835 -67.27 0.0006963206    1.718    0.418
       146  -9.5155    200.6568     54.9899   3.9604080632e+01   2.8361719641e+01    0.1888429    0.1531302 -48.85 0.0006243486    1.123    0.110
       147  -8.9340    185.2473     54.6406   4.1546688887e+01   3.1858888353e+01    0.1426229    0.0915497 -60.09 0.0006509121    1.603    0.376
       148  -9.5479    128.1793     53.4089   5.1387407973e+01   4.5591507037e+01    0.2143854    0.1385617  58.09 0.0003800889    1.494    0.331
       149  -9.9976    126.7245     50.0239   5.0608106196e+01   4.6446528135e+01    0.2835892    0.2101894 -48.76 0.0003956697    1.441    0.306
       150  -9.2762     30.3639     53.1539   8.6067215757e+01   6.4207682149e+01    0.1743127    0.1202431 -60.64 0.0004498154    1.690    0.408
       151  -9.6752     73.5109     50.8518   6.6429667481e+01   5.8024803346e+01    0.2790359     0.182954  58.34  0.001056809    1.992    0.498
       152  -9.8211     19.0065     49.3797   9.0556486660e+01   6.6123120321e+01    0.3059285    0.1743612  53.32  0.001332327    3.325    0.699
       153  -9.7309     23.5405     50.5633   8.8604720653e+01   6.5453377232e+01    0.2169279    0.1663866  -6.11  6.45599e-05    1.248    0.199
       154  -9.9196     26.3247     48.2847   8.6372111081e+01   6.5631387975e+01    0.2235229    0.1636517  -3.29 0.0008946381    1.339    0.253
       155 -10.0596    212.0754     49.9716   3.7083913252e+01   2.6600647362e+01    0.1955923    0.1602303 -61.28  0.000463795    1.048    0.045
       156  -9.7867    202.1943     49.9877   3.8209174982e+01   2.8722181526e+01    0.2131608    0.1758178  83.76 0.0003672104    1.196    0.164
       157 -11.4146     62.4716     47.7639   6.9475234298e+01   6.0585132747e+01    0.4968943    0.3671242  81.54  0.002261831    2.735    0.634
       158  -9.9463      5.4202     49.1036   9.7724578741e+01   6.7202316210e+01    0.3308754    0.1566817 -46.82  0.001572674    1.661    0.398
       159 -10.2879    121.8349     48.2159   5.1125877744e+01   4.7876610939e+01     0.229678    0.2153796  70.75 0.0003590401    1.059    0.056
       160  -9.0081    105.5314     49.4465   5.5675454295e+01   5.1489965226e+01    0.1437828    0.1323582  32.25 4.481441e-05    1.046    0.044
       161  -9.6711     55.9076     49.0948   7.2724857751e+01   6.1465104686e+01    0.2129168    0.1509018  -5.07 0.0004564572    1.592    0.372
       162  -9.5223    246.6152     47.6681   3.3282091554e+01   2.0057771013e+01    0.1554408    0.1391678   2.71  0.000927392    1.638    0.390
       163 -11.4926    136.9416     46.7720   4.7384871659e+01   4.4459587188e+01    0.2964465    0.2429015 -69.47 0.0005049577    1.326    0.246
       164  -9.8437     98.8412     47.5532   5.6870380829e+01   5.3286052597e+01    0.2218463    0.1895517  -7.33 0.0004515156    1.252    0.201
       165 -10.4924     33.2728     44.1886   8.1289561368e+01   6.5632643539e+01    0.3660316    0.1977261 -27.35  0.001737569    1.984    0.496
       166  -9.3645     45.7032     47.0185   7.6421405909e+01   6.3426531473e+01    0.1855303    0.1558653 -25.66  0.000365978    1.110    0.099
       167 -10.7478    108.4644     43.2465   5.2672685418e+01   5.1732478787e+01     0.395981    0.2441926  68.08 0.0009997991    1.888    0.470
       168  -9.3865     74.3357     44.3148   6.3555803307e+01   5.8947554841e+01    0.1459943    0.1020487  11.67 0.0003358228    1.691    0.409
       169 -10.9864    163.1046     42.3176   4.1454001616e+01   3.8750873659e+01    0.2441068    0.2120948 -55.43 0.0003692289    1.126    0.112
       170 -12.3791     63.3297     38.4592   6.5301656190e+01   6.1962232654e+01    0.6445394    0.3586708  36.62 0.0001920669    1.715    0.417
       171 -11.6335     18.1416     40.5850   8.7895159552e+01   6.7967970020e+01     0.384221    0.2635455 -65.79  0.001311581    1.943    0.485
       172  -9.4198    198.2774     42.5175   3.6855472044e+01   3.0584570440e+01    0.1705239    0.1145833 -87.75 0.0006086453    1.537    0.349
       173 -11.9614     56.8739     41.5959   6.9266584552e+01   6.2602736446e+01    0.3310718    0.2410677 -12.03 0.0002902402    1.436    0.303
       174  -9.2250    205.0010     41.5181   3.5872103076e+01   2.9239479721e+01    0.1744822    0.1190711  75.03 0.0003364002    1.463    0.316
       175  -9.6026     98.0822     41.1550   5.4703975713e+01   5.4399664379e+01    0.2097148    0.1801307  24.08 0.0005170841    1.164    0.141
       176  -9.9984     75.9959     38.4948   6.0601511043e+01   5.9511033958e+01    0.1959683    0.1762801  -5.90  0.001168985    1.098    0.089
       177  -9.0479    148.6926     38.3071   4.2595624815e+01   4.2748472927e+01    0.1421169   0.09966929 -69.99 0.0005891149    1.611    0.379
       178 -10.5138    140.2267     37.7807   4.3916408325e+01   4.4871874594e+01    0.2293753    0.2194362 -35.45 0.0002937441    1.135    0.119
       179 -10.6014     83.8844     37.4809   5.7547002248e+01   5.8024024552e+01     0.275881    0.1750692 -50.27  0.001312661    2.028    0.507
       180 -10.1091     85.9707     33.6758   5.5353937404e+01   5.8101513010e+01    0.2120899    0.1695775  24.17  0.000498083    1.237    0.191
       181  -9.2946      2.4660     38.0208   9.5956020601e+01   6.9683762375e+01    0.1765977    0.1005234 -52.43 0.0004110887    1.492    0.330
       182  -9.2497    194.6945     37.2985   3.5983201994e+01   3.2053493010e+01    0.1359089   0.08542906 -65.56 0.0002443175    1.589    0.371
       183 -10.2570    127.4968     37.0434   4.6134432123e+01   4.8052447865e+01    0.2827684     0.197439  59.79  0.000832853    1.324    0.245
       184  -9.5530     54.4909     36.8507   6.8257716955e+01   6.3780644532e+01    0.1920639    0.1583586  22.67 0.0003162708    1.116    0.104
       185  -9.4455     29.0000     36.9347   8.0546536863e+01   6.7492185749e+01    0.2038637   0.06675471 -47.29 0.0007987971    2.917    0.657
       186 -10.2816    170.0274     34.1433   3.8184866277e+01   3.8143769749e+01     0.261811    0.1764087 -40.34 0.0006983145    1.467    0.318
       187 -10.8514    106.6891     34.8696   5.0071338706e+01   5.3279682733e+01    0.2450204    0.2118895  49.42  0.000341263    1.061    0.058
       188 -11.4526     40.2877     33.0311   7.3082223183e+01   6.6652901762e+01    0.3654786    0.2353432   4.12 0.0003212196    1.760    0.432
       189 -11.2634     47.2140     28.0076   6.7489647631e+01   6.6354738918e+01    0.3121181     0.254253  33.24  0.001197775    1.240    0.193
       190 -10.9916    245.9868     32.1487   3.0213005402e+01   2.2119743403e+01    0.2804952    0.1546649 -48.07  0.001031554    1.420    0.296
       191  -9.6988      4.4740    245.8616   1.1985058034e+02   2.0711924164e+01    0.2399314    0.1105798  38.00  0.001411389    1.772    0.436
       192 -10.3023    106.2492    244.1711   9.8573167636e+01   9.1406115471e+00    0.2522145    0.1814916  41.26 0.0007576293    1.198    0.165
       193 -10.3324     28.7765    243.8929   1.1497067826e+02   1.8712028517e+01    0.2992443    0.1532497  56.92 0.0008055763    1.655    0.396
       194  -9.9056    235.2694    242.1223   7.2643044124e+01  -7.4421664290e+00     0.185882    0.1446016  42.71  0.001246839    2.154    0.536
       195  -9.4209    189.3001    239.0910   8.0569377122e+01  -1.4498940830e+00     0.159652    0.1324979  -2.19 0.0003150088    1.089    0.082
       196 -11.6926    236.9265     30.6070   3.0572081538e+01   2.4030159023e+01    0.5160189    0.2630189 -63.09  0.002548968    1.845    0.458
       197 -11.1599    119.3092    230.9397   9.4089325581e+01   9.7743906835e+00    0.2596157    0.2304734 -74.10 0.0004042824    1.354    0.261
       198 -10.3884    140.5933    227.2646   8.8871967737e+01   7.3540977985e+00    0.2305264    0.1921709  14.58 0.0002515369    1.101    0.092
       199 -10.3998    183.8299    225.9577   7.9572062737e+01   1.3336607336e+00    0.2014404    0.1581327  15.59 0.0003305774    1.099    0.090
       200  -9.8440     96.9490     33.1630   5.1965925860e+01   5.5737468093e+01    0.1996303    0.1815407  78.89 0.0004167236    1.232    0.189
       201 -10.3630    132.1373     30.4364   4.3043894367e+01   4.7741897426e+01    0.3676808    0.2493633  12.41  0.001775537    2.117    0.528
       202  -9.5259     54.0094     32.3103   6.6456840692e+01   6.4566345057e+01    0.1893109    0.1559173  22.44 0.0006179661    1.098    0.089
       203  -9.7404    124.1794     30.4009   4.4566023123e+01   4.9673393553e+01    0.2175522    0.1851215  -9.96 0.0005600365    1.349    0.259
       204 -10.0868     30.0219     30.1226   7.7018715282e+01   6.8549405769e+01    0.2893887    0.2381879  87.69  0.001617218    2.443    0.591
       205 -10.6151     43.3764     17.8256   6.4277299522e+01   6.8405336414e+01    0.3454655    0.2345119  61.52  0.001510237    2.490    0.598
       206  -9.4746     98.4034    225.1988   9.8088597927e+01   1.3890093026e+01    0.1664886    0.1267895 -82.76 0.0004447458    1.579    0.367
       207 -10.7598     72.8262    213.8413   1.0274378566e+02   1.9808087197e+01    0.3991343     0.312151  33.92  0.001669657    1.220    0.180
       208 -11.5963     68.4457    218.9890   1.0432647650e+02   1.9258884235e+01    0.8651058    0.4540529  63.89  0.003928903    2.315    0.568
       209 -11.4363     76.7770    218.8368   1.0236330714e+02   1.8197886524e+01    0.5778733    0.3715072  38.93  0.003119927    1.375    0.273
       210 -10.9048    118.2003    215.0496   9.2160422883e+01   1.3059258313e+01    0.3996143    0.2337597 -63.62  0.001899488    2.108    0.526
       211 -10.5324    154.1220     28.9401   3.8943429884e+01   4.2576410298e+01    0.2882507    0.1913976 -14.87  0.001462415    1.944    0.485
       212  -9.2554     34.3075     29.3588   7.4411689735e+01   6.8103261912e+01     0.236868    0.1133455 -35.11  0.001138493    2.015    0.504
       213 -10.0697     35.3331     25.7471   7.2176197139e+01   6.8528917075e+01    0.2126309    0.1569768   6.86 0.0008678946    1.243    0.196
       214  -9.9314    110.0498     29.5136   4.7295975505e+01   5.3155128695e+01    0.2136957    0.1253125  59.48 0.0008862119    1.566    0.361
       215 -10.4380     69.1900     28.9093   5.8938852164e+01   6.2221863114e+01    0.1902887     0.187488 -46.93  0.001039423    1.266    0.210
       216 -10.6974     15.3558     28.3103   8.4522576167e+01   7.0522694960e+01    0.3437186    0.1936416   1.42  0.001405478    1.948    0.487
       217  -9.4508    215.8211     28.6320   3.1862737085e+01   2.8527003134e+01    0.1658328    0.1019471 -88.22 0.0004178291    1.616    0.381
       218 -10.8677     81.4592     26.9770   5.3981318003e+01   5.9933622888e+01    0.4014073    0.2702077  62.45  0.002083807    1.642    0.391
       219 -10.5850     77.4532     23.5044   5.3756798601e+01   6.1206664928e+01    0.2273952    0.1870072  67.06 0.0006990562    1.413    0.292
       220 -10.3416     73.0570     25.8026   5.6212847592e+01   6.1842846910e+01    0.2857504    0.1826705 -40.26  0.001486868    1.803    0.445
       221  -9.8303    206.9781     25.4992   3.1934898377e+01   3.0776100661e+01    0.1889523    0.1461062 -47.96  0.000539382    1.196    0.164
       222  -9.8031    183.9753     25.5263   3.4219493090e+01   3.5905227234e+01    0.2405854     0.154647 -56.25  0.001059594    1.467    0.318
       223 -10.4826    121.2886     26.2574   4.3720213598e+01   5.0849494688e+01    0.3897943    0.2916206 -87.85  0.002097935    1.522    0.343
       224 -12.4254    236.3271    208.3978   6.6824850958e+01  -2.9468819938e+00    0.4177663    0.2994489  18.62  0.002736861    1.354    0.261
       225  -9.9601    149.0204    210.0697   8.4345072611e+01   9.2974908654e+00      0.20175    0.1791625  12.35 0.0002875492    1.012    0.012
       226  -9.9937    235.9697    219.3084   6.8773727951e+01  -4.4613130614e+00    0.1622373   0.08874084  49.91 0.0007043316    4.241    0.764
       227  -9.7617     90.4601    204.9335   9.7393034016e+01   1.9336766683e+01    0.2861281     0.140732 -69.69  0.001191353    2.498    0.600
       228 -10.6482    248.5600    211.9391   6.5420735396e+01  -4.9196468668e+00    0.2196251    0.1546888  16.90 0.0009610396    1.377    0.274
       229 -11.0674    225.7852     23.3727   2.9906608943e+01   2.7088575645e+01    0.3072709    0.2240291  38.81  0.001873019    2.115    0.527
       230  -9.3604    179.4960     28.9436   3.5607098443e+01   3.6544860450e+01    0.1858669    0.1236118 -34.98 0.0007476738    1.536    0.349
       231  -9.4040     98.8046     23.7223   4.7807358143e+01   5.6447467721e+01    0.1807019    0.1561809 -81.92    0.0010589    1.371    0.271
       232 -10.3787    164.7456     22.0000   3.5518288964e+01   4.0804859754e+01    0.3440775     0.249734  20.67  0.001853247    1.991    0.498
       233 -10.0963    158.5250     22.9367   3.6582918013e+01   4.2191053379e+01    0.2212289    0.1618535  58.58 0.0003422907    1.328    0.247
       234 -10.0554     11.4079    202.1922   1.1622219086e+02   2.9317354983e+01    0.1805819   0.09805443  83.18 0.0009517837    1.708    0.414
       235  -9.8726      7.7744     21.9483   8.6398441840e+01   7.2337702640e+01    0.2588097    0.1495697 -51.82  0.001475067    1.822    0.451
       236  -9.7829    179.2093     21.9945   3.3831213627e+01   3.7402702055e+01    0.2265186    0.1729407  78.63  0.001104507    1.201    0.167
       237  -9.1564      1.9878     19.5196   8.9126379197e+01   7.3225070467e+01    0.2217854   0.08720689 -26.24 0.0009712044    2.855    0.650
       238  -9.1190    205.9717     20.9849   3.0984842121e+01   3.1507615373e+01    0.1477662    0.1216641 -66.21 0.0004105738    1.030    0.029
       239  -9.4291    142.4902     21.4838   3.8438645236e+01   4.6225620028e+01    0.1330172    0.1190199  73.91 0.0008102582    1.026    0.025
       240 -10.2577     51.5092     20.5561   6.2007915820e+01   6.6649939967e+01    0.2036922    0.1203201 -28.36 0.0007055091    1.733    0.423
       241 -11.1441     55.0761     19.1999   5.9854444515e+01   6.6174170956e+01    0.2928055    0.2097109  16.52 0.0007144195    1.352    0.260
       242  -9.1699     57.5357    196.5046   1.0456660416e+02   2.5734027532e+01    0.1362507    0.1204921  66.84 0.0001957501    1.026    0.025
       243 -10.1944    103.0379    194.4907   9.2780398579e+01   1.9797626595e+01    0.2345392    0.1908042 -37.09 0.0003305765    1.359    0.264
       244 -12.8472    249.0337    185.0078   6.0534846325e+01  -1.1002554727e+00    0.5753627    0.3871499   4.31  0.003533083    1.566    0.362
       245  -9.4476    216.3152    192.6726   6.7482954848e+01   2.1506542815e+00    0.1139532    0.1042209 -66.22 0.0007044341    1.673    0.402
       246 -10.0311    222.2315     19.6189   2.9373862486e+01   2.8237870103e+01    0.1584369   0.09881913  67.38 0.0009506507    1.674    0.403
       247  -9.9246    193.6525     16.9118   3.1118317841e+01   3.4663072116e+01    0.1733248    0.1386285 -60.66 0.0004467302    1.109    0.099
       248  -9.9412    206.8311    190.1559   6.8764652864e+01   3.9568858058e+00    0.1856599    0.1364292  -9.41 0.0004494082    1.305    0.233
       249  -9.1941     64.2338    188.3867   1.0189509094e+02   2.6815718771e+01    0.2021994       0.1158  42.24 0.0009473429    1.638    0.389
       250  -9.8364    216.3337    187.6725   6.6540689166e+01   2.9684635575e+00    0.1166081    0.1052848 -71.08 0.0007051692    1.718    0.418
       251  -9.2404    104.4143    185.4916   9.1012229463e+01   2.1639054890e+01    0.1416645    0.1376454  46.88 6.659894e-05    1.016    0.015
       252  -9.5352     46.6310    184.2391   1.0601735669e+02   2.9999041403e+01    0.1830101     0.116404 -61.90 0.0003010244    1.539    0.350
       253  -9.2987     28.5135    183.5622   1.1066128126e+02   3.2116396897e+01    0.1302982    0.1156089  82.03   0.00013398    1.035    0.034
       254 -13.1047    238.7266    178.4737   6.0953476341e+01   1.2687983470e+00    0.6572256    0.3899375  24.76  0.003646886    1.900    0.474
       255 -10.6133     36.4535    172.5491   1.0746426757e+02   3.4031151911e+01    0.2329141    0.2063597 -74.07  0.001404769    1.102    0.093
       256 -11.5066     54.2227    168.6481   1.0205951050e+02   3.2981632125e+01    0.2839187    0.2297108 -68.39 0.0004505979    1.183    0.155
       257  -9.6812     41.3041    168.3828   1.0565140483e+02   3.4559571802e+01    0.1828929    0.1213772  41.00 0.0009298482    1.490    0.329
       258  -9.5746     29.4149    163.9194   1.0848125694e+02   3.6929731900e+01    0.3013777    0.1123673  56.41 0.0008172903    3.485    0.713
       259 -13.3726    217.5714    156.7995   6.0218935119e+01   8.0295967557e+00    0.6550983    0.5675918  36.23  0.004044379    1.328    0.247
       260  -9.7695    113.6528    159.2431   8.3825056151e+01   2.6279238172e+01    0.2649501    0.1842563 -42.01 0.0007348287    1.482    0.325
       261  -9.8918      1.6143    153.9601   1.1535983388e+02   4.1728905864e+01     0.179758    0.1380527 -84.88 0.0005902497    1.092    0.084
       262  -9.4308     17.8375    150.1945   1.1035577175e+02   4.1484836009e+01    0.1813897    0.1392006 -53.58 0.0002405584    1.309    0.236
       263  -9.2928    125.3984    147.2786   7.8172067074e+01   2.6954667868e+01    0.2008449    0.1484154 -58.82 0.0003821641    1.446    0.309
       264  -9.5612     30.9856    146.9900   1.0603383306e+02   4.1138196701e+01    0.2123524     0.147978  66.77 0.0003396211    1.521    0.342
       265 -10.3282     11.9584    145.0123   1.1156881326e+02   4.3276107303e+01    0.1984316    0.1674174 -76.17            0    1.041    0.040
       266 -14.4058    237.7833    129.1084   5.1264667204e+01   9.4005638572e+00     1.760742     1.489879 -26.66   0.01132703    1.082    0.076
       267 -11.5631    233.0248    117.0029   4.9400753038e+01   1.2192623068e+01    0.4294738      0.31779  44.28 0.0003438237    1.612    0.380
       268 -13.4841    214.2970    133.5698   5.5860700832e+01   1.2669684448e+01     1.193549    0.9059291 -71.23  0.006286934    1.842    0.457
       269 -13.8270    220.8730    115.2740   5.0803460518e+01   1.4652779897e+01     2.115871     1.525567  13.56   0.01096056    2.003    0.501
       270  -9.0412      2.3012    143.3649   1.1428472674e+02   4.4361037599e+01    0.1388145   0.08056293 -50.11 0.0002488802    1.731    0.422
       271 -11.1718     28.0293    140.0000   1.0604396366e+02   4.3238474414e+01    0.4351899    0.2820854 -54.89  0.001458135    1.437    0.304
       272 -10.0845     21.3026    142.0180   1.0839646881e+02   4.3307856755e+01     0.189155    0.1593213 -79.28 0.0004712135    1.043    0.041
       273  -9.7147     54.2089    133.5968   9.6609650578e+01   4.2057215455e+01    0.2003041    0.1722747 -73.58 0.0005573445    1.118    0.106
       274 -10.5709     15.8745    132.3148   1.0894530478e+02   4.6259439657e+01    0.3989234    0.2450346 -33.02  0.001927697    1.928    0.481
