#   1 NUMBER                 Running object number                                     
#   2 MAG_AUTO               Kron-like elliptical aperture magnitude                    [mag]
#   3 X_IMAGE                Object position along x                                    [pixel]
#   4 Y_IMAGE                Object position along y                                    [pixel]
#   5 X_WORLD                Barycenter position along world x axis                     [deg]
#   6 Y_WORLD                Barycenter position along world y axis                     [deg]
#   7 A_WORLD                Profile RMS along major axis (world units)                 [deg]
#   8 B_WORLD                Profile RMS along minor axis (world units)                 [deg]
#   9 THETA_WORLD            Position angle (CCW/world-x)                               [deg]
#  10 FWHM_WORLD             FWHM assuming a gaussian core                              [deg]
#  11 ELONGATION             A_IMAGE/B_IMAGE                                           
#  12 ELLIPTICITY            1 - B_IMAGE/A_IMAGE                                       
         1  -8.0084    245.9006     10.7730   3.2786458425e+01   2.3411397725e+01    0.1616863     0.142482 -83.40 0.0004140344    1.201    0.168
         2  -7.1349    121.2265     10.9326   4.7562801074e+01   5.2902247285e+01    0.1517806    0.1100086 -22.38 0.0004308327    1.537    0.350
         3  -6.8569    196.6535      8.7157   3.6375291988e+01   3.4679635010e+01    0.1271693   0.08938293  48.21 0.0005044145    1.647    0.393
         4  -7.5432    194.4849      2.4771   3.5029480223e+01   3.5806440174e+01    0.1269156    0.1079782  89.70  0.000466749    1.039    0.037
         5  -7.2273    115.7117      1.6952   4.5262781638e+01   5.4976222664e+01    0.1342115   0.08283969  37.45 0.0002057116    1.568    0.362
         6  -7.7362    249.4679    231.9099   7.8501603908e+01  -1.0089519300e+01    0.1641531    0.1000486 -27.70  0.001012088    1.541    0.351
         7  -8.4924    240.2889    248.3656   8.2830413203e+01  -1.0914051892e+01    0.2096831    0.2044149  53.08 0.0005331727    1.919    0.479
         8 -11.7480     55.7443    240.3062   1.1748794732e+02   1.7416365690e+01     1.209777    0.8769625  25.59  0.001434525    1.804    0.446
         9 -14.6916      6.8750    245.5791   1.2658030080e+02   2.1909672956e+01     2.646771     1.722255 -82.06   0.01950293    1.444    0.307
        10  -7.5729     54.0558    222.0179   1.1631610070e+02   2.1274344664e+01    0.2322299   0.08367229  52.64  0.001011832    2.540    0.606
        11  -9.1951    209.7056    219.8317   8.3610727274e+01  -2.7348405800e+00    0.3016135    0.2625171  69.01  0.001470568    1.853    0.460
        12 -10.4939     21.4619    241.4703   1.2386339417e+02   2.1187258775e+01    0.2698371    0.2199247  77.86  0.002092171    1.186    0.157
        13 -10.3048    229.4417    213.3893   7.8770223965e+01  -4.7928672458e+00    0.2330182    0.2006766   6.53 0.0001507339    1.136    0.120
        14  -9.0858    199.1518    209.6599   8.3856601353e+01   5.6026436396e-01    0.2790371    0.2296278   4.56 0.0002807342    1.111    0.100
        15  -7.5363     90.9583    215.2143   1.0783640428e+02   1.7582183998e+01    0.1908151    0.1289359  72.77 0.0008682181    1.596    0.374
        16  -8.9238    197.9636    214.2628   8.4914205777e+01   8.8457520525e-03    0.2657125    0.2060506  39.61  0.000396335    1.327    0.246
        17  -7.4816    121.3376    210.7796   1.0056828990e+02   1.3666037405e+01    0.1742693    0.1235214 -45.48 0.0003568837    1.616    0.381
        18  -8.4145    199.7999    204.9780   8.2874039759e+01   1.2242877142e+00    0.2210849    0.1727584  25.66 0.0004232708    1.165    0.141
        19  -8.4854     54.2619    230.8669   1.1702075405e+02   1.9450593026e+01    0.2706749    0.1657377  64.10  0.001614491    1.423    0.297
        20  -7.6429     64.5069    203.0082   1.1224963197e+02   2.3986470533e+01    0.1864695    0.1188296 -73.94 0.0005778425    1.526    0.345
        21  -7.4734    226.0904    201.6711   7.7212954119e+01  -2.5245951116e+00     0.176936    0.1439942  13.48 0.0004203598    1.102    0.092
        22  -9.9546    167.0017    199.7674   8.8720219514e+01   7.8635940308e+00    0.2551466    0.2342885 -48.30 0.0004540451    1.225    0.184
        23  -7.4431     57.4846    200.5305   1.1354420699e+02   2.5459835667e+01    0.1291926    0.1096364  75.71 0.0008096339    1.018    0.017
        24  -9.4568     50.6148    199.4724   1.1495656223e+02   2.6561232422e+01    0.2493588    0.2089991  80.33 0.0006986017    1.029    0.028
        25  -8.5583    118.9847    197.7275   9.9128551560e+01   1.6777530963e+01    0.2111752    0.1946192 -68.36 0.0003629057    1.149    0.130
        26  -7.1488     32.3109    196.6274   1.1869090588e+02   2.9314883594e+01    0.1369535   0.07408495  68.63 0.0007033037    1.777    0.437
        27  -7.0020    237.6635    228.3438   7.9944220814e+01  -8.0490996504e+00    0.1020073   0.09923249  60.10 0.0006361777    1.769    0.435
        28  -9.3541     51.5804    189.3254   1.1369290774e+02   2.8748761419e+01    0.2268439    0.2017363  88.47 0.0002695013    1.102    0.092
        29  -9.1275     61.3229    185.3320   1.1096155839e+02   2.8434271723e+01    0.2856296    0.1588096 -50.58  0.001366592    2.034    0.508
        30  -8.7082    188.9060    184.7155   8.1212305122e+01   6.6995195004e+00    0.2317818    0.1972734 -34.46 0.0003224313    1.199    0.166
        31  -7.2210    174.5188    182.4503   8.3820874435e+01   9.8063739510e+00    0.1422031    0.1363897  41.73 0.0002061958    1.130    0.115
        32  -8.9782    101.0026    176.0040   9.9929099182e+01   2.4695034158e+01    0.2065704    0.1908892  74.55            0    1.022    0.022
        33  -7.2761     97.6233    176.1697   1.0079734862e+02   2.5215530433e+01    0.1866889    0.1694804 -23.57 0.0002551192    1.327    0.247
        34  -7.9632    116.3628    174.3795   9.5838184625e+01   2.2418461581e+01     0.245536    0.2150914  38.94 0.0003391218    1.137    0.121
        35  -8.9405     22.1391    174.4936   1.1904438286e+02   3.5424410523e+01    0.2129577    0.1483884 -62.18 0.0007717858    1.418    0.295
        36  -8.9705     52.9094    173.7649   1.1158846684e+02   3.2248899385e+01    0.2183587    0.1813825 -68.94 0.0003026156    1.170    0.145
        37  -7.7513      3.9698    171.7147   1.2297109194e+02   3.7640547621e+01    0.1586808    0.1317937  79.29 0.0003889556    1.111    0.100
        38  -7.4949    121.5509    170.9320   9.3922883844e+01   2.2272703105e+01    0.2166238     0.144884 -51.85 0.0007194594    1.524    0.344
        39  -7.6487     78.2412    168.3852   1.0446038333e+02   3.0109118660e+01    0.2653864    0.1582885 -51.70 0.0009286705    1.713    0.416
        40  -7.5897     87.9594    165.3106   1.0145789289e+02   2.9365099327e+01    0.2010098    0.1816956  48.52 0.0004748342    1.127    0.112
        41  -7.0241     85.5500    159.5647   1.0111317699e+02   3.1143065995e+01    0.1434235    0.1350591 -84.16 0.0001408036    1.029    0.028
        42  -9.1289     74.2721    155.1879   1.0338680161e+02   3.3925641746e+01     0.363685    0.2412759 -41.16 0.0009376206    1.752    0.429
        43  -7.5827    147.0684    155.3396   8.4477922128e+01   2.0875527797e+01    0.2126623    0.1899211  44.00 0.0003711135    1.115    0.103
        44  -8.6064     69.0520    143.9140   1.0289426332e+02   3.7476938917e+01    0.3859083    0.2108841  66.54   0.00148421    2.757    0.637
        45  -7.8635     92.8358    138.7942   9.5169142454e+01   3.5071725812e+01    0.2161385    0.1975713 -34.82 0.0005018837    1.168    0.144
        46  -9.7323    193.2879    131.0625   6.8480739959e+01   1.6211209273e+01     0.270193    0.2430961 -30.90 0.0002590776    1.057    0.054
        47  -8.5052    136.9403    131.0089   8.1385072351e+01   2.8467726136e+01    0.2266878    0.2188544 -28.22 -0.001877172    1.042    0.040
        48  -8.3857    198.2841    128.1174   6.6781546304e+01   1.5712454005e+01    0.3042548    0.2551541   0.27 0.0008491608    1.348    0.258
        49  -8.5550     99.8400    124.8429   9.0059218788e+01   3.7256450592e+01    0.4009383    0.2643947 -61.80  0.001117333    1.595    0.373
        50  -6.8828    204.3167    122.7036   6.4322427140e+01   1.5452327116e+01    0.1476907     0.116805 -73.02 0.0001745914    1.608    0.378
        51  -7.2299    221.8676    117.0946   5.9871140894e+01   1.2786279076e+01      0.19058     0.161761  -8.17 0.0003998651    1.295    0.228
        52  -7.1888    134.2770    123.6259   8.0236505893e+01   3.0710317081e+01    0.1624939     0.125816 -81.61 0.0007006645    1.695    0.410
        53  -7.3653    140.8403    105.2099   7.3656105245e+01   3.3327925337e+01    0.2042995    0.1808257   4.10 0.0002827785    1.265    0.210
        54  -8.6080     83.6333    103.2310   8.9615845512e+01   4.5241883718e+01      0.27839    0.2467416 -88.87 0.0004231135    1.305    0.234
        55  -7.5454    248.6978     99.3039   5.1746311657e+01   1.0438780307e+01    0.1360802   0.09420902 -61.13 0.0002805445    1.593    0.372
        56  -7.8463    117.7891     90.1595   7.5507044056e+01   4.1607211162e+01    0.3469363    0.2195781  15.48  0.001291349    2.575    0.612
        57  -9.1338    196.7344     83.9933   5.5943836172e+01   2.4237126458e+01    0.3899747    0.2921539 -28.59  0.001213614    1.400    0.286
        58 -10.2446    100.6695     83.9459   7.8688469112e+01   4.6437405070e+01    0.2539555    0.2435452  23.32 0.0002402733    1.066    0.062
        59  -7.6186    111.9376     82.8962   7.4975233280e+01   4.4350701859e+01    0.2186889    0.1933776  -9.67            0    1.181    0.153
        60  -7.6970    171.8018     73.0067   5.7500232785e+01   3.2144552188e+01    0.2033017    0.1864948 -42.55  0.001082584    1.088    0.080
        61  -7.1583    147.5472     59.5856   5.8467977490e+01   4.0348454569e+01    0.1485949    0.1402917  40.39 0.0001613685    1.060    0.056
        62  -7.7131    182.3146     50.3125   4.9240850631e+01   3.3115095007e+01    0.1430691    0.1100847  29.61   0.00032884    1.638    0.389
        63  -7.4562    129.8064     38.1211   5.5342484419e+01   4.7819112140e+01    0.1882935    0.1562631  22.50  0.001014439    1.283    0.221
        64  -9.1015    203.3625     31.4200   4.1353532879e+01   3.0515042471e+01    0.3298978    0.2271668  33.91   0.00145953    2.049    0.512
        65  -7.4253    168.0931     31.7045   4.6154603795e+01   3.9140399461e+01    0.1979585    0.1577881  65.79 0.0004388524    1.163    0.140
        66  -8.2889    160.5979     30.3971   4.6951247772e+01   4.1174493315e+01    0.2619652    0.1940727  33.23  0.000331949    1.573    0.364
        67  -9.1224    128.4934     25.9079   5.1398361348e+01   4.9634042247e+01    0.3297807    0.2357413 -44.01 0.0009363153    1.567    0.362
        68  -8.4517    234.0076     15.9559   3.4764681025e+01   2.5356552147e+01    0.1858698    0.1475467 -69.96            0    1.029    0.028
        69  -6.9378    223.3284    249.3211   8.5985893197e+01  -8.7859999069e+00    0.1236168   0.07467121   5.87 0.0002308876    1.689    0.408
        70  -7.5591     80.6461    244.1906   1.1302553218e+02   1.3370512235e+01    0.1499277    0.1060935 -59.64 0.0009372715    1.674    0.402
        71  -7.6449     99.7649    242.7279   1.0911618991e+02   1.0896202910e+01    0.1707453    0.1178709  59.24 0.0003898267    1.326    0.246
        72  -8.1967    210.9205    237.1600   8.6311062878e+01  -5.4285472098e+00    0.1787785    0.1424069  14.19 0.0003084394    1.013    0.013
