#   1 NUMBER                 Running object number                                     
#   2 MAG_AUTO               Kron-like elliptical aperture magnitude                    [mag]
#   3 X_IMAGE                Object position along x                                    [pixel]
#   4 Y_IMAGE                Object position along y                                    [pixel]
#   5 X_WORLD                Barycenter position along world x axis                     [deg]
#   6 Y_WORLD                Barycenter position along world y axis                     [deg]
#   7 A_WORLD                Profile RMS along major axis (world units)                 [deg]
#   8 B_WORLD                Profile RMS along minor axis (world units)                 [deg]
#   9 THETA_WORLD            Position angle (CCW/world-x)                               [deg]
#  10 FWHM_WORLD             FWHM assuming a gaussian core                              [deg]
#  11 ELONGATION             A_IMAGE/B_IMAGE                                           
#  12 ELLIPTICITY            1 - B_IMAGE/A_IMAGE                                       
         1 -14.9694      7.0885    144.2055   1.4490738456e+02   4.4158240528e+01     6.013735     1.670461 -81.80   0.02327208    3.633    0.725
         2 -13.4598    195.8965     28.0422   6.9388228188e+01   3.2624382909e+01      1.51706     1.447045  26.68  0.006813329    1.178    0.151
         3 -13.4926    212.0531      7.9049   6.2096342544e+01   3.0791840258e+01     1.221332     0.972673  40.73  0.003402298    1.491    0.329
         4 -11.5669      3.1163      6.2463   1.1803985099e+02   7.3201583564e+01    0.5040725    0.2378664 -39.80  0.003111324    1.570    0.363
         5 -10.9136     50.8700    245.5211   1.4396649063e+02   1.9500248102e+01    0.2312055    0.1962208 -31.34   0.00170994    2.309    0.567
         6 -11.3452    139.4183    246.2610   1.2872828443e+02   6.8836058341e+00    0.2725398    0.2033398 -41.31   0.00148593    1.797    0.444
         7 -11.6783    124.4129    249.7877   1.3176101650e+02   8.6693803541e+00    0.4905954    0.1659818  44.39  0.002348206    2.252    0.556
         8 -10.8086     34.0198    249.0211   1.4688476811e+02   2.0876507795e+01    0.3247479    0.1805355  64.07  0.002263928    1.320    0.242
         9 -11.7294     35.5012    243.9342   1.4637002242e+02   2.1564476099e+01    0.4097532    0.2286267  44.70   0.00285909    1.576    0.366
        10 -10.6453      2.8625    248.2880   1.5161412725e+02   2.4233689477e+01    0.2893781    0.1625985 -79.09  0.002239246    1.693    0.409
        11 -10.8182    237.7327    246.7182   1.1178262559e+02  -8.3350894698e+00    0.2084818    0.1113113  32.77   0.00128693    1.472    0.320
        12 -10.5901    101.3274    247.3194   1.3554745872e+02   1.2474315935e+01    0.1753388    0.1691469 -52.64  0.001389315    1.489    0.328
        13  -9.7609    245.3171    246.6686   1.1054135834e+02  -9.3977206200e+00   0.09414669   0.08399232  42.88 0.0007047174    1.687    0.407
        14 -10.4538    198.0429    246.4824   1.1843615987e+02  -2.3819711524e+00    0.1839948   0.09145863  39.64 0.0006071858    1.585    0.369
        15 -11.1525     20.8061    243.9493   1.4870068690e+02   2.3160292010e+01    0.3704579    0.1323622  65.04  0.002083948    2.382    0.580
        16 -10.6013     29.5294    249.1274   1.4759453000e+02   2.1356339450e+01    0.3145738    0.1861958 -87.71  0.002348181    1.510    0.338
        17  -9.4810     82.4664    243.5167   1.3848318453e+02   1.5753287323e+01    0.1122405   0.08599371  60.66  0.000809233    1.036    0.034
        18 -11.1176    153.2911    249.0557   1.2660268774e+02   4.3108994132e+00    0.3769025    0.2071635  64.24  0.001885771    2.766    0.639
        19  -9.3972    111.6670    242.3087   1.3323910876e+02   1.1749525597e+01    0.1213184   0.07240403  63.84 0.0007041718    1.671    0.401
        20 -10.1599    187.4871    241.0231   1.1951133450e+02  -3.8109338234e-02    0.1539783    0.1176001 -35.09 0.0008593913    1.606    0.378
        21 -10.3323     12.4476    240.4959   1.4984365353e+02   2.4603879232e+01    0.1904974   0.08128457  39.82  0.001212823    2.175    0.540
        22 -10.3977     22.2046    237.2327   1.4814781374e+02   2.4164928890e+01    0.2763984    0.1456103 -53.25  0.001646681    3.232    0.691
        23 -10.7453    225.7811    249.0275   1.1410019468e+02  -6.8555289980e+00    0.2670186    0.1482182  23.17  0.001611617    1.638    0.390
        24 -12.5544    123.8486    232.2394   1.2993237151e+02   1.1504133422e+01    0.7500878    0.2141257  43.08  0.003097862    2.791    0.642
        25 -12.6072    110.5161    231.2328   1.3228233383e+02   1.3741102464e+01     1.077678    0.1359352  44.08  0.003250824    5.377    0.814
        26 -12.6941     92.6853    227.6382   1.3520017311e+02   1.7023581027e+01      1.61367    0.1413143  47.28  0.004088361    8.005    0.875
        27  -9.6685     54.5333    229.3610   1.4222885410e+02   2.1861789606e+01    0.2388269    0.1463548  75.14 0.0009259062    1.411    0.291
        28 -10.6731     70.6463    219.5370   1.3851438595e+02   2.1578908510e+01    0.8505765    0.1313655  51.33  0.002238249    7.931    0.874
        29 -10.5939    173.3931    222.5572   1.1939685032e+02   4.8507989108e+00    0.2910657    0.2528444  57.23  0.001777474    1.254    0.202
        30 -10.1304     56.6633    224.0446   1.4144712081e+02   2.2561261282e+01     0.273286    0.2509435   3.03  0.002040905    1.834    0.455
        31  -8.9347    152.6549    213.0366   1.2193538742e+02   9.9091878159e+00    0.1596308    0.1527871  57.44  0.000350779    1.132    0.117
        32 -12.3664      9.6810    206.9104   1.4866034608e+02   3.0954154044e+01    0.6450272    0.3684183  34.25  0.003172032    2.048    0.512
        33 -11.6656     60.4475    200.2296   1.3867783831e+02   2.6648988090e+01    0.2483367    0.2153173 -76.43 0.0006201568    1.296    0.228
        34  -8.8360    195.2204    199.4286   1.1152359900e+02   4.5355497254e+00    0.1815567    0.1139563  50.58 0.0005918823    1.666    0.400
        35 -10.6859     16.5749    198.0531   1.4690716257e+02   3.2018771483e+01    0.2423837    0.1443797  58.19 0.0002590351    1.390    0.281
        36  -9.0531    192.0141    193.2062   1.1102397388e+02   6.0873714992e+00    0.2827363    0.1467597 -59.05  0.001055876    3.938    0.746
        37 -11.9023     66.9013    191.6430   1.3650821485e+02   2.7546724331e+01    0.2496454    0.2125253 -76.94 0.0004467285    1.229    0.186
        38 -13.0444     48.4150    216.5271   1.4235637367e+02   2.4973265757e+01     1.016523    0.9353606 -45.74  0.006153777    1.698    0.411
        39 -13.1979     63.8479    176.8889   1.3550733743e+02   3.1059409655e+01    0.4658517    0.2651018 -47.92  0.001633549    2.259    0.557
        40 -10.7645     77.2649    178.4730   1.3276730580e+02   2.8879566408e+01    0.2258877    0.1981409 -89.95 0.0003406982    1.088    0.081
        41  -9.3637     98.5873    175.2920   1.2760795644e+02   2.6320640597e+01    0.2523211    0.1754622  69.08 0.0009861923    1.494    0.331
        42 -11.7985     85.1062    169.2702   1.2977060756e+02   2.9717919060e+01    0.6467203    0.5609426  18.78   0.00391345    1.524    0.344
        43 -10.1754     97.3936    153.2538   1.2435155532e+02   3.1326934902e+01    0.3063078    0.2720748 -49.03 0.0008742935    1.245    0.197
        44  -9.2666    100.3299    148.9477   1.2287365925e+02   3.1802933171e+01    0.2038346    0.1867631 -36.37 0.0004277542    1.277    0.217
        45 -11.9884     86.0676    152.3529   1.2694666847e+02   3.3332380945e+01    0.2889371    0.2442614 -49.55 0.0006434555    1.307    0.235
        46 -12.1110     67.5134    143.6820   1.3014657988e+02   3.7994494687e+01    0.6725066     0.412146  65.86  0.003281778    1.869    0.465
        47 -12.8866     33.6417    234.6650   1.4614210593e+02   2.3374929368e+01    0.2819165    0.2348158 -88.61 0.0007765544    1.363    0.266
        48  -9.8929    109.4332    137.7646   1.1845513291e+02   3.2730436351e+01    0.4308234    0.2962675 -19.48  0.001408116    2.427    0.588
        49 -10.3301     96.4370    135.3174   1.2126998044e+02   3.5546133468e+01    0.2451689    0.2327571 -37.36 0.0004098625    1.188    0.159
        50 -10.8308     31.9676    131.8891   1.3752247714e+02   4.4814221941e+01    0.3023622    0.1871356  57.34  0.001317427    1.717    0.418
        51  -9.0068    115.7855    129.8122   1.1515621393e+02   3.3339152824e+01    0.2470981    0.1668254 -10.32 0.0009565633    2.851    0.649
        52  -8.7213    134.0000    145.9849   1.1417411861e+02   2.6274056258e+01    0.2446162   0.08339457 -49.06 0.0008091292    2.989    0.665
        53  -8.9806    106.6929    124.2782   1.1627569262e+02   3.6267629472e+01    0.1792394    0.1633241 -21.00 0.0003336084    1.263    0.208
        54  -9.2892    167.9042    113.0873   9.8593495164e+01   2.5785204533e+01    0.2431736    0.2084103 -80.81  0.001198659    1.374    0.272
        55 -13.9062     38.7708    227.8352   1.4485718305e+02   2.4013883806e+01    0.8459764    0.5115219  61.31  0.002821136    1.264    0.209
        56 -10.4501    157.7942     76.4518   9.0577068268e+01   3.5123425633e+01    0.3009191    0.2413995 -67.23 0.0008224569    1.458    0.314
        57  -8.9614     39.0098     65.5263   1.2268555398e+02   5.9132802364e+01    0.2006455    0.1616326  75.47  0.001214404    1.703    0.413
        58 -11.2969     12.6507     54.3606   1.2983371183e+02   6.3650083189e+01    0.3037046    0.1932159  42.07  0.001269411    2.098    0.523
        59 -11.7053      2.3707     49.4917   1.3278143264e+02   6.5243210625e+01    0.5421945    0.1038669 -59.05  0.002233385    3.044    0.672
        60 -11.5833    172.5505    248.0748   1.2309332508e+02   1.4112865155e+00    0.3368851    0.2209294  48.97  0.002150188    1.369    0.269
        61 -11.6527    146.0543    248.0280   1.2775755503e+02   5.5899545387e+00    0.3299603    0.2789957  63.60  0.002416722    1.232    0.188
