#   1 NUMBER                 Running object number                                     
#   2 MAG_AUTO               Kron-like elliptical aperture magnitude                    [mag]
#   3 X_IMAGE                Object position along x                                    [pixel]
#   4 Y_IMAGE                Object position along y                                    [pixel]
#   5 X_WORLD                Barycenter position along world x axis                     [deg]
#   6 Y_WORLD                Barycenter position along world y axis                     [deg]
#   7 A_WORLD                Profile RMS along major axis (world units)                 [deg]
#   8 B_WORLD                Profile RMS along minor axis (world units)                 [deg]
#   9 THETA_WORLD            Position angle (CCW/world-x)                               [deg]
#  10 FWHM_WORLD             FWHM assuming a gaussian core                              [deg]
#  11 ELONGATION             A_IMAGE/B_IMAGE                                           
#  12 ELLIPTICITY            1 - B_IMAGE/A_IMAGE                                       
         1 -18.6378     24.6297     82.0847   7.1026212647e+01   5.7496879884e+01     15.14235    0.7355906 -60.70   0.02294778   18.842    0.947
         2 -16.9585     42.2233    178.5536   8.1410034613e+01   3.2395086759e+01     2.326789      1.13604 -80.38    0.0103016    2.128    0.530
         3 -12.0744    192.6280     49.2228   1.4897798507e+01   3.1063571390e+01    0.2410329    0.1990072  27.84 0.0007758493    1.651    0.394
         4 -14.8203    243.9642    246.2753   4.7385890102e+01  -1.1394012577e+01     1.004577    0.5445694  31.55  0.006038243    1.774    0.436
         5 -12.9510    225.5621    249.9920   5.1267322682e+01  -9.6042452438e+00    0.5788341    0.1826906  31.76   0.00252372    2.942    0.660
         6 -14.8545    205.8289    248.9825   5.4785874691e+01  -6.8341372286e+00     1.423516    0.5090608  32.49  0.005759448    2.521    0.603
         7 -13.8128    197.0262    249.6508   5.6580596835e+01  -5.7034002741e+00    0.8808782    0.3285142  38.24   0.00398173    2.442    0.590
         8 -13.7113    141.1904    217.0809   6.3083301365e+01   8.7020522628e+00     1.378976    0.9327505 -29.65  0.006847913    1.846    0.458
         9  99.0000     96.2102    242.3225   7.6333182665e+01   1.0793776929e+01     1.618279    0.6830981  49.94  0.007174813    2.254    0.556
        10 -14.1971    116.4563    232.0027   7.0725469952e+01   9.7464893078e+00     2.634394    0.4426981  35.41  0.006873085    5.793    0.827
        11 -13.9223     99.9982    227.3545   7.3740382422e+01   1.3240818143e+01     1.458556    0.4020464  43.92  0.005143531    3.169    0.684
        12 -16.3370    146.3324    243.9085   6.5966944091e+01   2.8262089438e+00      6.11682     1.434021  35.52   0.02000559    3.859    0.741
        13 -15.1145    234.6546    226.3404   4.5682751310e+01  -7.4375250105e+00     1.518975    0.7068396  23.91   0.00738667    2.335    0.572
        14 -16.5003     46.6786    209.9652   8.3688433935e+01   2.4458748914e+01     3.101457     2.043479  85.87   0.01712118    1.458    0.314
        15 -11.3353     70.8635    229.5534   8.0351276028e+01   1.7015415867e+01     0.252704    0.1639001 -83.93 0.0007121745    1.635    0.388
        16 -14.8281    120.6394    249.0774   7.2011898391e+01   5.8559559877e+00     1.654701    0.3253087  37.66  0.005324918    4.049    0.753
        17 -11.3470     97.9538    217.1639   7.2889005153e+01   1.5712113571e+01    0.2408821    0.1980553 -70.75  0.001394448    1.280    0.219
        18 -11.6873     89.8187    212.3558   7.4126006721e+01   1.8009225398e+01    0.3852097    0.2397546  57.75  0.001246186    1.640    0.390
        19 -14.6761    236.3421    204.8990   4.1561446675e+01  -4.3884493735e+00     1.381555     0.936369  -0.78  0.007885414    1.562    0.360
        20 -15.9692    241.3356    159.8863   3.2047849329e+01   2.3618357625e+00     2.334727     1.080502 -42.56  0.008542274    1.911    0.477
        21 -14.5488    226.0977    178.7200   3.8418044944e+01   1.5500795557e+00     1.009972    0.9727932  50.52  0.004942176    1.308    0.235
        22 -14.6702    236.1042    188.7389   3.8581302165e+01  -1.7268832232e+00     1.032947    0.6685868  29.63  0.004444796    1.637    0.389
        23 -14.1944    238.8563    179.6708   3.6361380996e+01  -6.2681691901e-01    0.7386054    0.6318024 -54.55  0.003988949    1.452    0.311
        24 -12.7951    163.0469    208.7489   5.6861850679e+01   6.6388938255e+00    0.4830665    0.2597693 -40.81   0.00218271    1.985    0.496
        25 -11.7703     72.9625    235.3322   8.0492543640e+01   1.5520887276e+01    0.3176131    0.2029871  44.03  0.001251195    1.360    0.265
        26 -11.3016     97.6403    198.1972   7.0311161850e+01   1.9994497859e+01    0.2341088    0.1767356  50.08 0.0004651254    1.256    0.204
        27 -11.0692     81.0079    194.1126   7.3772048487e+01   2.3510677910e+01    0.3266754    0.1480188  57.06  0.001212434    2.825    0.646
        28 -12.9899    111.0946    185.9597   6.5066674156e+01   2.0607795727e+01    0.3572726    0.2742243  12.02  0.001746358    1.645    0.392
        29 -13.0357    127.3524    184.0517   6.0724498988e+01   1.8193764278e+01    0.4111506      0.21855  35.11  0.001597251    1.887    0.470
        30 -13.9371    119.6214    182.9563   6.2429316293e+01   1.9822467344e+01    0.5125486     0.348995  17.41  0.002285487    1.907    0.476
        31 -14.3581    148.4021    178.5290   5.4621799316e+01   1.5556896950e+01    0.8437152     0.512489 -38.95  0.003699344    1.771    0.435
        32 -12.4967     96.2627    178.8761   6.7620865014e+01   2.4770377976e+01    0.4016835    0.2423291 -73.98  0.001729097    1.975    0.494
        33 -12.6097     62.8082    178.0239   7.6110910748e+01   2.9969198893e+01    0.3755671     0.319775  53.86   0.00111601    1.157    0.135
        34 -11.5558     89.0971    175.3197   6.8884292041e+01   2.6784683529e+01    0.2612058    0.1936724 -51.52  0.001075965    1.376    0.273
        35 -10.7237    171.5730    174.7937   4.8573294479e+01   1.1981822430e+01    0.2002677    0.1408853 -56.69 0.0009349362    1.609    0.378
        36 -13.6625    122.7074    172.0910   5.9654246252e+01   2.1799294242e+01    0.4864435    0.3021541  68.50  0.001893614    2.459    0.593
        37 -11.6756    103.1271    170.6361   6.4415351477e+01   2.5613716350e+01    0.2506572    0.1993118 -74.15 0.0005291936    1.327    0.246
        38 -11.2953    110.6705    167.3223   6.1835074101e+01   2.5100161480e+01    0.1581065    0.1161113  73.84 0.0007049232    1.695    0.410
        39 -15.9112     57.4275    151.3243   7.3579137671e+01   3.7331723469e+01     2.422383     1.393877  54.10   0.01069568    1.987    0.497
        40 -11.9045     96.9159    161.6781   6.4420267340e+01   2.8852055955e+01    0.2636188     0.212051 -71.14 0.0004023307    1.269    0.212
        41 -13.4884    133.7407    146.2464   5.1484528633e+01   2.5743475933e+01    0.5148668     0.258472 -54.87  0.001934087    2.134    0.531
        42 -12.6102     93.0806    147.6953   6.2771726981e+01   3.2947900516e+01    0.2965462    0.2143489 -49.53 0.0005937116    1.358    0.263
        43 -12.9672    108.8133    145.3466   5.7903636069e+01   3.0753510409e+01    0.3139279    0.2926648  58.44 0.0007477265    1.091    0.083
        44 -14.3529     83.4717    141.2645   6.4226235462e+01   3.6116434997e+01    0.6309226    0.5474159 -10.48  0.002247368    1.354    0.261
        45 -15.9693    146.1993    122.4070   4.2722140526e+01   2.8535371187e+01     1.697827     1.170431 -34.22  0.007261814    1.564    0.361
        46 -15.2209     68.7873    145.7468   6.9356673612e+01   3.7204126313e+01     1.436774    0.9514275  83.53  0.005533339    1.990    0.498
        47 -15.6779    161.8475    114.0172   3.6960101634e+01   2.6880202096e+01     1.757186     1.389193 -30.86  0.008570368    1.351    0.260
        48 -14.3900    235.2761    118.7014   2.4502052688e+01   1.0636959274e+01     1.257695    0.5151233 -35.76  0.005091481    2.381    0.580
        49 -12.7420     96.8893    143.9092   6.0921942521e+01   3.3231773491e+01    0.2391396    0.2087496 -24.18 0.0006650423    1.284    0.221
        50 -13.9293    106.5020    130.7440   5.5291060189e+01   3.4698113393e+01     0.495187    0.4088537  64.45  0.002317731    1.357    0.263
        51 -12.9883     97.9750    130.2215   5.7621696064e+01   3.6379002225e+01    0.3132175    0.2659984  22.22 0.0004012049    1.285    0.222
        52 -14.9866    141.1554    136.8800   4.7463860530e+01   2.6382884767e+01     1.149971    0.6074962 -53.80  0.004298146    2.021    0.505
        53 -11.8762    170.1656     68.1732   2.3327380855e+01   3.3462997039e+01    0.2132497    0.1998298  41.57 0.0006701049    1.179    0.151
        54 -12.7487    187.1032     54.7739   1.7062456208e+01   3.1548052547e+01     0.249987    0.1892019   7.76   0.00125191    2.103    0.525
