#   1 NUMBER                 Running object number                                     
#   2 MAG_AUTO               Kron-like elliptical aperture magnitude                    [mag]
#   3 X_IMAGE                Object position along x                                    [pixel]
#   4 Y_IMAGE                Object position along y                                    [pixel]
#   5 X_WORLD                Barycenter position along world x axis                     [deg]
#   6 Y_WORLD                Barycenter position along world y axis                     [deg]
#   7 A_WORLD                Profile RMS along major axis (world units)                 [deg]
#   8 B_WORLD                Profile RMS along minor axis (world units)                 [deg]
#   9 THETA_WORLD            Position angle (CCW/world-x)                               [deg]
#  10 FWHM_WORLD             FWHM assuming a gaussian core                              [deg]
#  11 ELONGATION             A_IMAGE/B_IMAGE                                           
#  12 ELLIPTICITY            1 - B_IMAGE/A_IMAGE                                       
         1 -13.2967      4.0528    118.4610   1.1090415239e+02   5.0596324756e+01      1.28842    0.6273668 -75.72  0.006079997    1.776    0.437
         2 -13.5359    194.1397      3.2916   2.7449915318e+01   3.5891983136e+01     1.794854    0.7550964  84.50  0.008618895    2.299    0.565
         3 -14.1580    245.0405     82.5174   4.0094712878e+01   1.5510109189e+01     2.565526     1.016124 -45.87     0.011978    2.079    0.519
         4 -13.8025    218.7849      6.9921   2.6530094178e+01   3.0281405009e+01     2.125352    0.9971366 -58.46    0.0116522    1.851    0.460
         5 -12.6544    238.3637      4.4190   2.4836658177e+01   2.6667272003e+01    0.9127315    0.6217092  87.36   0.00643359    1.367    0.268
         6 -13.1779    247.6462     64.1887   3.6073152340e+01   1.7671946915e+01     1.875946    0.6058717 -49.47  0.007981868    2.747    0.636
         7 -12.0418    244.3762     45.3613   3.2547988699e+01   2.0788170887e+01     1.206273    0.2752208 -36.53  0.004704329    3.418    0.707
         8 -11.3826     10.2241     26.0603   8.6382902952e+01   7.1383404781e+01     0.517072    0.2537261  -5.72  0.002433685    2.570    0.611
         9 -14.1160    246.6566     18.6132   2.7096956399e+01   2.3581485974e+01     2.429234     1.133631 -32.15   0.01352944    2.142    0.533
        10 -10.6958    155.9559     15.9091   3.4479553250e+01   4.3485477552e+01    0.3503511    0.2062595 -56.06  0.001804402    1.778    0.438
        11 -11.4297      6.6579     11.7739   8.1913977368e+01   7.4113858720e+01    0.5022221      0.27135 -15.48   0.00277474    1.894    0.472
        12 -10.7097    165.7023     12.4446   3.2365279154e+01   4.1510455547e+01    0.2388687    0.1707851  74.52 0.0008602824    1.243    0.196
        13 -11.4894    127.8277     11.7436   3.7192624423e+01   5.0681405337e+01    0.3818642    0.2252442  74.35   0.00195674    1.577    0.366
        14 -11.0010    155.9298     10.5634   3.2959215590e+01   4.4012027289e+01    0.2938214    0.2041373  82.78  0.001585866    1.292    0.226
        15 -10.2772    119.3918     10.7366   3.8258207781e+01   5.2808257821e+01    0.2442722    0.1484562  78.83 0.0008041065    1.656    0.396
        16  -9.8296    109.9956      2.8053   3.7078063350e+01   5.5716650022e+01    0.2275255    0.1535157 -29.44  0.001244063    1.684    0.406
        17 -10.5418    112.8263     11.1980   3.9608909729e+01   5.4341400450e+01    0.2462449     0.230999 -73.39 0.0009718049    1.166    0.142
        18 -10.9996    111.6273      7.2697   3.8409961346e+01   5.4968674231e+01    0.3451892    0.1849928  69.30  0.001712328    1.681    0.405
        19  -9.4484     28.9203     10.3438   6.7253407159e+01   7.1615736940e+01    0.1742175     0.128042  19.89 0.0005163701    1.156    0.135
        20 -10.4423    149.3103      9.0700   3.3329372627e+01   4.5735963719e+01    0.2671031    0.1725374  84.98  0.001464486    1.447    0.309
        21 -10.6070    139.7092      8.6760   3.4456942171e+01   4.8084204629e+01    0.2719297    0.1564133 -67.32  0.001332213    2.041    0.510
        22 -12.4205    174.0681      6.8405   3.0026907575e+01   4.0092944798e+01    0.6445097    0.2980182  87.34  0.003019668    2.205    0.547
        23 -11.8108    170.4078      2.1356   2.9152190761e+01   4.1369810767e+01    0.7376899    0.2034187  59.47  0.002954734    3.138    0.681
        24 -11.0271     20.8126      6.0899   6.9489513319e+01   7.3305229300e+01    0.2766678    0.2152729 -33.34  0.001116501    1.520    0.342
        25 -11.2669     22.6424      2.3306   6.6144909103e+01   7.3514794457e+01    0.5296385     0.143637  38.34  0.002174582    3.327    0.699
        26 -11.3932    134.5215      5.5151   3.4179376190e+01   4.9610121933e+01    0.2989443    0.2096431  49.56  0.001730731    1.409    0.290
        27  -9.2040     74.0308      6.4685   4.6771797192e+01   6.3645266719e+01    0.1959459    0.1098774  56.31  0.000965169    1.559    0.359
        28 -11.4963    149.1107      1.8267   3.1239478663e+01   4.6414015792e+01    0.5791435    0.1869505  70.58  0.001945711    2.574    0.611
        29 -11.4832    119.9603      3.4312   3.5640060889e+01   5.3286757930e+01    0.4344659    0.2127913  74.61  0.002062879    1.909    0.476
        30 -10.0749     40.1652      3.1176   5.7482258081e+01   7.0629357759e+01    0.2765502    0.1647057  30.53   0.00126675    1.457    0.314
        31 -11.0253    159.5695      2.9759   3.0435025878e+01   4.3833273795e+01    0.3473238    0.1582275  73.29  0.001686431    1.895    0.472
        32  -9.4929     98.2079      2.6677   3.9252972132e+01   5.8504243511e+01    0.2701724    0.1703136 -73.11   0.00135875    2.210    0.547
        33  -9.1892     90.4898      3.4677   4.1229653923e+01   6.0226140454e+01    0.1277566    0.1093301  54.15  0.000326322    1.028    0.028
        34  -9.5078     80.0349      3.2254   4.3658122274e+01   6.2602653738e+01    0.1794579   0.09000709  58.99 0.0008864202    1.698    0.411
        35 -11.1678      9.6125      2.1541   7.4383271716e+01   7.5217209110e+01    0.5081268    0.1849559  27.43  0.002440126    2.636    0.621
        36 -10.5580    138.4157      2.0858   3.2594198703e+01   4.8954967453e+01    0.2714164     0.148326 -85.08  0.001318427    2.016    0.504
        37 -10.5926     64.9715      3.1654   4.7968901582e+01   6.5848576673e+01    0.3183114    0.1907141  59.76  0.001248371    1.618    0.382
        38 -10.7235     15.5553      7.6210   7.3664046477e+01   7.3773101351e+01    0.3556941     0.129683  23.11  0.001481879    3.318    0.699
        39 -10.6859      5.0132    182.9254   1.1622302662e+02   3.4309978951e+01    0.3225253    0.1677248  78.76   0.00162569    1.821    0.451
        40 -11.1914    247.9436    215.4318   6.5484261095e+01  -5.3030686646e+00    0.7058778    0.2661601 -29.31  0.003400188    2.417    0.586
        41 -11.3976    233.2482    246.4579   7.3036498768e+01  -7.7767966918e+00    0.6648435    0.2724875 -28.44  0.003527152    2.288    0.563
        42 -11.3165    242.7834    246.5705   7.1437318434e+01  -8.8079596744e+00    0.5363901    0.2665691 -19.94  0.002535008    1.830    0.454
        43 -11.4423    247.3977    226.4712   6.7432773621e+01  -6.7303533410e+00    0.7528141    0.3119254 -24.72  0.003798825    2.351    0.575
        44 -10.5653    240.1064    239.5382   7.0774696736e+01  -7.6378099821e+00    0.3627884     0.197741 -21.90  0.001385478    1.576    0.365
        45 -10.1295    243.7253    235.6207   6.9538584836e+01  -7.5253877887e+00     0.274783    0.1725393 -20.09   0.00112887    1.283    0.221
        46 -10.2850    249.4648    250.0514   7.0874654168e+01  -9.9140066652e+00    0.2685837     0.154724  15.27 0.0009629919    1.486    0.327
        47 -10.1133    248.9979    245.5152   7.0244177762e+01  -9.3196977700e+00     0.278323    0.1750426 -19.16  0.001014896    1.259    0.206
        48 -10.6830    247.3993    239.0656   6.9484732526e+01  -8.3556219720e+00    0.3720459    0.2159877  -9.34  0.001919296    1.502    0.334
        49 -10.6242    249.5359    233.0403   6.8162579717e+01  -7.8163483886e+00    0.3881252     0.186881 -27.34  0.001710009    1.745    0.427
        50 -10.4946    225.4685    248.6886   7.4736784925e+01  -7.2048286982e+00    0.3503345    0.2015392 -17.96  0.001800524    1.568    0.362
        51 -11.3146    225.9072    241.3789   7.3516119891e+01  -6.2978134593e+00     0.370221    0.2117818 -22.68  0.001826038    1.556    0.357
        52 -11.3598    211.3314    247.3146   7.7063915083e+01  -5.3989966144e+00    0.4976293    0.2731536 -10.95  0.002756049    1.978    0.495
        53  -9.4709     66.5376    249.5402   1.0717065798e+02   1.3223841854e+01    0.2928109     0.132723  56.95  0.001386169    2.378    0.579
        54  -9.5671     36.6353    248.6923   1.1331766734e+02   1.6846903248e+01    0.3238654    0.1275153  62.60  0.001477871    2.775    0.640
        55 -10.3176      1.8964    178.0094   1.1668448873e+02   3.5730934312e+01    0.3795026    0.2080306  88.83  0.002002192    1.620    0.383
        56  -8.8533     39.5342    194.0574   1.0846455920e+02   2.8381066114e+01     0.194224   0.09642746  75.13 0.0008085064    2.484    0.597
        57 -10.8868     17.4356    196.0495   1.1407943728e+02   3.0135078873e+01    0.3050092    0.2776727 -78.87  0.001576223    1.187    0.158
        58 -11.5301      1.7808    168.1614   1.1606050964e+02   3.8142122831e+01    0.8535042    0.2332791 -70.72  0.003336337    2.875    0.652
        59  -9.0816     23.8500    187.2531   1.1182331098e+02   3.1629309687e+01    0.2617652    0.1305602  86.43  0.001086606    2.106    0.525
        60 -10.0727     16.9572    181.2164   1.1309065461e+02   3.3729206768e+01    0.2518017    0.1459602  79.82  0.001284494    1.674    0.403
        61  -9.0519    249.8664    184.5081   5.9689111995e+01  -1.0918693054e+00    0.2434342    0.1342965 -44.73  0.001321863    1.939    0.484
        62 -10.2013     17.4552    170.7112   1.1208921543e+02   3.6279353135e+01     0.257411    0.1175369 -82.46  0.001137831    2.082    0.520
        63 -10.8837      3.0065    155.6951   1.1480650090e+02   4.1161998411e+01     0.724179    0.1612134 -70.40   0.00256683    3.295    0.696
        64 -13.6353      9.5457    160.3795   1.1336618960e+02   3.9513531812e+01     1.766704    0.4227461 -70.46  0.006304245    3.216    0.689
        65 -12.4810      8.6302    128.1422   1.1048483164e+02   4.7829187813e+01    0.9954364     0.300101 -79.53  0.003368228    3.460    0.711
        66  -9.4980    167.5097    249.4810   8.5842421586e+01  -1.9458914064e-01    0.1242717   0.09929925  13.44 0.0008103039    1.005    0.005
        67 -11.2130      3.2804    144.9350   1.1383117830e+02   4.3867674645e+01    0.7539638    0.3127487  80.32  0.002981804    2.861    0.651
        68 -12.1000      3.6296    133.6134   1.1266985093e+02   4.6738181757e+01     1.346395    0.3565092 -80.67   0.00431856    3.941    0.746
        69 -10.2306    248.5839    134.7362   5.0308520971e+01   6.8222966293e+00    0.2608227    0.1287767 -38.96  0.001330556    1.627    0.386
        70 -10.1490    248.8738    130.1679   4.9355732370e+01   7.5015104482e+00     0.230397    0.1462495 -43.42  0.001326211    1.342    0.255
        71 -11.1369    242.8687    134.1313   5.0986177396e+01   7.8040551435e+00     0.317583    0.1804166 -43.04  0.001698235    1.506    0.336
        72  -9.2640     43.8625    157.8879   1.0320643872e+02   3.6939373500e+01    0.1994637     0.155365  66.54 0.0004046602    1.308    0.236
        73 -11.9191     13.3902    127.3158   1.0881657367e+02   4.7718187588e+01     0.520651    0.2245837 -78.76  0.002170169    2.225    0.550
        74  -9.6271     20.4544    155.9684   1.0985290294e+02   3.9754766009e+01    0.2135463    0.1185124 -74.03  0.001030825    1.597    0.374
        75  -8.6822    131.9520    126.0188   7.0904840371e+01   3.0531822403e+01    0.1787632    0.1759596  -5.13            0    1.016    0.016
        76  -9.9496     29.0274    124.4826   1.0312824430e+02   4.7185026482e+01    0.1967283    0.1410964  19.59 0.0009334054    1.570    0.363
        77 -10.6953     15.9565    121.5143   1.0719796417e+02   4.9035270248e+01    0.2681754    0.1726708 -89.67 0.0009268816    1.596    0.374
        78 -10.0245    141.8474    246.2795   9.0703031812e+01   3.7913602217e+00    0.2399253     0.150776 -17.27   0.00124911    2.118    0.528
        79 -13.3894    246.8014    104.5645   4.4429827468e+01   1.1858928214e+01     1.474335     0.665426 -39.54  0.007260941    1.774    0.436
        80  -9.7089     45.8354    245.9273   1.1123990312e+02   1.6364930253e+01    0.3274019    0.1677244  79.88  0.001684226    2.311    0.567
        81 -10.4450      1.5603     93.8329   1.0858498687e+02   5.6949487208e+01    0.3224502    0.1161706 -75.02  0.001285092    2.575    0.612
        82  -9.7002     18.4457     91.4027   1.0133422530e+02   5.6515523888e+01    0.3272593    0.1734569   1.75  0.001485469    2.356    0.576
        83 -10.8133    192.6190    244.2375   8.0111740807e+01  -2.6719470748e+00    0.3064798    0.1808928   7.58  0.001704523    1.729    0.422
        84  -8.4661     39.6673    153.6788   1.0389754249e+02   3.8491720354e+01    0.1465976    0.1001146 -37.59 0.0007049582    1.700    0.412
        85 -10.8243     16.7273    151.4948   1.1048351097e+02   4.1213840863e+01    0.2669763    0.1645155 -75.10  0.001064411    1.423    0.297
        86  -9.7813     29.8870    243.1140   1.1435799096e+02   1.8662733098e+01    0.2667353    0.1791543 -63.96  0.001699134    1.704    0.413
        87  -8.7261     88.9037     82.2250   7.1445855764e+01   4.8989819469e+01     0.192716    0.1226815  42.47 0.0008492459    1.582    0.368
        88  -8.5902    121.5523    104.4387   6.8062734702e+01   3.7498830634e+01    0.1530827    0.1513971 -64.43 0.0008048224    1.038    0.037
        89  -9.3071    250.3660    151.1991   5.3303099212e+01   3.9593805203e+00    0.1840574   0.09475893 -42.99 0.0008999177    1.707    0.414
        90  -8.8784    217.4874     73.5353   4.1364806087e+01   2.2079675337e+01    0.1320072    0.1128656 -55.34 7.221993e-05    1.008    0.007
        91 -10.7673    227.6779     66.1477   3.8525192757e+01   2.1146039770e+01    0.3188279    0.2110397 -18.16  0.001672405    2.088    0.521
        92  -8.8426    244.3442    149.1360   5.3775838361e+01   5.1644302583e+00    0.1888162   0.09597473 -43.83 0.0009439501    1.769    0.435
        93  -8.6923    134.4990     59.9794   5.1563010048e+01   4.3007558253e+01    0.2119327    0.1434511 -36.73 0.0006261779    1.520    0.342
        94  -8.9358     19.4702     57.0183   9.2421541182e+01   6.4458564527e+01    0.1977517    0.1138056 -53.45 0.0007452471    1.553    0.356
        95  -9.6223     17.5273    241.9664   1.1680554110e+02   2.0146976289e+01     0.278005    0.1027526 -79.07     0.001357    2.712    0.631
        96  -8.9256    105.0223    111.5187   7.4755759268e+01   3.9297052880e+01    0.2292225    0.1544246  40.13 0.0004446003    1.505    0.336
        97 -10.4632    238.5272     43.9622   3.2753614838e+01   2.2069462565e+01    0.1770056    0.1441808 -74.86 0.0007029386    1.134    0.118
        98  -9.0361    158.9331     42.9456   4.1813240589e+01   3.9614589373e+01     0.200037     0.177786 -86.44 0.0003023404    1.057    0.054
        99  -9.0367    218.4912     42.4947   3.4262916912e+01   2.6238244843e+01    0.1254246    0.1044233 -63.31 0.0008105987    1.007    0.007
       100  -9.3637      2.3854     41.8087   9.6942010827e+01   6.8900204645e+01    0.1869853   0.08465454 -48.20 0.0009504197    1.718    0.418
       101 -10.6071    223.0452     39.2159   3.3112407880e+01   2.5724680257e+01    0.4113623    0.1600802 -56.01  0.001792632    2.630    0.620
       102  -8.9843    134.5109     42.5121   4.6034792005e+01   4.5577038081e+01    0.2407246    0.1189564 -43.99 0.0008591277    2.146    0.534
       103 -12.1120      5.3255    109.5391   1.0935094977e+02   5.2801320270e+01    0.6935489    0.2941796 -86.63  0.002762276    2.717    0.632
       104  -9.8666    213.5131     32.4661   3.2492627885e+01   2.8534219332e+01    0.1995587    0.1674619 -64.19 0.0009031368    1.036    0.034
       105 -10.2663    215.7893     30.1848   3.1779052829e+01   2.8332269347e+01    0.3042454    0.1601466 -63.08  0.001587295    1.853    0.460
       106 -10.2197      2.7530    242.5965   1.1975212306e+02   2.1411634221e+01    0.2068899    0.1362562  75.57  0.001409116    1.272    0.214
       107 -12.9033      8.0896    141.9551   1.1211281569e+02   4.4309965559e+01    0.9937534    0.4583983 -82.60  0.004446199    2.016    0.504
       108  -9.4751    158.0185     27.5028   3.7523888557e+01   4.1744995346e+01    0.2045197    0.1208818  69.82   0.00102302    1.561    0.359
       109  -9.1093    111.1692    249.6573   9.7653681267e+01   7.4108203006e+00    0.1719401    0.1423162  47.00 0.0009282185    1.174    0.148
       110  -9.7791    176.2375     21.0057   3.3476035602e+01   3.8153848098e+01    0.1766793    0.1533176 -63.81 0.0005437353    1.095    0.087
       111  -9.9141    141.9822     23.9667   3.8853652580e+01   4.6019614744e+01    0.3599946    0.1070208 -47.56  0.001158802    4.307    0.768
       112  -8.4929    123.7107    165.3741   8.1839036669e+01   2.3029252928e+01    0.1540657    0.1205586  81.20 0.0007020941    1.724    0.420
       113  -9.6493    199.4962     20.5264   3.1031568590e+01   3.2940143352e+01    0.1244797    0.1033462 -73.30 0.0001159373    1.001    0.001
       114 -10.4284    168.9770     17.9262   3.3477110329e+01   4.0182700339e+01    0.2031997    0.1733723 -89.56 0.0009540388    1.022    0.022
       115  -9.3549     45.7762    238.5941   1.1072694514e+02   1.7830693971e+01    0.2192649    0.1588455 -83.25  0.001391122    1.429    0.300
       116 -11.2552    231.1300    234.1851   7.1447514354e+01  -5.9328537107e+00    0.4350671    0.2534351 -12.20  0.002612516    1.600    0.375
       117 -10.3191    134.4734     16.5166   3.7691737677e+01   4.8617244060e+01    0.2494553    0.2056103  70.25  0.001064153    1.072    0.067
       118  -8.9837     32.3146     16.6503   6.8829227089e+01   7.0275334987e+01    0.1068412    0.1022946 -89.67 0.0007046879    1.726    0.421
       119 -10.3380    172.8686     14.8772   3.2238315912e+01   3.9584924285e+01    0.1885385    0.1652736  62.94 0.0006208438    1.228    0.186
       120  -9.3005    162.4804     15.4927   3.3567177520e+01   4.1970049373e+01     0.129611    0.1112046 -86.47 0.0007077132    1.022    0.022
       121  -9.9235     26.7017     15.0471   7.1061264379e+01   7.1297161965e+01    0.1746421    0.1359009  -5.08 0.0005711737    1.079    0.074
       122  -9.5873     67.1508     13.9561   5.2426761543e+01   6.4374908345e+01    0.1825436     0.170746  56.50 0.0006260554    1.252    0.201
       123 -10.8249    236.5533    228.1514   6.9524163264e+01  -5.7383573805e+00    0.4260237    0.2163816 -26.33  0.002438138    1.728    0.421
       124 -10.0968      3.7577    230.7423   1.1905590198e+02   2.3712551784e+01    0.3072095     0.119677  74.60  0.001465813    2.563    0.610
       125 -10.7656    139.7371     13.0718   3.5814051631e+01   4.7673750845e+01    0.2602674    0.1734345  63.27  0.001441524    1.321    0.243
       126  -9.1503     62.1540    234.5897   1.0683578678e+02   1.6706335134e+01     0.197475    0.1437792 -68.71  0.001199404    1.504    0.335
       127  -9.7030     39.8871    233.4825   1.1162372268e+02   1.9537643545e+01    0.2915184    0.2052372 -58.78  0.001798524    1.653    0.395
       128 -10.2578    216.7394    230.5935   7.3420089417e+01  -3.7226258327e+00    0.3748972    0.1916171   4.25  0.001769816    2.611    0.617
       129  -9.8581    205.1906    231.8359   7.5762780441e+01  -2.4547683654e+00    0.1784293     0.120711  -4.74 0.0008474296    1.358    0.264
       130  -8.9794     32.7266    230.0673   1.1293582680e+02   2.1026890117e+01    0.1713703    0.1411813  73.16 0.0009415635    1.087    0.080
       131 -10.1577    229.1557    226.8111   7.0578672831e+01  -4.6902567617e+00    0.2676661    0.1373193 -29.87  0.001507899    1.727    0.421
       132 -10.5326     10.8481    225.6605   1.1734825566e+02   2.4132243500e+01    0.3056449    0.1956246  81.12  0.001902226    1.381    0.276
       133 -11.1762     12.0498    219.1077   1.1674460461e+02   2.5424070173e+01    0.4186574    0.2400086 -77.98  0.002439175    1.649    0.394
       134  -9.3172    199.4707    225.0178   7.5734992882e+01  -6.7758714722e-01    0.1854911   0.09026542 -20.35 0.0008097658    2.664    0.625
       135  -9.1237     45.1911    222.5674   1.0961618713e+02   2.1250137543e+01    0.1976512     0.146303 -72.48  0.001110911    1.403    0.287
       136  -9.3363    223.5082    225.0468   7.1281209654e+01  -3.7595515831e+00    0.1782105    0.1014583 -31.74  0.001030347    1.587    0.370
       137 -10.5348     35.0610    218.7231   1.1161410822e+02   2.3211401612e+01    0.5003422    0.2518655 -66.86  0.002584208    1.995    0.499
       138 -10.8196    238.5692    218.5134   6.7562865513e+01  -4.6435394320e+00    0.4269135    0.1930497 -31.98  0.002282659    1.912    0.477
       139 -10.3548    227.4362    219.0791   6.9576991802e+01  -3.3829271256e+00    0.3302586    0.1667296 -20.84  0.001699109    2.033    0.508
       140  -9.6515     21.2431    212.7581   1.1432749339e+02   2.5949223577e+01    0.3361254     0.153192 -82.26  0.001642367    2.139    0.532
       141 -10.4182      2.5685    213.0402   1.1848372196e+02   2.7584719531e+01    0.4031025    0.1908443  68.24  0.002116279    1.911    0.477
       142  -9.8390    233.7968    211.2733   6.7126066099e+01  -3.0341496730e+00    0.3356819    0.1979428 -14.01  0.001872078    1.645    0.392
       143 -11.9117     12.2559    206.2152   1.1595736976e+02   2.8262027175e+01    0.5813984    0.3215785  73.98  0.003160493    1.676    0.404
       144  -9.4148     36.2185    208.3471   1.1053362283e+02   2.5406904659e+01    0.2584482    0.1345707  70.44  0.001224839    2.082    0.520
       145  -8.9267    246.8386    205.1525   6.3881863193e+01  -3.7351485849e+00    0.1673026    0.1116483 -11.74 0.0008832395    1.280    0.219
       146  -9.6139    250.0744    200.3890   6.2522507296e+01  -3.4409652549e+00    0.3229553    0.1359114 -34.01  0.001356779    1.964    0.491
       147  -9.1787     18.4815    201.5264   1.1421168556e+02   2.8763067138e+01    0.2214608    0.1035449  85.89 0.0009580904    2.204    0.546
       148  -9.5028    242.8580    200.0836   6.3631688556e+01  -2.5186873555e+00    0.2789159    0.1343676 -32.44  0.001490077    1.741    0.426
       149 -11.8535      3.1923    190.7708   1.1714809734e+02   3.2592263457e+01    0.7751455    0.4180436  90.00  0.004165148    1.648    0.393
       150 -12.1966      9.8053    180.6670   1.1487076425e+02   3.4470950613e+01     1.147782    0.3769103  77.73  0.003596847    4.822    0.793
