#   1 NUMBER                 Running object number                                     
#   2 MAG_AUTO               Kron-like elliptical aperture magnitude                    [mag]
#   3 X_IMAGE                Object position along x                                    [pixel]
#   4 Y_IMAGE                Object position along y                                    [pixel]
#   5 X_WORLD                Barycenter position along world x axis                     [deg]
#   6 Y_WORLD                Barycenter position along world y axis                     [deg]
#   7 A_WORLD                Profile RMS along major axis (world units)                 [deg]
#   8 B_WORLD                Profile RMS along minor axis (world units)                 [deg]
#   9 THETA_WORLD            Position angle (CCW/world-x)                               [deg]
#  10 FWHM_WORLD             FWHM assuming a gaussian core                              [deg]
#  11 ELONGATION             A_IMAGE/B_IMAGE                                           
#  12 ELLIPTICITY            1 - B_IMAGE/A_IMAGE                                       
         1 -13.3571     30.8525     33.2308   7.4260517842e+01   6.6253078986e+01    0.4760091    0.2524712   3.59  0.002327247    2.276    0.561
         2 -11.5348    106.9204     32.1448   4.6445081394e+01   5.2986451686e+01    0.2163724    0.1915097 -11.83 0.0009726576    1.256    0.204
         3 -12.6104     84.0571     23.4486   4.9588831700e+01   5.8773170752e+01    0.5668982    0.3504882 -62.97  0.002445749    3.670    0.728
         4 -12.3519    211.3656     10.0899   2.5132785549e+01   3.2092341923e+01    0.6019026    0.1558664 -53.19  0.002351279    4.044    0.753
         5 -11.8970     85.0294     10.4999   4.4472326555e+01   5.9844519342e+01    0.2053879    0.1788126 -12.02  0.000381666    1.320    0.243
         6 -11.3777     67.2642      1.8613   4.6186189328e+01   6.4098689840e+01    0.1879551    0.1387037  51.34 0.0003388561    1.261    0.207
         7 -10.3442     50.0055      1.1931   5.1807696909e+01   6.7300824743e+01    0.1489111   0.07436081  45.08            0    1.653    0.395
         8 -11.3788    142.4700    238.7068   8.6571166556e+01   3.8597576845e+00    0.2563207    0.1326022 -49.01  0.001191565    2.118    0.528
         9 -10.7407    231.3667    250.1220   6.9949689885e+01  -1.0040944077e+01    0.1480397    0.1012434 -39.00 0.0004008955    1.655    0.396
        10 -11.1137    177.8347    249.8572   8.0545664847e+01  -3.2352414962e+00    0.1880215     0.151897  51.37  0.001115577    1.724    0.420
        11 -15.3693    118.2062    223.3286   8.9924715946e+01   1.0671407294e+01     1.950533     1.641819 -27.94  0.008462396    1.302    0.232
        12 -11.6354    194.1945    231.0743   7.4054608565e+01  -2.3167738352e+00    0.2267703    0.1669138 -30.78  0.001316647    1.306    0.234
        13 -11.3712    177.9754    229.0342   7.7142692021e+01   3.7621629696e-01    0.2023423    0.1718884   2.56            0    1.008    0.008
        14 -13.0266    150.8282    228.4490   8.3084013335e+01   4.5819108362e+00     0.413925    0.3194087   1.87  0.001638621    1.337    0.252
        15 -11.0725    102.4695    228.5158   9.4401023185e+01   1.1921454458e+01    0.2755648    0.1823293 -35.74  0.001339354    1.857    0.461
        16 -11.2695    105.6266    227.1308   9.3465305652e+01   1.1753758143e+01    0.4165258    0.3085477 -87.49  0.002166507    1.727    0.421
        17 -12.7252    187.0667    226.7535   7.4807397837e+01  -5.4095924779e-01    0.3932099    0.2436218 -30.34  0.001185535    1.591    0.371
        18 -11.4762    231.7626    227.0155   6.5973727812e+01  -6.6033384726e+00    0.1644587   0.09005005 -36.32 0.0008052153    1.635    0.388
        19 -12.1388    138.0246    225.8013   8.5617822172e+01   7.0887891268e+00    0.3204893    0.2761807   3.80   0.00079151    1.141    0.123
        20 -10.5471    215.3124    226.6374   6.9033556944e+01  -4.4435344900e+00    0.1117753    0.1061579 -85.24 0.0007040867    1.754    0.430
        21 -11.2628    144.5437    224.4104   8.3880004211e+01   6.3574349288e+00    0.2389293     0.121272 -38.52 0.0005600346    2.197    0.545
        22 -12.0315    159.3481    222.3245   8.0137478318e+01   4.4675441095e+00    0.3113007    0.2167878  43.70  0.001155851    1.552    0.356
        23 -13.0141    172.6474    219.8759   7.6737587276e+01   2.8865449502e+00    0.3953083    0.2764799   2.41   0.00171641    1.544    0.352
        24 -12.6333    153.1529    220.3484   8.1221798017e+01   5.8282251748e+00    0.2452081    0.2072581 -47.95  0.000536891    1.313    0.238
        25 -12.5214    137.7409    218.8532   8.4576057716e+01   8.5696660059e+00    0.4474171    0.3293364  -8.85  0.002249019    1.608    0.378
        26 -10.9481    243.5773    219.4830   6.2519607208e+01  -6.8549261697e+00    0.1237846   0.09596182 -16.52  0.000158108    1.034    0.033
        27 -11.4350    193.3329    218.9151   7.2114254888e+01  -4.3171794079e-02    0.2520088    0.1219974 -49.92  0.001085806    2.446    0.591
        28 -18.1258     68.8971    194.6550   9.8192141935e+01   2.4567247854e+01     4.811456     3.228044 -60.37   0.02407532    1.460    0.315
        29 -11.8385    141.2960    202.1176   8.0878006773e+01   1.1582131476e+01    0.2505243    0.1938989  17.38 0.0009034305    1.306    0.234
        30 -12.1906    144.9532    216.5116   8.2487534931e+01   7.9114218495e+00    0.2912345    0.2305903  62.35  0.001124999    1.646    0.392
        31 -11.3174    142.5917    212.2446   8.2326727260e+01   9.1861147857e+00    0.3154581    0.2270021 -53.30  0.001530941    1.524    0.344
        32 -13.2585    138.8840    207.9057   8.2474071599e+01   1.0719096340e+01    0.6178351    0.4172596 -34.74   0.00197825    1.592    0.372
        33 -13.8812    147.1372    203.5132   7.9718702431e+01   1.0306684018e+01    0.6974073     0.455291 -32.76  0.003259454    1.654    0.395
        34 -16.7843     23.5631    141.1172   1.0369348409e+02   4.3240524833e+01     4.137226     3.210275  80.54   0.02329431    1.389    0.280
        35 -13.7103    125.5183    211.9254   8.6392337460e+01   1.2004201088e+01    0.6373804    0.4776836 -13.38  0.003171559    1.611    0.379
        36 -13.2678    124.9703    205.5029   8.5471447262e+01   1.3520967343e+01    0.6134527    0.4009517   0.43  0.002610317    2.202    0.546
        37 -13.0382    160.5050    207.0048   7.7201870111e+01   7.3675254934e+00    0.4761436    0.2550314  27.83  0.002057851    1.888    0.470
        38 -12.8757    155.9111    213.7196   7.9453305755e+01   6.7329992400e+00    0.4783961    0.2547669  30.46  0.001588331    1.802    0.445
        39 -12.5669    153.7961    210.2176   7.9333041299e+01   7.7950338618e+00    0.4997677    0.3265148   4.69  0.001466848    1.942    0.485
        40 -12.8564    183.8223    213.4532   7.3156411091e+01   2.3940538436e+00    0.3167637     0.253633   0.96  0.001791672    1.164    0.141
        41 -11.0696    189.6412    212.3150   7.1704966253e+01   1.7212703117e+00      0.12873    0.1117443  67.68 0.0005993953    1.751    0.429
        42 -10.9028    210.5108    237.5045   7.1844338799e+01  -5.5871637142e+00    0.1285496    0.1033203  -3.30 0.0008105058    1.019    0.019
        43 -11.3318     24.5354    209.9586   1.1078708713e+02   2.5994406960e+01    0.1860302    0.1123096 -76.83 0.0009723224    1.514    0.339
        44 -12.2717    229.5981    206.9842   6.2794586553e+01  -3.0526176084e+00    0.3012276    0.2085556 -37.88  0.001516783    1.353    0.261
        45 -11.2834    247.5369    205.8355   5.9398991525e+01  -5.1700183853e+00    0.1924943    0.1670871 -83.89  0.001178964    2.242    0.554
        46 -11.3810    219.7138    206.1441   6.4495366184e+01  -1.5567685739e+00    0.2381396    0.1741325  15.43 0.0007428461    1.348    0.258
        47 -12.9488    169.2822    205.2632   7.4877851012e+01   6.2941874804e+00    0.3252802    0.2499321  35.98   0.00110325    1.322    0.244
        48 -11.2527     18.6500    204.9843   1.1173933072e+02   2.7727209913e+01    0.2402234    0.1253982 -77.77  0.001139299    1.731    0.422
        49 -11.1000    237.4418    205.0351   6.1016936105e+01  -3.7600513132e+00    0.1870613    0.1500208   8.54 0.0006013699    1.223    0.182
        50 -12.6643    132.3785    191.7242   8.1206141463e+01   1.5418533326e+01    0.4583447    0.1874389 -47.93  0.001260466    2.445    0.591
        51 -13.9320    140.0764    196.3777   8.0142427416e+01   1.3056288222e+01    0.6078603    0.3713716  23.31  0.001969033    1.768    0.434
        52 -12.4024    134.2294    204.3402   8.2991632631e+01   1.2264364418e+01    0.4335992    0.2755615  56.26  0.001041218    2.063    0.515
        53 -13.0267    134.2993    198.2211   8.1900532681e+01   1.3617878481e+01    0.4350304    0.3099014   1.82 0.0007245851    1.748    0.428
        54 -11.7325    212.2254    201.3528   6.5053580647e+01   3.6552728484e-01    0.3440113    0.2477534  13.12  0.001758291    1.402    0.287
        55 -10.4747     12.8236    201.6412   1.1282210495e+02   2.9042540297e+01    0.3482919    0.1207918  33.76  0.001547092    2.661    0.624
        56 -12.2338    121.4283    200.6939   8.5547070026e+01   1.5190218397e+01      0.26255    0.2562095 -22.00 0.0003429209    1.053    0.050
        57 -13.6886    123.8692    196.6504   8.4235831114e+01   1.5718022845e+01    0.5730451    0.4556261 -33.80  0.002918217    1.325    0.245
        58 -17.1835     91.1205    195.0525   9.2429976037e+01   2.1310120666e+01     3.204326     1.845876 -66.41   0.01399489    1.894    0.472
        59 -13.0149    225.4233    198.7289   6.2038842813e+01  -1.0616021131e+00    0.4102262     0.270353 -47.41  0.001758485    1.659    0.397
        60 -12.1434    114.0958    199.7372   8.7242528840e+01   1.6602533714e+01    0.3265592    0.2391152  14.31  0.001230677    1.536    0.349
        61 -10.3491    185.2379    235.6115   7.6693438813e+01  -1.8419681537e+00    0.1142447    0.1064253 -82.56 0.0004778776    1.647    0.393
        62 -11.6045    192.9603    197.7824   6.8294572853e+01   3.9695796789e+00    0.2173323     0.175528  -5.44 0.0005160303    1.175    0.149
        63 -13.1058    189.4009    195.2654   6.8566218797e+01   5.0273881812e+00    0.3603603    0.2825943  18.55 0.0009482306    1.255    0.203
        64 -11.1727     16.7335    197.9068   1.1161571518e+02   2.9584536279e+01    0.2198905    0.1665642  42.64  0.001343688    1.341    0.254
        65 -12.4970    151.8621    197.0704   7.7413701120e+01   1.0904807399e+01    0.2206098    0.2029789  66.80 0.0004985354    1.320    0.242
        66 -12.4869     25.9493    194.0279   1.0905669724e+02   2.9665190832e+01     0.509968    0.2597913 -89.97  0.002340263    2.091    0.522
        67 -11.0821    245.0278    196.0327   5.8042627576e+01  -3.2494357151e+00    0.1733672    0.1467209 -53.52 0.0003297688    1.605    0.377
        68 -10.6157    238.4671    196.5653   5.9277063868e+01  -2.4755843671e+00    0.1290793    0.1038834 -19.73 8.274747e-05    1.010    0.010
        69 -11.9584    213.1872    194.5106   6.3569411919e+01   1.4673690007e+00    0.2783812    0.2146153 -57.16 0.0008322704    1.717    0.418
        70 -13.3541    166.1594    193.9189   7.3462679606e+01   9.1518700233e+00    0.5040879    0.3195789  46.53 0.0003760285    1.798    0.444
        71 -12.8722    159.4068    191.1873   7.4510735229e+01   1.0885896299e+01    0.4195348    0.2461676 -56.22  0.001789018    2.012    0.503
        72 -11.8392    135.7561    193.5730   8.0699011919e+01   1.4421200190e+01    0.3086343    0.1438198  35.61 0.0008659241    2.071    0.517
        73 -11.4955      1.8756    191.8791   1.1463658052e+02   3.2254437755e+01    0.1984947    0.1168228  69.62  0.000921721    1.621    0.383
        74 -12.1835    110.3159    188.4538   8.6300747145e+01   1.9889452471e+01    0.4539543    0.2840665  75.57  0.001692427    2.859    0.650
        75 -12.6151    173.3979    188.8818   7.0835838389e+01   8.9744240734e+00    0.3040805    0.2322745  62.61  0.001465589    1.874    0.466
        76 -14.2322    126.9156    185.5535   8.1455405128e+01   1.7786769074e+01     0.737003    0.4828267  -5.24  0.002962015    2.315    0.568
        77 -13.5180    136.2157    186.0353   7.9177848714e+01   1.6063519269e+01    0.4962048    0.3634243 -77.35   0.00154871    1.920    0.479
        78 -11.9826    139.7419    182.4335   7.7598178245e+01   1.6272270156e+01    0.3135918    0.1498278  34.54 0.0009378667    2.083    0.520
        79 -10.4841     10.9366    189.0000   1.1227226524e+02   3.2229494917e+01    0.1878815   0.07213902  23.11 0.0008033566    2.949    0.661
        80 -11.6305    248.3706    186.3135   5.5682764023e+01  -2.0646666203e+00    0.2411776    0.1727516 -19.70 0.0007898178    1.239    0.193
        81 -12.6926    186.0657    185.6912   6.7410817905e+01   7.4820756777e+00    0.2963768     0.232363  29.67 0.0003694659    1.297    0.229
        82 -11.1504     18.8478    184.9761   1.0997735564e+02   3.2540001368e+01    0.3013358     0.142077 -89.88  0.001310956    2.290    0.563
        83 -10.9539     37.1694    185.4599   1.0534425770e+02   3.0655449300e+01    0.1773208    0.1316644  32.21 0.0004136139    1.428    0.299
        84 -11.9600     31.1766    184.8976   1.0683505172e+02   3.1406937780e+01    0.3506026    0.1991376  16.57  0.001579993    2.193    0.544
        85 -11.2381    213.5056    184.5266   6.1577585157e+01   3.2645823250e+00    0.1381857    0.1191489 -20.48 -2.123871e-06    1.022    0.022
        86 -11.5455    148.9200    184.5010   7.5728688256e+01   1.4182301769e+01    0.2226869    0.1459077  34.29 0.0004109618    1.508    0.337
        87 -13.8754    177.9216    181.6173   6.8379516721e+01   9.7081679484e+00    0.5402529    0.3417462 -30.78  0.002480393    1.622    0.383
        88 -13.7279    117.3396    179.0881   8.2747075628e+01   2.0971431275e+01    0.6472386     0.435263   9.30  0.002452638    1.953    0.488
        89 -13.8645    154.3079    178.7519   7.3278287384e+01   1.4506965487e+01    0.6171436    0.2928852 -37.42  0.002307086    2.303    0.566
        90 -13.2105    144.7107    180.8830   7.6053922107e+01   1.5744818781e+01    0.4389085    0.2609687 -47.08  0.001365411    1.675    0.403
        91 -13.9160    131.9078    172.8461   7.7702105728e+01   1.9904035078e+01    0.6695576    0.4245178 -10.39  0.002512926    2.575    0.612
        92 -13.3969    127.1555    172.1708   7.8808816922e+01   2.0916267560e+01    0.5155569     0.240557 -48.85   0.00149026    2.114    0.527
        93 -13.6340    127.6342    166.5366   7.7540442342e+01   2.2177537160e+01    0.4605239    0.3489473 -31.61  0.002156511    1.400    0.286
        94 -11.8680     24.1544    181.3321   1.0827737168e+02   3.2966763553e+01    0.2889035    0.1712913  24.25  0.001476836    1.897    0.473
        95 -10.8383     10.6365    181.1697   1.1169009718e+02   3.4164366456e+01     0.260064    0.1334331 -17.32  0.001060397    3.699    0.730
        96 -11.5092    163.3260    180.3326   7.1451780790e+01   1.2547294343e+01    0.1588183     0.113244 -10.01 0.0007051228    1.711    0.416
        97 -15.6159    139.3545    170.1670   7.5240704460e+01   1.9180650302e+01     1.117399    0.8613501 -53.59  0.005379542    1.347    0.258
        98 -12.6321    131.4638    168.9672   7.7031377858e+01   2.0902735123e+01    0.3719839    0.3087853  20.42  0.001411775    1.240    0.194
        99 -11.7530     29.5732    177.8352   1.0649498832e+02   3.3334389308e+01    0.3252824    0.1953748  50.63  0.001631631    1.728    0.421
       100 -11.0844      2.5119    178.7200   1.1350027710e+02   3.5378349500e+01    0.1142051    0.1052307 -87.70 0.0004431395    1.129    0.114
       101 -12.2933    191.1034    177.1679   6.4625648355e+01   8.3478221472e+00    0.2282236    0.1874691  -8.61  0.001226392    1.215    0.177
       102 -11.3074     14.7704    176.5399   1.1022712985e+02   3.4975026760e+01    0.2336351    0.1286793  66.41  0.001123348    1.988    0.497
       103 -10.7884     20.5177    175.5305   1.0863699130e+02   3.4742298844e+01    0.1324201    0.1150384 -73.95 5.300238e-05    1.060    0.057
       104 -13.1853    175.2153    173.2670   6.7280343940e+01   1.1938998456e+01    0.3847044    0.2711715 -66.52  0.001723262    2.001    0.500
       105 -11.6692     32.0892    172.4076   1.0520545774e+02   3.4464961800e+01    0.2406425    0.1818991  62.91 0.0009457408    1.364    0.267
       106 -11.3951     26.9500    171.6513   1.0651264755e+02   3.5144435658e+01    0.3401791    0.1712696  22.62  0.001566911    2.256    0.557
       107 -13.0489    118.5500    170.9721   8.0860773289e+01   2.2728477838e+01    0.3845359    0.2650731 -28.64  0.001680208    1.703    0.413
       108 -13.6185    116.0010    165.6224   8.0485772054e+01   2.4481902403e+01    0.5018945    0.3486059 -65.27  0.001957383    1.649    0.394
       109 -12.9801    122.0804    165.3014   7.8770843594e+01   2.3478055308e+01    0.4824983    0.2878035  39.25  0.001861445    1.676    0.403
       110 -13.4591    124.4369    161.0258   7.7249171103e+01   2.4084743314e+01    0.4166835    0.3270769  53.46 0.0008313878    1.419    0.295
       111 -11.0530     88.9657    250.6445   1.0015748196e+02   9.2377521866e+00    0.1833663    0.1093682  31.80 0.0003703652    1.514    0.339
       112 -12.4759     40.2214    168.4226   1.0246552687e+02   3.4659259105e+01    0.4493357     0.283556 -58.23  0.002243906    1.448    0.309
       113 -17.1195     55.2619    117.8344   8.9115219173e+01   4.5922979746e+01     3.149033     2.603073  40.29   0.01687247    1.343    0.255
       114 -12.9533    159.7784    169.4588   7.0055189421e+01   1.5576276031e+01    0.3078974    0.2716145 -56.63  0.001085112    1.240    0.193
       115 -13.4198    171.2540    167.9536   6.7066378435e+01   1.3791670133e+01    0.4448427     0.314741 -63.74  0.001669798    1.838    0.456
       116 -11.0840     55.6664    249.9717   1.0728837834e+02   1.3683300098e+01    0.3295957    0.2174861  -2.48   0.00164507    2.712    0.631
       117 -12.4828    179.8151    243.9093   7.9191683359e+01  -2.5077883445e+00    0.2540478    0.2061762 -34.04  0.001310451    1.327    0.247
       118 -12.4076    199.7701    166.0273   6.0555458694e+01   9.0853688908e+00    0.2818769    0.1895076  67.77  0.001198388    2.688    0.628
       119 -10.9021      6.3984    166.3103   1.1145494244e+02   3.8159613095e+01     0.267504    0.1310967   9.37  0.001236148    2.782    0.641
       120 -11.4950      3.2009    161.8709   1.1189470781e+02   3.9482899486e+01    0.4734228    0.2156267 -69.17  0.002281168    1.775    0.437
       121 -12.7688      3.6444    153.4077   1.1097310931e+02   4.1564776337e+01    0.3731558    0.2764159  82.69 0.0009669901    1.301    0.232
       122 -11.9902    205.0195    164.9656   5.9296375019e+01   8.3911293272e+00    0.2244949    0.1624729  -8.24 0.0004323818    1.633    0.388
       123 -12.2253     54.3451    164.8037   9.7933207309e+01   3.4000290499e+01     0.417841    0.2457187   6.80   0.00175775    2.406    0.584
       124 -13.6233    171.3442    160.8847   6.5539834384e+01   1.5297181545e+01    0.4961196     0.340079  50.16  0.002285785    1.671    0.402
       125 -13.2788    158.4887    157.3798   6.7775398135e+01   1.8505977342e+01    0.4093883    0.3411984  39.36  0.001090048    1.238    0.192
       126 -10.9491    198.0504    242.8711   7.5237721020e+01  -4.8199249638e+00    0.1781221      0.15168  18.19 0.0003547916    1.230    0.187
       127 -13.8501    111.8351    156.7419   7.9815387059e+01   2.7403025820e+01    0.5650439    0.4372945   8.26   0.00195648    1.515    0.340
       128 -14.9846    109.3478    149.7453   7.9031368387e+01   2.9573118579e+01    0.8428305    0.7789838  10.98  0.004379038    1.103    0.094
       129 -12.3645    105.8487    143.1127   7.8587451659e+01   3.1833902263e+01    0.3556548    0.2914479  59.79 0.0008242392    1.408    0.290
       130 -12.6092    101.1182    141.8432   7.9696856389e+01   3.2982614385e+01    0.3660128    0.3205135 -87.20  0.001100787    1.334    0.250
       131 -10.6214    174.7730    243.5938   8.0213517352e+01  -1.7461472895e+00     0.171221    0.1110235  35.06 0.0003899341    1.482    0.325
       132 -11.5098    184.2131    156.1734   6.1688956681e+01   1.3887351583e+01    0.1978076    0.1779664 -77.10 0.0004299069    1.355    0.262
       133 -13.9273    152.9251    168.8810   7.1586016770e+01   1.6973012044e+01     0.648169    0.2810893 -48.48  0.002364528    2.291    0.564
       134 -10.6228    200.2160    247.0797   7.5485682131e+01  -5.7805919442e+00    0.1457198   0.09267936 -32.89            0    1.529    0.346
       135 -12.3995    212.2181    154.0345   5.5660655584e+01   9.2726615636e+00    0.2373279    0.2102369  53.64 0.0005891331    1.352    0.260
       136 -13.1664     89.4320    152.6489   8.5445586365e+01   3.2220001701e+01    0.4137868    0.3054057 -45.89  0.001383916    1.324    0.245
       137 -12.6630    180.2134    150.7247   6.1359686265e+01   1.5779838958e+01    0.3503835    0.2536915 -73.30  0.001556951    2.039    0.509
       138 -14.0278    147.0042    148.8958   6.8702931731e+01   2.2649655027e+01    0.5903986    0.4812827  48.10  0.001013883    1.305    0.234
       139 -12.4898    170.1034    146.3801   6.2625670540e+01   1.8660522149e+01    0.2956514    0.2173982 -49.17 0.0006403101    1.352    0.260
       140 -13.2697    133.4156    148.7822   7.2181768617e+01   2.5320416639e+01    0.6374769    0.3438823 -21.76   0.00191253    3.807    0.737
       141 -12.6383    120.9632    150.8349   7.6006262370e+01   2.7189097022e+01     0.249274    0.2139691  -9.64 0.0008593432    1.268    0.212
       142 -11.3564    224.6638    148.5805   5.2319271443e+01   8.1814571004e+00    0.2553527    0.1951819 -56.25  0.000896752    1.418    0.295
       143 -10.1942    146.2879    239.3228   8.5803311845e+01   3.1732805042e+00    0.1360498   0.09775529  -7.86 0.0003289382    1.603    0.376
       144 -12.3977    127.8165    147.3159   7.3350028886e+01   2.6741969392e+01    0.3088992    0.1908326  52.41  0.001245833    1.907    0.476
       145 -12.2868    116.8691    146.0938   7.6095278558e+01   2.9098262683e+01    0.3216854    0.2241836 -60.76 0.0004431082    1.580    0.367
       146 -14.0489    112.9033    140.5634   7.5970843735e+01   3.1175232214e+01    0.5461728    0.4620635 -80.85  0.002643173    1.420    0.296
       147 -12.0131    155.8379    145.1644   6.5680415339e+01   2.1746776450e+01    0.2146537    0.1816289  -2.49 0.0003651037    1.312    0.238
       148 -13.5754    170.7447    150.8716   6.3485002863e+01   1.7569512963e+01    0.5535622    0.2506675  41.37  0.002094693    2.301    0.565
       149 -11.6566    202.9949    143.3158   5.5120303524e+01   1.3000445974e+01    0.1927859    0.1827506   3.77 0.0004278436    1.115    0.103
       150 -11.0101    151.0722    141.9722   6.6107655269e+01   2.3410316036e+01    0.2460237    0.1879856  -5.60 0.0005413263    1.647    0.393
       151 -11.9818    139.8410    140.9268   6.8699611953e+01   2.5890357016e+01    0.2392134     0.208933  -2.24 0.0005235775    1.238    0.192
       152 -11.4731    168.7939    138.5313   6.1134174253e+01   2.0601707208e+01    0.2040493    0.1474111  56.94  0.000664518    1.618    0.382
       153 -12.3931    124.0168    137.9926   7.2245409981e+01   2.9685359581e+01    0.2976283    0.2003383  30.22 0.0005013335    1.574    0.365
       154 -13.5331     97.5920    127.3471   7.7425797491e+01   3.7155992589e+01    0.4982224     0.357196  -3.16  0.001533448    1.835    0.455
       155 -13.5816     95.8618    135.8578   7.9934063251e+01   3.5374949737e+01    0.4621266    0.3655896 -59.02  0.001545676    1.302    0.232
       156 -13.6818    101.1485    133.4512   7.7783065581e+01   3.5042343618e+01    0.5746163    0.3894571  66.64  0.002326709    2.194    0.544
       157 -13.1108    106.1575    132.8477   7.6146855105e+01   3.4285757175e+01    0.3676714     0.276995  23.89  0.001266737    1.417    0.294
       158 -11.8490    160.1432    135.7101   6.2466830157e+01   2.2959196792e+01    0.3889849    0.1906106 -32.14  0.001361957    2.583    0.613
       159 -11.4704    196.7415    135.7203   5.4660533289e+01   1.5671265024e+01     0.240217    0.1101468 -51.84 0.0009024931    2.397    0.583
       160 -10.2533    246.6499    135.2502   4.6170812581e+01   6.9795274766e+00    0.1192886   0.09378427 -71.61 0.0004876962    1.589    0.371
       161 -11.3732    204.4382    134.1709   5.2870223306e+01   1.4511735928e+01    0.1936593    0.1253362 -51.29 0.0009223123    1.528    0.345
       162 -11.3562    139.7578    134.5732   6.7222938198e+01   2.7358598990e+01      0.36395    0.1959239  46.20  0.001421755    1.945    0.486
       163 -11.3366    138.0940    131.0445   6.6806720045e+01   2.8495319641e+01    0.2298595    0.2279158 -77.05 0.0005683707    1.067    0.063
       164 -13.4428    123.8360    129.7899   7.0336491920e+01   3.1643569439e+01    0.5477684    0.3560559  62.52  0.001828098    2.173    0.540
       165 -12.8001    121.6501    124.3381   6.9605247368e+01   3.3335314156e+01     0.393457    0.3147422  56.08  0.001804847    1.402    0.287
       166 -11.9256    120.1083    120.1162   6.8979241320e+01   3.4606298073e+01    0.2752683     0.222451 -42.40 0.0003669416    1.223    0.183
       167 -13.2421     91.6561    130.3649   7.9969998775e+01   3.7445975271e+01    0.4173101    0.2751313 -45.81 0.0009421719    1.465    0.317
       168 -13.0017    157.7394    127.3543   6.1046550808e+01   2.5255744919e+01    0.5833808    0.4554489 -59.76  0.002184196    1.407    0.289
       169 -12.5639    153.1481    128.8615   6.2502958378e+01   2.5884091514e+01    0.4918687     0.295893  32.36  0.002024924    1.898    0.473
       170 -10.6974    134.0568    127.4743   6.6996932821e+01   3.0123565784e+01    0.2169084    0.1547015  40.01 6.394874e-05    1.418    0.295
       171 -11.2681    168.5389    126.4651   5.8370310861e+01   2.3199428509e+01    0.1508413    0.1440333 -28.25 2.081008e-05    1.026    0.026
       172 -14.4461     85.0684    126.6681   8.1187100430e+01   3.9447459577e+01    0.6113619    0.5497669  27.79  0.003222848    1.141    0.123
       173 -11.5171    190.2106    122.5996   5.2976374783e+01   1.9538845859e+01    0.4359067    0.2875997  84.82  0.001760113    2.731    0.634
       174 -12.6630    110.1495    119.1920   7.1624490323e+01   3.6768194830e+01    0.2747439    0.2088273 -34.34 0.0004412668    1.342    0.255
       175 -13.6280    107.4702    122.8124   7.3328709741e+01   3.6434769897e+01    0.4931577    0.3246308  38.58  0.001665788    1.533    0.348
       176 -13.7145    101.0519    120.3718   7.4660270780e+01   3.8199397466e+01    0.5016882    0.4051652  89.08  0.002346355    1.674    0.403
       177 -10.8240    229.4687    121.0368   4.5875276810e+01   1.2357550286e+01    0.1826201    0.1092395 -21.86 0.0008076818    2.394    0.582
       178 -11.3969    220.8604    120.8347   4.7178737462e+01   1.3948653929e+01    0.1881274    0.1505663 -64.49 0.0005394351    1.328    0.247
       179 -10.6354    250.5136    119.4902   4.2560231671e+01   9.0476885872e+00    0.1277542    0.1038868 -46.87 0.0001413875    1.019    0.018
       180 -15.2734     85.7096    233.9718   9.9010557022e+01   1.3140307200e+01     1.678066    0.8542143  37.65  0.007955285    1.731    0.422
       181 -13.1388    105.5799    114.6102   7.1817639896e+01   3.8693238793e+01    0.3717185    0.3136136  18.21 0.0008020209    1.231    0.187
       182 -12.1857    108.7591    111.5876   7.0075063410e+01   3.8768372984e+01    0.2769554    0.1987229  34.73  0.001273293    1.403    0.287
       183 -13.5780     82.7188    113.9565   7.8885646032e+01   4.2901654596e+01    0.4441994    0.3056692 -54.19  0.002018808    1.469    0.319
       184 -10.5167    123.6976    114.6920   6.6583730457e+01   3.5097604423e+01    0.1577571    0.1223777  -4.97 0.0002806672    1.602    0.376
       185 -12.7596    116.2561    114.0020   6.8508616272e+01   3.6752557786e+01    0.3110184    0.2828213   3.47  0.001601744    1.129    0.114
       186 -12.1728    114.6830    110.3263   6.7999494858e+01   3.7883254935e+01    0.2936069    0.2571322 -51.36  0.001190155    1.187    0.157
       187 -13.4203     93.6469    119.8310   7.6825812141e+01   3.9653202261e+01    0.4692142    0.2288668 -49.38  0.001805482    1.989    0.497
       188 -12.7005    164.8487    110.7846   5.5386549960e+01   2.7181899595e+01    0.4649112    0.2562809 -57.58  0.001810604    2.277    0.561
       189 -13.6454     88.5861    109.9400   7.5939771981e+01   4.2854211519e+01     0.466502    0.2805052 -31.33  0.001934443    1.902    0.474
       190 -11.2826    217.5270    105.9254   4.4529130336e+01   1.7235989518e+01    0.2139639    0.1213432 -39.99   0.00103051    1.607    0.378
       191 -11.2224    174.9443    106.4823   5.2207403348e+01   2.5853822777e+01    0.2076034    0.1453349  50.90 0.0003503218    1.477    0.323
       192 -10.7691    230.1762    104.8125   4.2424963503e+01   1.5052622908e+01     0.162335    0.1453028 -22.70 0.0002280317    1.281    0.219
       193 -15.2457     76.7518     98.5140   7.6876732250e+01   4.7431644669e+01     1.971307      0.70407  37.64  0.006907986    2.808    0.644
       194 -12.6784     58.4753    100.0353   8.3787454755e+01   4.9779207793e+01    0.3693563    0.3097882  22.68 0.0008225433    1.234    0.189
       195 -12.1954     60.2819     95.9792   8.2077783236e+01   5.0464168622e+01     0.275495    0.2472124 -18.28 0.0003524745    1.018    0.018
       196 -13.1366     60.4908     92.3310   8.1026502099e+01   5.1254746264e+01    0.3472144    0.2959064  19.01  0.001938681    1.186    0.157
       197 -11.2629    109.5607    103.7544   6.7741580656e+01   4.0338535403e+01    0.2736994    0.2467432  89.66  0.001106142    1.344    0.256
       198 -12.2604    105.8253    104.1533   6.8971462525e+01   4.0984633179e+01    0.3364773     0.228833  36.91 0.0006806389    1.466    0.318
       199 -13.2452      2.3659    102.0784   1.0501699063e+02   5.4304586275e+01    0.4749341    0.2094122 -69.24  0.002219804    1.962    0.490
       200 -11.0800    178.6874    100.3157   4.9971516204e+01   2.6214099633e+01    0.1481367    0.1113608 -76.76  0.000390111    1.640    0.390
       201 -11.6075     30.8913     99.3146   9.3913660540e+01   5.3019091386e+01    0.3419319    0.1750898 -40.69  0.001577825    1.770    0.435
       202 -11.4823    237.4545     98.8393   4.0214529838e+01   1.4731636325e+01    0.1983459    0.1662009 -86.69 0.0004802707    1.287    0.223
       203 -16.1485     55.6280    228.4843   1.0533727300e+02   1.8286962793e+01     4.951235     2.088367  45.38   0.02220174    2.135    0.532
       204 -12.3214     97.9930     96.1058   6.9166077380e+01   4.4221078723e+01    0.3037893    0.1957935 -17.52  0.001246377    2.126    0.530
       205 -11.2323    150.6628     96.3177   5.4886941077e+01   3.3121691776e+01    0.1537545    0.1186474 -84.56 0.0007048813    1.702    0.413
       206 -11.2733     38.9709     95.5375   8.9983405783e+01   5.3127801687e+01     0.251913    0.1350853  15.13  0.001097405    2.088    0.521
       207 -12.6974     35.5184     93.6357   9.0863842401e+01   5.3914922343e+01    0.4839091    0.2388482   7.77  0.001656403    2.560    0.609
       208 -13.8875     66.6521     86.2406   7.7047724017e+01   5.1688336289e+01    0.4804931    0.3423911 -16.87   0.00206128    1.516    0.340
       209 -13.9732     72.9980     88.3997   7.5369172495e+01   5.0242708017e+01    0.4598043    0.3920205 -87.01   0.00241071    1.655    0.396
       210 -11.4189    214.0533     92.9291   4.2251306254e+01   2.0156618622e+01    0.1963585    0.1651256  -1.41  0.000675177    1.639    0.390
       211 -11.5238    183.1713     91.8307   4.7083285222e+01   2.6785608141e+01    0.1882041      0.17261   6.54 0.0007280374    1.303    0.232
       212 -11.0155     21.6159     91.1694   9.5733493933e+01   5.5691679411e+01    0.2041464    0.1698554  18.36 0.0007133396    1.345    0.257
       213 -12.3839      2.7081     90.9166   1.0304408976e+02   5.6912421470e+01    0.2207168    0.1823007 -33.37 0.0002843869    1.130    0.115
       214 -12.3322     25.9437     89.7233   9.3708363546e+01   5.5681006649e+01    0.2762481    0.2316021  59.78  0.001628631    1.586    0.369
       215 -11.9966    101.8179     89.2203   6.5999950859e+01   4.4910106771e+01    0.2459116     0.172251  86.66 0.0009540883    2.837    0.648
       216 -11.1036    157.3728    234.1415   8.2516129364e+01   2.4955684986e+00    0.1825351    0.1677089 -12.96  0.001121219    1.128    0.113
       217 -11.9439     11.6398     87.2115   9.8850424660e+01   5.7283155050e+01    0.3353685    0.1835973 -60.96  0.001734736    1.582    0.368
       218 -11.5820    171.0247     88.0371   4.8439592393e+01   3.0125049632e+01    0.2169486    0.2063359 -77.46   0.00039919    1.017    0.017
       219 -13.0232     62.3664     82.5355   7.7568250645e+01   5.3107086100e+01    0.2830265    0.2297447 -18.04 0.0007660462    1.162    0.139
       220 -13.0580     53.7911     85.1266   8.1579480957e+01   5.3739484343e+01     0.483321    0.4149064 -68.18  0.002724065    1.455    0.313
       221 -11.0441    148.4723     87.5953   5.3076304844e+01   3.5248251504e+01    0.1451202    0.1401647  55.52 4.344102e-05    1.018    0.018
       222 -12.1412     31.7725     87.4511   9.0859809993e+01   5.5685687004e+01    0.3107061    0.1333162  16.59  0.001297825    2.629    0.620
       223 -12.1483     85.8476     85.5473   7.0072348020e+01   4.8658613541e+01    0.2630262    0.1990475  88.59 0.0009097857    2.301    0.565
       224 -10.5832     45.5797     86.4701   8.5140962832e+01   5.4459849303e+01     0.139726     0.120799 -26.72 6.967856e-05    1.011    0.011
       225 -10.7634    136.9843     85.4854   5.5211383228e+01   3.8200206390e+01    0.2098993    0.1428999  49.33 -4.016324e-05    1.432    0.302
       226 -11.4016    114.6308     85.2687   6.1051619400e+01   4.3083985712e+01    0.3286067    0.1908639  59.04  0.001072066    2.217    0.549
       227 -12.4121    108.6810     81.6678   6.1710907053e+01   4.5007330725e+01      0.40062    0.3083458  -4.86  0.001960533    1.554    0.357
       228 -11.2262    106.0241     79.4441   6.1831448694e+01   4.5971305938e+01     0.242928    0.2199722  71.14 -4.977981e-06    1.307    0.235
       229 -10.9048    222.4770     82.0344   3.8740550253e+01   2.0282894262e+01    0.1873425    0.1143068 -43.22 4.029461e-05    1.472    0.320
       230 -12.3249    206.5654     81.6413   4.0882111220e+01   2.3551857774e+01    0.2611484    0.2142987 -72.11 0.0008543422    1.181    0.154
       231 -12.4271    152.7616     80.4996   5.0228372124e+01   3.5551984465e+01    0.3509158    0.2642441  36.27 0.0005928095    1.454    0.312
       232 -13.1472     87.5004     79.0721   6.7566057380e+01   4.9647903673e+01    0.3750715    0.3418152   7.32  0.001193364    1.011    0.011
       233 -14.0779     75.5104     76.2371   7.0833067764e+01   5.2316137993e+01    0.6192777    0.5037827 -39.70  0.001589842    1.257    0.204
       234 -11.6202    182.9850     78.0961   4.3806972863e+01   2.9178789895e+01     0.409684     0.179106 -32.50  0.001582578    2.715    0.632
       235 -11.5326    176.8514     80.3914   4.5445519664e+01   3.0153002997e+01     0.203389    0.1247308  45.34 0.0009450068    1.764    0.433
       236 -10.6884    199.6886     79.6674   4.1471926563e+01   2.5311895303e+01    0.1288435     0.108242  11.48 0.0007043731    1.676    0.403
       237 -11.7318    120.4700     78.8002   5.7545758960e+01   4.3048102721e+01    0.2606592    0.1964965  45.64 0.0005253411    1.274    0.215
       238 -12.2337    112.0319     76.0520   5.9063887853e+01   4.5347263157e+01    0.3570855    0.2587346 -42.26 0.0005367828    1.453    0.312
       239 -11.7075    115.6190     74.7747   5.7676199575e+01   4.4813670537e+01    0.2894431    0.2176243  -8.39  0.001405925    1.643    0.391
       240 -12.1733    177.8562     86.9674   4.6878340613e+01   2.8802732443e+01    0.2270973    0.2007174  65.52 0.0003590312    1.135    0.119
       241 -11.9632      7.1283     78.1092   9.8798248280e+01   5.9594048785e+01    0.2002716    0.1374434 -37.32 0.0003655107    1.199    0.166
       242 -10.4758    200.2987     75.2977   4.0387442603e+01   2.5886426825e+01    0.1231856    0.1066902  16.95 0.0001604162    1.574    0.365
       243 -10.7147    177.8074     74.8328   4.3906257430e+01   3.0861092325e+01    0.1915935    0.1560051 -78.91 0.0006143228    1.290    0.225
       244 -10.9546    127.9271    235.3368   8.9396532659e+01   6.7022021321e+00    0.1961688     0.159484  26.03 0.0005769375    1.109    0.098
       245 -11.5794     31.9383     74.6214   8.7489296129e+01   5.8482746687e+01    0.3111917    0.1870247   0.55  0.001564299    1.830    0.454
       246 -12.2657     51.1750     73.5774   7.9255380127e+01   5.6505026681e+01    0.2281009    0.1503087 -38.99 0.0003484381    1.401    0.286
       247 -10.6482    232.4507     73.4936   3.5734589816e+01   1.9685458036e+01    0.1252566    0.1050714 -61.61 7.081529e-05    1.013    0.013
       248 -10.6802    124.5501     73.5342   5.4924403759e+01   4.3091020512e+01    0.1439075     0.137612  43.03 6.066318e-05    1.025    0.025
       249 -11.0856     94.4686     73.0074   6.3412546581e+01   4.9470489570e+01     0.207919    0.1410788 -39.31 0.0003530289    1.523    0.343
       250 -12.8295      3.9820     72.6403   9.8951075847e+01   6.0959834866e+01    0.2356218    0.1802518 -52.08 0.0004949925    1.142    0.124
       251 -11.4705    219.8520     72.3409   3.7043620580e+01   2.2319579316e+01    0.1993753    0.1470979 -84.06 0.0006761363    1.409    0.290
       252 -12.8188    188.5799     66.5077   4.0129183203e+01   2.9790147184e+01    0.3835798    0.2198948 -44.36  0.000890199    1.682    0.405
       253 -12.2897    100.7003     67.6680   5.9797926521e+01   4.9175975617e+01    0.2970021    0.2019594 -33.93  0.001464753    1.541    0.351
       254 -12.6380     99.7047     64.5057   5.9093194820e+01   4.9916626005e+01    0.4505193    0.2830879   0.90   0.00185223    2.584    0.613
       255 -11.0213     94.1567     69.1446   6.2292740250e+01   5.0226023250e+01    0.1805916    0.1724256 -77.01 0.0003460798    1.292    0.226
       256 -12.2310    197.4862     67.0978   3.8935410169e+01   2.7764843172e+01    0.3008854    0.2231536 -20.14  0.001080859    1.804    0.446
       257 -12.4087     60.1710     67.3659   7.3749122330e+01   5.6465380801e+01    0.2938865    0.1896649 -17.62 0.0008585236    1.723    0.420
       258 -11.9714     48.3344     67.2879   7.8471170983e+01   5.8127794073e+01    0.2579024    0.1916059 -12.61  0.001438141    1.279    0.218
       259 -10.9117     78.9130     65.6822   6.6255544472e+01   5.3699009484e+01    0.1897472    0.1689969  20.86 0.0004589046    1.073    0.068
       260 -12.3285    113.9356     63.2500   5.4626095136e+01   4.7129719074e+01    0.3027849    0.2494173 -83.07 0.0008104536    1.623    0.384
       261 -12.5444    109.8098     60.2742   5.4824024419e+01   4.8493399914e+01    0.2947094    0.2675205  61.50  0.001701937    1.191    0.160
       262 -12.1851     45.2705     61.4049   7.7865321355e+01   5.9650482916e+01     0.298128      0.22215   1.22  0.001710393    1.261    0.207
       263 -12.4626     40.5063     60.4887   7.9603321569e+01   6.0408526795e+01    0.3501758    0.1224038  27.44  0.001396122    2.863    0.651
       264 -12.0520     13.1578     62.1554   9.2341327826e+01   6.2633627619e+01    0.2062993    0.1385672 -29.36 0.0007548015    1.238    0.192
       265 -11.9352    119.3696     58.7568   5.1814693044e+01   4.6648831561e+01     0.235123    0.1832477  58.59  0.001252767    1.283    0.221
       266 -11.4502      3.6999     59.2133   9.5925724141e+01   6.3808800513e+01    0.2943958      0.15485  -1.87  0.001588652    1.979    0.495
       267 -12.5310    193.2484     57.8007   3.7408745779e+01   3.0062881054e+01    0.3049441    0.1918927 -88.28 0.0009236613    1.894    0.472
       268 -12.4262     99.0946     56.7190   5.6752994785e+01   5.1303544879e+01     0.368438    0.2065402 -24.57  0.001632129    2.165    0.538
       269 -11.0082    225.3888     57.1730   3.3243220408e+01   2.3453502830e+01    0.1832541   0.09423677 -50.13 0.0009506888    1.715    0.417
       270 -10.7350    153.5227     57.4977   4.3879081234e+01   3.9072974902e+01    0.1372925    0.1275726  67.41 0.0002972881    1.020    0.020
       271 -11.3015    140.2489     56.9682   4.6415444417e+01   4.2202831818e+01    0.3062979    0.1471044  66.10  0.001193424    2.519    0.603
       272 -13.3531     28.3622     55.7964   8.3493298991e+01   6.2621667181e+01    0.5861968    0.2705503  39.70  0.002621277    2.924    0.658
       273 -10.6977    159.3138     56.6720   4.2575760804e+01   3.7861741406e+01    0.1418555      0.10152 -75.36 0.0004272703    1.671    0.402
       274 -12.4572    110.0922     54.4846   5.2910444848e+01   4.9323742367e+01    0.3760236    0.2087813  29.65  0.001592747    2.251    0.556
       275 -10.9308    240.0933     54.5362   3.1181406975e+01   2.0988879712e+01    0.1598895    0.1084151  74.08 0.0003669352    1.510    0.338
       276 -12.1941    181.4877     51.7015   3.7672002720e+01   3.3526860014e+01    0.3195812    0.1944508  71.25  0.001301292    1.624    0.384
       277 -11.6698     94.4933     51.4974   5.6400009343e+01   5.3042637452e+01    0.2296431    0.1313083 -20.86  0.001024161    2.199    0.545
       278 -11.6996    174.3988     50.7752   3.8522439241e+01   3.5251293319e+01    0.2623659    0.1798133  68.25  0.001422261    1.375    0.273
       279 -12.4607     29.1650     50.1802   8.1275860809e+01   6.3584186939e+01    0.2570457    0.2290859 -87.11  0.001618925    1.868    0.465
       280 -11.9246     17.5014     49.8911   8.6711635422e+01   6.4718393086e+01    0.2946567    0.2078791 -44.57 0.0009442692    1.329    0.247
       281 -12.1142     20.4367     46.5069   8.4187244228e+01   6.5092919056e+01    0.2268228    0.1786224 -38.89 0.0006935144    1.264    0.209
       282 -12.1171     37.8309     50.1608   7.7308321712e+01   6.2620251763e+01    0.1872787    0.1300762 -12.70 0.0006045719    1.333    0.250
       283 -11.6318    124.0119     51.9918   4.8602765884e+01   4.6616807401e+01    0.1727866    0.1494666  50.14 0.0004846145    1.055    0.052
       284 -11.7024    133.1276     48.3548   4.5447528448e+01   4.5058049845e+01    0.2063789    0.1880087  16.92 0.0004518366    1.209    0.173
       285 -11.1307    142.9231     46.5227   4.2902155124e+01   4.3056081196e+01    0.2178057    0.1226391  58.30  0.001037367    1.607    0.378
       286 -11.7371     39.1604     46.1842   7.5296659971e+01   6.3145931345e+01    0.1572826    0.1434579  11.76 0.0002495607    1.301    0.231
       287 -12.0390    196.3310     44.3174   3.3929367790e+01   3.1253350682e+01     0.311414    0.1871724  83.14  0.001557533    1.745    0.427
       288 -10.8536    153.3695     44.8220   4.0480362003e+01   4.0870772624e+01    0.1682772    0.1304015 -17.04 0.0002515517    1.619    0.382
       289 -13.1070     35.0425     39.9261   7.4864167675e+01   6.4690443201e+01    0.4210803    0.2268362  16.84  0.002027904    1.851    0.460
       290 -11.6041    146.0334     39.4598   4.0331720564e+01   4.3250895738e+01    0.2136211    0.1737994 -59.97 7.342359e-05    1.336    0.251
       291 -11.4779    104.2570     39.9571   4.9734960341e+01   5.2604306209e+01    0.2322424     0.173037  46.56 0.0004617476    1.182    0.154
       292 -11.7566    243.0049     38.2301   2.7846943473e+01   2.2607561933e+01    0.1862668    0.1357155 -56.32 0.0004074856    1.148    0.129
       293 -10.8172    135.8424     39.1224   4.2178997692e+01   4.5640717934e+01    0.1776315    0.1454037  37.32 0.0003316463    1.271    0.213
       294 -12.1801     53.6269     38.4239   6.6139729533e+01   6.2354334018e+01    0.3405515    0.2051456   2.43  0.001691245    2.020    0.505
       295 -10.4135    186.7086     38.2794   3.3775132115e+01   3.4138026324e+01     0.127475   0.08605069 -73.66  0.000203865    1.527    0.345
       296 -11.3764     60.0605     37.0781   6.3046360752e+01   6.1518720875e+01    0.2740416    0.1747734 -36.60  0.001510088    1.710    0.415
       297 -10.5789     92.5109     37.5109   5.2178950892e+01   5.5390056046e+01    0.1343533    0.1159852  32.70 -2.18801e-05    1.005    0.005
       298 -12.9431     11.0749     36.3017   8.5391929646e+01   6.7684466885e+01    0.3521246    0.2131437 -13.27  0.002117184    1.466    0.318
       299 -11.4426    237.6311    248.9540   6.8607477519e+01  -1.0577264311e+01    0.2441606    0.1614286  -2.17   0.00156694    1.266    0.210
       300 -10.4595    111.6617    249.6940   9.5014585890e+01   6.2527195133e+00    0.1306612   0.09799469  -4.52 0.0007041175    1.677    0.404
       301 -10.6051    171.2944     27.7418   3.3292897908e+01   3.8849345783e+01    0.1636882     0.137477  62.96            0    1.171    0.146
       302 -10.4973    242.2965     30.3015   2.6450984513e+01   2.3726571749e+01    0.0936705   0.08759786  51.98 0.0002132244    1.577    0.366
       303 -11.5404    140.8129     29.6880   3.8529138301e+01   4.5613044229e+01    0.3808073    0.1410449  46.73  0.001514413    2.748    0.636
       304 -11.7733     75.0048     30.4534   5.5083730067e+01   5.9735519669e+01    0.1973537     0.111845  44.72 0.0003599316    1.558    0.358
       305 -12.6880     39.0683     29.1799   6.8762883778e+01   6.5809340044e+01    0.3094883    0.2114278   5.90  0.001156132    1.315    0.239
       306 -10.7695    156.2666     29.3229   3.5862349618e+01   4.2097508679e+01    0.1225489   0.09325489  36.05 0.0002044409    1.564    0.360
       307 -11.6740    178.9620     27.9770   3.2350751953e+01   3.7098841079e+01    0.1827499     0.157746  87.73  0.001206065    1.022    0.021
       308 -12.2948     43.8797     33.7524   6.8454333951e+01   6.4483304456e+01    0.2484623    0.1830573  19.19 0.0006077708    1.173    0.148
       309 -11.1988    126.7021    248.3438   9.1482226416e+01   4.3450854821e+00    0.3343845    0.1698908  28.56  0.001565634    1.805    0.446
       310 -11.7698    169.7758     31.3616   3.4393107045e+01   3.8776417828e+01    0.1917283     0.158752 -83.07  0.000338028    1.131    0.116
       311 -11.2191    172.0352     22.4389   3.1904903318e+01   3.9269218167e+01    0.2183087    0.1775275  -4.39  0.001363701    1.734    0.423
       312 -12.0712    132.4603    232.1458   8.7881584659e+01   6.6577224440e+00    0.3783422    0.2186798  23.35  0.001077268    1.754    0.430
       313 -11.3932    250.0337     22.0888   2.4403605749e+01   2.3281681322e+01    0.1641413    0.1234488 -70.21 0.0003654058    1.011    0.011
       314 -10.5471     35.5694     21.4256   6.7108136547e+01   6.7344362666e+01    0.1222759   0.09318157   5.89  4.79017e-05    1.023    0.022
       315 -10.0836    134.3315     18.6965   3.6519667143e+01   4.8257605252e+01    0.1273501   0.09084579 -78.84   0.00059514    1.655    0.396
       316 -10.8498    103.5706     15.6630   4.1705767888e+01   5.5445654327e+01    0.2301835    0.1005988  58.07  0.001073839    1.917    0.478
       317 -10.8813    127.5638    244.4362   9.0759142583e+01   4.9666730291e+00     0.199659    0.1929653  22.42 0.0006368961    1.120    0.107
       318 -10.2224     41.3297     13.7109   6.1069442239e+01   6.7461287063e+01     0.102163   0.09262399  43.61 0.0004716119    1.620    0.383
       319 -11.2427    139.5904    247.2707   8.8461386244e+01   2.6703525459e+00    0.1814797    0.1431288   0.69 0.0004330347    1.322    0.243
       320 -12.1654    136.8937    241.7034   8.8269804007e+01   4.1156543169e+00     0.547471    0.3246256 -50.63   0.00253531    1.886    0.470
