#   1 NUMBER                 Running object number                                     
#   2 MAG_AUTO               Kron-like elliptical aperture magnitude                    [mag]
#   3 X_IMAGE                Object position along x                                    [pixel]
#   4 Y_IMAGE                Object position along y                                    [pixel]
#   5 X_WORLD                Barycenter position along world x axis                     [deg]
#   6 Y_WORLD                Barycenter position along world y axis                     [deg]
#   7 A_WORLD                Profile RMS along major axis (world units)                 [deg]
#   8 B_WORLD                Profile RMS along minor axis (world units)                 [deg]
#   9 THETA_WORLD            Position angle (CCW/world-x)                               [deg]
#  10 FWHM_WORLD             FWHM assuming a gaussian core                              [deg]
#  11 ELONGATION             A_IMAGE/B_IMAGE                                           
#  12 ELLIPTICITY            1 - B_IMAGE/A_IMAGE                                       
         1 -15.2042    127.4512    103.6621   6.3867042465e+01   3.6402841359e+01     5.930492     3.243941 -75.35   0.01086716   12.282    0.919
         2 -13.8787     95.5254     48.8275   5.5840358900e+01   5.4713010424e+01     1.388018    0.6482662 -54.67    0.0046695    3.019    0.669
         3 -14.7127     73.6310     19.4483   5.0087807246e+01   6.4842772072e+01     4.069836     2.108118 -66.28  0.009698059    7.913    0.874
         4 -16.1498    205.1818     37.4311   3.0815463470e+01   2.9005002122e+01     4.811403     2.017855 -55.85  0.004291289    2.887    0.654
         5 -11.3004    227.7593     13.9844   2.2920064810e+01   2.6553312759e+01    0.2510018    0.1404349 -23.68  0.001346359    1.674    0.403
         6 -13.0687     13.2228     59.9081   9.8422000567e+01   6.4900516312e+01     0.320397    0.2413463  63.42 0.0008471851    1.413    0.292
         7 -16.1555    234.2508    239.7739   6.7612161341e+01  -7.4921314638e-01     2.548124     1.255844  16.56    0.0173177    1.648    0.393
         8 -13.1540    229.4582    211.3486   6.4302442472e+01   2.5581995675e+00    0.5770762    0.4650296  59.12  0.003750354    3.097    0.677
         9 -12.8425    143.2334    249.7883   8.4416806373e+01   8.6208699375e+00    0.5629238   0.09927443  33.07  0.002123465    3.989    0.749
        10 -10.9816    125.0048    250.0068   8.7896833332e+01   1.0775255884e+01    0.1345273   0.09576941  29.61 0.0003734074    1.001    0.001
        11 -14.1751     94.3917    247.8133   9.3699743503e+01   1.4687116155e+01     1.539883    0.2189697  34.36  0.005830552    3.800    0.737
        12 -12.3971     71.3291    241.1884   9.7884309088e+01   1.8299096235e+01    0.2018171    0.1714177  71.54  0.000554964    1.358    0.264
        13 -17.7332     11.8463    236.8760   1.0979715467e+02   2.4870813161e+01     3.340162     1.984408  13.78   0.02192139    2.066    0.516
        14 -13.2211    127.6694    230.4480   8.5415744336e+01   1.3125965310e+01     0.327144    0.2111326  42.04  0.002132804    1.375    0.273
        15 -18.0114      8.0471    207.9385   1.0992908912e+02   3.0318030240e+01     11.47157      1.37782 -83.86   0.03044008    8.708    0.885
        16 -12.2087     55.2206    207.1457   9.9131981964e+01   2.5926795624e+01    0.4124194    0.1992344  69.14  0.002036532    2.465    0.594
        17 -12.2096    104.1604    208.1377   8.8005657018e+01   1.9705511817e+01    0.1889299    0.1543293  17.11   0.00125098    1.240    0.194
        18 -10.8607     76.7262    232.2643   9.6152390864e+01   1.9102894392e+01    0.1464859    0.1137142  19.11  0.001032169    1.347    0.257
        19 -12.1909    102.5074    202.0073   8.7704393653e+01   2.0990526327e+01    0.2699469    0.1864932  55.61 0.0009351376    1.517    0.341
        20 -11.2887    101.2666    198.6417   8.7610063591e+01   2.1757852879e+01    0.2569723     0.158129  58.56 0.0007334335    1.885    0.470
        21 -10.3295     56.6848    193.2838   9.7773377039e+01   2.8436447903e+01    0.1312349    0.0729631  52.83 0.0003827621    1.580    0.367
        22 -12.8165     46.1229    190.5576   1.0017837452e+02   3.0157043988e+01    0.3212038    0.2461471 -28.84  0.001374256    1.872    0.466
        23 -11.5014     31.9207    187.1152   1.0350009357e+02   3.2314874108e+01    0.3734778    0.1842415  51.78   0.00201751    1.656    0.396
        24 -11.0341     74.7895    180.8036   9.2091098390e+01   2.8744156237e+01     0.371171    0.1760557 -83.40  0.001562202    3.180    0.686
        25 -12.9668     58.3848    178.8735   9.6139116630e+01   3.1188300094e+01    0.5620386    0.5074686  24.56  0.003283549    1.221    0.181
        26 -11.2024     99.1475    180.9818   8.5982852928e+01   2.5355537431e+01    0.2274878    0.1677663  33.64 0.0006733086    1.165    0.142
        27 -10.0012     85.3122    174.3432   8.8646326727e+01   2.8651769997e+01    0.1289365    0.1012296 -14.35 0.0007046371    1.704    0.413
        28 -10.3743     88.3079    172.7023   8.7666033184e+01   2.8567483904e+01    0.1963486    0.1005681  32.40 0.0005273255    1.718    0.418
        29 -13.0024    181.1987    168.3429   6.5614769898e+01   1.4639599357e+01    0.9416867     0.587064  66.11  0.003594658    4.717    0.788
        30 -13.8995    166.2466    150.1627   6.5200608895e+01   2.0036052411e+01     1.235392    0.8964099 -79.54  0.005713767    2.801    0.643
        31 -10.7312     34.9268    171.7036   1.0178769375e+02   3.5298967797e+01    0.1824592    0.1354968  48.14 0.0008173512    1.113    0.102
        32 -10.9743     97.8363    169.8048   8.4820754250e+01   2.7771241605e+01    0.1893607    0.1443846  57.26 0.0005510098    1.333    0.250
        33 -11.0619     27.7369    169.2479   1.0356943739e+02   3.6531715002e+01    0.2076061    0.1411788  88.23 0.0007072287    1.440    0.305
        34 -15.0489     60.4125    137.6346   9.0996387491e+01   4.0277178841e+01     1.402542    0.8068112  80.89  0.006155284    2.206    0.547
        35 -12.7720     75.1804    162.6003   8.9900873364e+01   3.2548848147e+01    0.3356225    0.2725321  -5.95 0.0007232851    1.589    0.371
        36 -13.8798     71.6021    149.9454   8.9277345537e+01   3.5878272818e+01    0.4845012    0.4531564 -86.94  0.001045825    1.129    0.114
        37 -13.9498     70.1878    144.8785   8.8999824544e+01   3.7245582131e+01    0.6089852    0.4234847  41.89  0.001760895    1.293    0.226
        38 -11.2308     94.5129    165.1487   8.5032624674e+01   2.9227439546e+01    0.2657061    0.1850379  60.15    0.0013907    1.553    0.356
        39 -10.0307    101.5860    163.4902   8.2939982348e+01   2.8493737071e+01    0.1380159    0.1197281  48.28 0.0002507534    1.076    0.070
        40 -10.9963     32.2986    156.3453   1.0144252143e+02   3.9014942318e+01    0.1238475   0.09465323 -40.91 0.0004587186    1.676    0.403
        41 -11.6186     83.3933    154.9347   8.6600041136e+01   3.3072881932e+01    0.2350442    0.1863724  28.51 0.0003960191    1.235    0.191
        42 -11.6706     89.4967    149.4575   8.4068489697e+01   3.3367815706e+01    0.4196343    0.2839848  -2.91  0.001283724    2.351    0.575
        43 -12.7996     54.2481    147.9875   9.4178572100e+01   3.8584470986e+01    0.4583251    0.1856937 -61.43  0.001924194    2.480    0.597
        44 -12.0950     37.9975    137.0014   9.8043773088e+01   4.3048033009e+01    0.2050126     0.179094  62.28 0.0003265171    1.011    0.011
        45 -11.8493     75.2804    247.3059   9.7479009504e+01   1.6926561035e+01    0.3598448    0.2187582 -71.86  0.002477723    2.205    0.546
        46 -12.2931    119.0261    241.3940   8.8251434065e+01   1.2661187435e+01    0.2919452    0.1618991 -56.48  0.001831523    2.488    0.598
        47 -10.3232     77.2394    228.6378   9.5776077834e+01   1.9633040485e+01    0.1638766   0.08859681 -75.35 0.0009554884    2.469    0.595
        48 -12.2344     91.1037    135.2075   8.1220676805e+01   3.6323781867e+01    0.2339609    0.2267413 -58.37 0.0003963531    1.118    0.105
        49 -10.7420    105.5436    132.0110   7.6434560120e+01   3.4580513477e+01    0.3789781    0.1460309 -53.98  0.001371418    2.782    0.641
        50 -13.1576     43.2331    129.6085   9.5529924807e+01   4.4311448049e+01    0.3859987    0.1832632  45.79  0.001699305    1.942    0.485
        51 -10.7793     99.3005    123.5383   7.6534004836e+01   3.7588907823e+01    0.2192629    0.1725949 -24.79 0.0005609898    1.574    0.365
        52 -12.5132     34.1258    119.1789   9.7442667072e+01   4.7880584730e+01    0.2093218    0.1868897 -48.35 0.0008872815    1.257    0.204
        53 -13.3924     18.5643    110.4551   1.0220237302e+02   5.1449943817e+01    0.3510258    0.2275598  87.79  0.001014808    1.442    0.306
        54 -10.4045    205.5237    110.4877   4.9265690008e+01   1.9055458071e+01    0.1321554    0.1183261 -14.34 9.051889e-05    1.018    0.018
        55 -13.4080     30.2162    108.0843   9.7568018320e+01   5.1090908055e+01    0.4839824    0.1869453  32.96   0.00198613    2.353    0.575
        56 -13.0523     71.1510    166.8480   9.1510592125e+01   3.2164191115e+01    0.7383879    0.3687434 -35.30  0.002810042    3.778    0.735
        57 -11.8026    141.6781    232.0481   8.2802904580e+01   1.1111099416e+01     0.192901    0.1841186   6.99 0.0006666956    1.340    0.254
        58 -10.9907     62.1200    243.0958   9.9877496453e+01   1.9005174996e+01    0.1171301   0.06948158 -74.65 0.0005616189    2.172    0.540
        59 -14.0354    185.8569     56.9172   3.8593912403e+01   3.0994857469e+01    0.5444694    0.4711835  18.26  0.001125958    1.326    0.246
        60 -11.3264    232.7964     18.6313   2.3741559289e+01   2.5053220684e+01    0.2231812    0.1741594  83.10  0.001351104    1.404    0.288
        61 -12.0812     48.6532    233.9027   1.0215528642e+02   2.1905033473e+01    0.1835928    0.1287784  43.92 0.0003779894    1.035    0.034
