#   1 NUMBER                 Running object number                                     
#   2 MAG_AUTO               Kron-like elliptical aperture magnitude                    [mag]
#   3 X_IMAGE                Object position along x                                    [pixel]
#   4 Y_IMAGE                Object position along y                                    [pixel]
#   5 X_WORLD                Barycenter position along world x axis                     [deg]
#   6 Y_WORLD                Barycenter position along world y axis                     [deg]
#   7 A_WORLD                Profile RMS along major axis (world units)                 [deg]
#   8 B_WORLD                Profile RMS along minor axis (world units)                 [deg]
#   9 THETA_WORLD            Position angle (CCW/world-x)                               [deg]
#  10 FWHM_WORLD             FWHM assuming a gaussian core                              [deg]
#  11 ELONGATION             A_IMAGE/B_IMAGE                                           
#  12 ELLIPTICITY            1 - B_IMAGE/A_IMAGE                                       
         1 -14.4047    217.8313      5.9778   3.9791179435e+01   2.9790675354e+01     2.012804     1.103616  71.58  0.005545912    1.691    0.409
         2 -15.2530    192.6465     35.9543   5.0763115187e+01   3.2579211959e+01     3.329717     2.069179  19.39   0.01360445    2.659    0.624
         3 -13.3720     57.2858    200.0584   1.1914811490e+02   2.6200244270e+01    0.5176148    0.2680127 -63.17  0.002176573    1.940    0.484
         4 -12.5420    247.7594    246.9599   8.9079832747e+01  -1.1003760675e+01    0.6212947    0.3687729  -5.41  0.003955889    1.725    0.420
         5  -9.7276     56.7844    193.0002   1.1857673565e+02   2.7749091980e+01    0.1447985   0.08832713 -75.82 0.0008201454    1.511    0.338
         6 -10.7533     56.0537    211.5762   1.2041577089e+02   2.4010659429e+01       0.3211    0.1879041  74.87  0.001336718    1.579    0.367
         7  -9.4466     52.6170    208.3026   1.2080313178e+02   2.5097504742e+01    0.1755054    0.1034831  61.79 0.0005124953    1.437    0.304
         8 -10.6213     37.2614    211.3566   1.2396048467e+02   2.6306966686e+01    0.2734494    0.1281128  87.03  0.001188377    2.090    0.521
         9 -11.2239     32.7424    205.9097   1.2442286903e+02   2.7902503237e+01    0.2185364    0.1498421  87.58  0.001487036    1.188    0.158
        10 -19.2749     10.4134    102.8203   1.1973683828e+02   5.3027830468e+01      17.3254     1.269629 -71.27   0.03274766   12.922    0.923
        11 -12.1288     67.2437    206.3737   1.1774819720e+02   2.3599215191e+01    0.2865008     0.258132 -17.31 0.0003076873    1.771    0.435
        12  -9.1589     72.8152    203.4997   1.1633764455e+02   2.3425187044e+01    0.3612614    0.2196446  72.12  0.001936548    1.617    0.382
        13  99.0000     43.0474    209.2989   1.2272031318e+02   2.6050830458e+01    0.4589124    0.1625474  67.00  0.001820434    3.740    0.733
        14 -10.8736     43.7746    205.2793   1.2226835402e+02   2.6777839207e+01    0.1810199    0.1406781 -80.77 0.0002387759    1.258    0.205
        15  -9.5112     93.9986    205.7783   1.1225374194e+02   1.9876910488e+01    0.2151001      0.17677 -43.39 0.0009560697    1.633    0.388
        16 -11.2643     97.4512    200.7447   1.1092674393e+02   2.0359302454e+01    0.3878842    0.3442022  28.35  0.001759754    1.396    0.284
        17 -11.7584    193.4629    195.6574   9.0197390569e+01   4.4104576149e+00    0.9753986    0.5403282 -64.08  0.003360965    4.853    0.794
        18 -12.6065    203.8519    197.5099   8.8519658408e+01   2.2461541921e+00    0.6795183    0.3727829  21.74  0.003021137    2.300    0.565
        19  -9.5842     87.8289    202.4584   1.1313963088e+02   2.1478008137e+01     0.176283    0.1700905  53.22 0.0006395915    1.301    0.231
        20 -10.3880     44.3153    199.0132   1.2165327096e+02   2.8003759146e+01    0.2174569    0.1703902 -43.27  0.001402196    1.935    0.483
        21  -9.5164    161.0354    199.4867   9.7405423691e+01   9.6796405082e+00    0.1982783    0.1207287  42.76 0.0009859079    1.459    0.315
        22 -10.4292     36.2266    197.9010   1.2316071590e+02   2.9159326795e+01    0.1586987    0.1150492  71.44 0.0003687064    1.089    0.082
        23 -11.8867    151.3573    195.4162   9.8743571079e+01   1.2188571998e+01    0.4103507      0.24782  52.14  0.001706395    1.634    0.388
        24 -10.0259     82.2031    195.0118   1.1345077110e+02   2.3851144640e+01    0.2217044    0.1710676  51.70 0.0009146172    1.193    0.162
        25 -11.6491     96.8540    190.3937   1.0971960744e+02   2.2598126760e+01    0.6383858     0.458997   3.31  0.001007122    2.680    0.627
        26 -13.0750     67.9192    186.0129   1.1547712459e+02   2.7794657104e+01    0.7107594    0.6004359 -63.61  0.004263164    1.334    0.250
        27 -10.8188     69.4502    176.6307   1.1403253518e+02   2.9658169052e+01    0.4965561    0.2801369  69.44  0.002416795    1.960    0.490
        28 -11.5752    152.3567    185.7361   9.6882347731e+01   1.3844673021e+01    0.4933677    0.3123664 -27.93  0.002240346    2.235    0.553
        29 -11.5977     99.2804    180.7894   1.0784532580e+02   2.4269886006e+01    0.2740247    0.2603541  47.01 0.0006236734    1.206    0.171
        30 -11.6508     60.5369    232.8179   1.2129217678e+02   1.9377161604e+01    0.1972299    0.1289694  63.28 0.0005828798    1.193    0.161
        31 -10.6345    188.6192    175.6521   8.7353925105e+01   8.7490188236e+00    0.4813296    0.2468679 -50.94  0.002001733    2.412    0.585
        32 -10.5710    204.4091    175.6594   8.4201972321e+01   5.7046119021e+00    0.3206511     0.289182 -45.10   0.00107996    1.280    0.219
        33 -10.4668    196.6352    175.3006   8.5665503326e+01   7.2568455195e+00     0.306322    0.2803311  63.35  0.001776356    1.304    0.233
        34  -9.3956     38.4026    192.4905   1.2229502120e+02   3.0051532393e+01    0.1182405   0.09325711  83.42  0.000254289    1.057    0.054
        35 -10.4030     43.5869    172.0441   1.1931830672e+02   3.3933386829e+01    0.4646869     0.163621  38.60  0.002099935    2.697    0.629
        36 -11.0370    230.5366    167.2297   7.7553888146e+01   2.1939192088e+00    0.4525337    0.2050702 -50.20  0.001652061    3.533    0.717
        37  -9.7101    186.6732    164.9418   8.5567414186e+01   1.1088112706e+01    0.2042669    0.1819483 -31.14 0.0005365158    1.150    0.130
        38  -9.7075    149.4495    155.9219   9.1834779602e+01   2.0472212718e+01    0.2108714    0.1317819 -73.20  0.000807723    2.557    0.609
        39 -12.6590     95.5859    152.4552   1.0420759790e+02   3.1284414308e+01    0.6835119     0.523239 -31.83  0.003487183    1.722    0.419
        40 -11.6559    133.9603    145.9794   9.3416131950e+01   2.5753981881e+01      1.27228    0.3386284 -55.50  0.003089451    5.634    0.822
        41 -17.7598     37.5910    245.6875   1.2607532637e+02   1.9870514833e+01     8.217093     2.368887  32.41   0.02762309    5.984    0.833
        42 -10.2173    112.9777    150.7407   9.9550178596e+01   2.8674326900e+01    0.2680707    0.1874954 -78.02  0.001016954    1.676    0.403
        43 -10.5859    174.2902    148.7135   8.4691420836e+01   1.6786543708e+01    0.3513411    0.2803767 -73.00  0.001268075    1.604    0.376
        44 -11.1152    143.8845    146.2226   9.1079844575e+01   2.3691954664e+01    0.4985327      0.22143 -57.12  0.001712117    2.831    0.647
        45 -11.9469    107.0087    139.0635   9.8754149513e+01   3.2462888317e+01    0.7067215    0.3794361 -41.02  0.002862011    2.196    0.545
        46  -9.9229    111.5088    141.4406   9.8079133956e+01   3.1092916302e+01    0.2043818    0.1907788  73.94 0.0005659498    1.043    0.042
        47 -12.5994     95.4236    138.3894   1.0164980770e+02   3.4628714610e+01    0.3296745    0.2848851  48.71  0.000279079    1.193    0.162
        48 -11.4617    105.4947    131.1713   9.7499896972e+01   3.4590890052e+01    0.5096403    0.3868435 -32.72  0.002482424    1.570    0.363
        49 -11.1615    135.7247    127.7365   8.8866291961e+01   2.9476635318e+01    0.6776382     0.186295 -49.56  0.001900979    3.777    0.735
        50 -11.1190    114.5988    129.3996   9.4696791754e+01   3.3322053040e+01    0.3536471    0.3014394 -25.21 0.0006992639    1.377    0.274
        51 -10.2184    160.9688    127.9857   8.2832552401e+01   2.3953609844e+01    0.3832998    0.2309052 -51.97  0.001577588    1.779    0.438
        52 -11.2854    102.1994    125.3270   9.7112982048e+01   3.6560349321e+01    0.2999727    0.2569686 -24.56 0.0009303003    1.382    0.276
        53 -11.2192    120.3249    122.9483   9.1691660853e+01   3.3704440199e+01    0.5385689    0.3390333 -17.74  0.001924343    3.048    0.672
        54 -10.2770    109.9641    118.7125   9.3467304373e+01   3.6690367943e+01     0.245495    0.2063707 -54.71 0.0004589141    1.142    0.124
        55 -10.3841    167.6234    112.5880   7.7397927886e+01   2.5636542108e+01    0.3823332    0.2893625 -79.41  0.001391957    1.793    0.442
        56  -9.7174    134.6746    112.0217   8.5204914741e+01   3.3199373629e+01    0.3701812    0.1428355 -45.31  0.001230922    2.545    0.607
        57 -11.6225    118.2414    110.5164   8.9169614232e+01   3.6965323750e+01     0.602239    0.4221573  62.73  0.002685193    1.718    0.418
        58 -10.2229    205.5211    110.1391   6.8960389495e+01   1.7278628586e+01    0.3057274    0.2193356  41.16 0.0008643385    1.478    0.323
        59  -9.7967    134.5425    105.7682   8.3574661553e+01   3.4599964701e+01    0.3914267    0.1506837 -47.14  0.001290076    2.591    0.614
        60  99.0000     43.2904    221.0259   1.2353553891e+02   2.3719076582e+01    0.1797318    0.1626208 -54.33   0.00135388    1.672    0.402
        61 -10.5526     61.9852    220.2131   1.2001696575e+02   2.1556534431e+01    0.2179602    0.1331222  70.23  0.001327997    1.441    0.306
        62 -12.0669    160.4436     61.8375   6.4293058960e+01   3.7002658322e+01     1.000688    0.5829308  85.62  0.003391841    3.210    0.689
        63 -16.7958     70.1305    145.4861   1.0951485227e+02   3.6793549738e+01     9.883822     4.927111  71.29   0.03583397    3.472    0.712
        64 -13.4379    177.2987     50.6197   5.7557073384e+01   3.4468650668e+01     0.912297    0.8156412   9.32 0.0008789907    1.273    0.214
        65 -11.1627    158.5257    235.7202   1.0332325214e+02   4.1137101113e+00    0.2597716    0.2039261  14.35  0.001347486    1.485    0.326
        66  -8.7387     50.2779    216.4685   1.2190990826e+02   2.3762807684e+01    0.3144249    0.2352741  -5.33  0.001769451    3.106    0.678
