#   1 NUMBER                 Running object number                                     
#   2 MAG_AUTO               Kron-like elliptical aperture magnitude                    [mag]
#   3 X_IMAGE                Object position along x                                    [pixel]
#   4 Y_IMAGE                Object position along y                                    [pixel]
#   5 X_WORLD                Barycenter position along world x axis                     [deg]
#   6 Y_WORLD                Barycenter position along world y axis                     [deg]
#   7 A_WORLD                Profile RMS along major axis (world units)                 [deg]
#   8 B_WORLD                Profile RMS along minor axis (world units)                 [deg]
#   9 THETA_WORLD            Position angle (CCW/world-x)                               [deg]
#  10 FWHM_WORLD             FWHM assuming a gaussian core                              [deg]
#  11 ELONGATION             A_IMAGE/B_IMAGE                                           
#  12 ELLIPTICITY            1 - B_IMAGE/A_IMAGE                                       
         1 -14.2657    196.9532     38.0982   4.8909658134e+01   3.1140170134e+01     1.653462      1.25333 -11.87  0.004554244    1.426    0.299
         2 -14.7645    207.1768     27.1150   4.4614626606e+01   3.0016359666e+01     2.007708     1.385487  16.24  0.002238343    1.971    0.493
         3  -9.4593    153.5165      9.5467   4.4692665222e+01   4.5420414753e+01    0.1434824    0.1321992 -62.14 8.957003e-05    1.043    0.041
         4 -10.7740     62.3191      8.0619   6.4198428980e+01   6.8168418521e+01     0.196068    0.1688605 -17.90 0.0008781991    1.093    0.085
         5 -12.7653    232.7857      3.1220   3.6213707085e+01   2.6677259835e+01     0.655555    0.4125905  59.19  0.002951917    1.873    0.466
         6 -12.2209    228.1991      2.4017   3.6277745375e+01   2.7746460755e+01    0.4347074    0.2379688  78.42  0.001460262    1.962    0.490
         7 -12.7106     57.9807      3.0889   6.2712508670e+01   6.9676279236e+01    0.7397374    0.3187153  42.09  0.003170325    2.359    0.576
         8 -11.2493     28.3570      2.2186   7.7251505133e+01   7.5122753876e+01    0.2386857    0.1725531  46.29  0.001400278    1.694    0.410
         9 -12.6223    194.0319    196.3564   8.6799739918e+01   7.8678192023e+00     1.080543    0.5973722 -53.50  0.005134817    3.250    0.692
        10 -11.6330    139.6310    248.5450   1.0332872237e+02   8.4989791604e+00    0.3525739     0.241466 -72.26  0.002435494    2.405    0.584
        11 -16.2512     85.9600    227.7481   1.1122158119e+02   1.8329868701e+01     4.002642      2.04966  35.62   0.02394089    1.617    0.382
        12 -17.0699     52.4791    197.9471   1.1561917515e+02   2.7691389100e+01     14.15316     7.488353  80.36   0.07763705    2.058    0.514
        13 -11.5595    140.9352    174.2962   9.3425078885e+01   1.9662934383e+01    0.5988088    0.3715514  66.60  0.002479171    2.637    0.621
        14 -14.8124     19.4655    192.4737   1.2233919540e+02   3.2211526501e+01     1.350672    0.9447277  83.72  0.005777167    1.246    0.197
        15 -10.1773    152.4391    197.7224   9.4727003459e+01   1.3923429625e+01    0.2532636    0.1515157 -52.27  0.001411124    2.052    0.513
        16 -14.0181     43.1628    127.2835   1.1094680921e+02   4.4488219667e+01     1.633895    0.6502452  40.36  0.007064302    2.378    0.579
        17 -13.4940     55.2136    146.5703   1.0998825387e+02   3.8426621002e+01     1.673756    0.9883854 -46.72  0.008280773    2.082    0.520
        18 -12.0072     43.8227    146.2378   1.1302186602e+02   3.9843349257e+01    0.5551583     0.380695   2.13   0.00193999    2.327    0.570
        19 -12.7225     53.4970    109.4091   1.0496263813e+02   4.7711544555e+01    0.9377353    0.3583601 -69.62   0.00348606    2.644    0.622
        20 -13.7130     43.9919    111.3513   1.0838710191e+02   4.8367272113e+01     1.946753    0.9062148  64.27  0.007449499    3.004    0.667
        21 -13.2396     83.6768    161.7592   1.0464583707e+02   3.1161944095e+01     1.450285    0.5113147  54.70 0.0006364694    4.148    0.759
        22 -13.8650     72.1989    156.7348   1.0684108512e+02   3.3882824240e+01    0.5579918    0.5562358 -42.76  0.001481065    1.227    0.185
        23 -14.9594     68.5034    144.3129   1.0610678124e+02   3.7228816258e+01     5.090377     1.886009  57.74  0.004316381    4.393    0.772
        24 -10.9074    230.2943    166.8283   7.5524199387e+01   6.3022754828e+00    0.2626789    0.1315418 -39.87  0.001355252    2.205    0.547
        25 -10.7254    111.9349    197.0433   1.0284218478e+02   2.0076564900e+01    0.2808138    0.1925464  16.10  0.001575664    1.870    0.465
        26 -10.5700    159.4888    162.7027   8.7515606037e+01   1.8574782065e+01    0.2634739    0.2285295 -63.45 0.0008873036    1.407    0.289
        27 -12.2675     90.4475    154.5962   1.0192611418e+02   3.1721998182e+01    0.5832513    0.4359953 -21.10  0.001792735    1.997    0.499
        28 -11.4116    133.6437    144.2044   8.9587754827e+01   2.6653791118e+01      1.04693    0.2810381 -53.97  0.002869151    5.298    0.811
        29  -9.0729    159.5314    196.5201   9.3175424054e+01   1.3031830696e+01    0.1213548    0.1043599  26.87 7.701316e-05    1.017    0.017
        30 -10.8453    174.3065    148.6877   8.1780503109e+01   1.8354797295e+01    0.3013883    0.2523313 -70.12  0.001242658    1.622    0.383
        31 -17.4814      6.5771    246.1889   1.2665864713e+02   2.3759544214e+01     2.849518     1.412943  32.10   0.01992556    1.850    0.460
        32 -10.4331     85.0114    144.4203   1.0172416541e+02   3.4822828015e+01    0.2526897    0.2095397  72.27 0.0005494324    1.177    0.150
        33 -11.0191    103.7334    139.7873   9.6042698928e+01   3.2862905838e+01    0.5213915     0.344147 -24.49  0.002287219    2.422    0.587
        34 -12.3494     91.2520    139.8218   9.9304274202e+01   3.4901551476e+01    0.2702437    0.2550049 -68.08 0.0004274479    1.101    0.092
        35 -10.2456     40.0355    142.0414   1.1360131887e+02   4.1254012477e+01     0.193076    0.1650381  76.47 0.0004029829    1.030    0.029
        36  -9.5613     79.9035    140.1270   1.0239095328e+02   3.6577578369e+01    0.2026368    0.1667655  70.68 0.0002943253    1.178    0.151
        37  -9.5843     97.3173    190.8918   1.0521263003e+02   2.3295547102e+01    0.1588719    0.1519051  84.44 0.0005291767    1.151    0.131
        38  -9.4414     94.4967    187.0526   1.0537152460e+02   2.4426965929e+01    0.1655935    0.1216758 -69.35 0.0004330192    1.489    0.328
        39 -11.5432    135.6779    127.5504   8.5579086756e+01   2.9660324389e+01     0.722971    0.1881984 -49.98  0.002054896    4.313    0.768
        40 -12.9858    204.0115    199.9926   8.5664748203e+01   5.9512437167e+00    0.6669614    0.4054003   5.36  0.003843975    1.882    0.469
        41 -10.5947    105.9927    130.7791   9.3704809526e+01   3.4482109709e+01    0.3388408    0.2945879 -84.46   0.00117828    1.191    0.161
        42 -10.4784    112.4665    130.3811   9.1940201122e+01   3.3418688752e+01    0.3003222    0.2538283  -1.33 0.0007722244    1.499    0.333
        43 -10.5783    160.5672    127.8313   8.0053786588e+01   2.4698725407e+01    0.3196604    0.2433073 -55.27  0.001613222    1.475    0.322
        44 -11.0238     99.7481    126.3731   9.4472045371e+01   3.6568547647e+01    0.2972573    0.2504101  -5.18  0.001354789    1.552    0.356
        45  -9.1973     95.5221    127.5449   9.5860813411e+01   3.7020673626e+01     0.144628    0.1325943  82.21 0.0001582099    1.055    0.053
        46 -11.5054    119.1213    123.5487   8.8754565849e+01   3.3687117237e+01     0.579269    0.3846627  -8.21  0.002251966    2.918    0.657
        47 -11.1504    132.0088    172.3640   9.5024331996e+01   2.1478612334e+01    0.3584923    0.1505866  36.91  0.001527281    2.250    0.556
        48  -9.9727    108.4245    119.1094   9.0559809979e+01   3.6670618611e+01    0.2139181    0.1965263  32.94 0.0003370921    1.164    0.141
        49 -11.6728     19.5349    110.8367   1.1631879576e+02   5.0886583005e+01     0.329317    0.2049522  47.03 0.0006702442    1.619    0.382
        50  -9.8771    168.1735    113.0781   7.4923733113e+01   2.5873998855e+01    0.3217515    0.2159222 -67.75   0.00122503    2.300    0.565
        51 -12.0203    117.6963    108.7119   8.5600276106e+01   3.7214363566e+01    0.7629875    0.5154559 -73.34  0.003292389    1.994    0.499
        52 -10.2159    205.4937    110.1758   6.7358430568e+01   1.8707817778e+01    0.2840368    0.1939303  37.78 0.0009256529    1.580    0.367
        53 -10.8604    146.5089    182.4879   9.3589286664e+01   1.7330426585e+01    0.2563441    0.2084127  11.92 0.0007085113    1.307    0.235
        54 -10.4183    134.5184    104.6698   8.0272233784e+01   3.4630372590e+01    0.4975753    0.1454298 -43.74  0.001506717    3.325    0.699
        55 -11.4686     35.0347    100.8912   1.0972889878e+02   5.1984772928e+01    0.2944614    0.2372548  63.18  0.000871201    1.254    0.203
        56 -10.9440     52.7784     90.9929   1.0152850138e+02   5.2436890039e+01    0.3165625    0.1943645 -52.95  0.001523036    1.506    0.336
        57 -11.4711     55.8595     95.5097   1.0142622794e+02   5.0896100436e+01    0.4876928    0.3296812  47.41   0.00162809    1.574    0.365
        58  -8.9215    108.5926     93.5295   8.4069425310e+01   4.2398964896e+01    0.1523841    0.1418173 -65.59 9.261192e-05    1.049    0.046
        59 -12.0591     41.6353     90.4769   1.0548343088e+02   5.3924012751e+01    0.5003807     0.315899 -70.33  0.001318034    1.413    0.293
        60  -9.0267    160.3224     87.6698   6.9721395387e+01   3.2244527540e+01    0.1566802    0.1171444 -69.14 0.0007049462    1.697    0.411
        61  -9.3295    157.4821     81.4423   6.8488470337e+01   3.4028444698e+01     0.151413    0.1445697 -30.65 0.0001446513    1.019    0.019
        62  -9.3296    184.5157     77.0174   6.2134386797e+01   2.8494941292e+01    0.2282836    0.1370913 -31.72 0.0005581225    1.542    0.351
        63 -10.0319     60.1998     68.1441   9.2677157962e+01   5.6998828783e+01    0.1975988    0.1668645  89.45  0.000480072    1.335    0.251
        64 -13.8277    187.1144     45.7159   5.2450283380e+01   3.2532058719e+01     1.268882    0.8955929  24.92 0.0009632889    1.839    0.456
        65 -11.1146    124.8010    243.3729   1.0543349720e+02   1.1068935743e+01    0.2258758    0.1471428 -69.95  0.001528177    2.246    0.555
        66 -15.1582     47.7119    222.7141   1.1824440703e+02   2.3652454827e+01     1.756186     1.006193  82.82  0.007621992    1.788    0.441
        67  -9.0316     74.6984     55.3228   8.2641970571e+01   5.7444509284e+01    0.1461336    0.1155221 -81.21 0.0002041336    1.632    0.387
        68 -11.5173    148.8938     52.6973   6.1018570194e+01   4.1037429199e+01    0.5409068    0.3363643 -73.19  0.001771595    2.414    0.586
        69 -10.9285    150.3748     46.0027   5.8408511538e+01   4.1701441496e+01    0.3283193    0.2513134 -49.74 0.0005242815    1.299    0.230
        70 -11.9179     26.7249     35.3675   9.6774999387e+01   6.8928609500e+01    0.5088997    0.2119174  42.49   0.00160478    3.074    0.675
        71  -9.8254    189.6581     14.9884   4.2657864029e+01   3.5583538833e+01    0.2026892    0.1653491 -33.29 0.0006173589    1.144    0.126
        72 -16.8035      2.4997    224.1008   1.2682382386e+02   2.7799788852e+01     6.449618     0.196011 -74.27   0.01995783    9.279    0.892
        73 -10.7303     99.1181    180.8893   1.0357138562e+02   2.4960896321e+01     0.287398    0.2428827  -9.58  0.001764601    1.582    0.368
        74 -15.2662     58.6458    243.2899   1.1740384753e+02   1.9046306869e+01    0.9296608    0.5848477  45.83  0.003564017    1.164    0.141
        75 -10.1779    204.6190    176.7843   8.1600904992e+01   8.9182480437e+00    0.2280475    0.1835019 -32.07  0.001206383    1.348    0.258
        76 -10.5537    113.3512    207.5503   1.0381020606e+02   1.8057369050e+01    0.2294403    0.1714151  64.56 0.0005566091    1.450    0.310
