#   1 NUMBER                 Running object number                                     
#   2 MAG_AUTO               Kron-like elliptical aperture magnitude                    [mag]
#   3 X_IMAGE                Object position along x                                    [pixel]
#   4 Y_IMAGE                Object position along y                                    [pixel]
#   5 X_WORLD                Barycenter position along world x axis                     [deg]
#   6 Y_WORLD                Barycenter position along world y axis                     [deg]
#   7 A_WORLD                Profile RMS along major axis (world units)                 [deg]
#   8 B_WORLD                Profile RMS along minor axis (world units)                 [deg]
#   9 THETA_WORLD            Position angle (CCW/world-x)                               [deg]
#  10 FWHM_WORLD             FWHM assuming a gaussian core                              [deg]
#  11 ELONGATION             A_IMAGE/B_IMAGE                                           
#  12 ELLIPTICITY            1 - B_IMAGE/A_IMAGE                                       
         1 -10.6538    247.1670     16.9858   5.5237622259e+01   2.1011299486e+01    0.3417931    0.2184666 -10.95  0.001777616    1.700    0.412
         2 -10.0171    237.5446     14.7528   5.5526897545e+01   2.3449500461e+01    0.3827264    0.1295484 -20.57  0.001416557    3.020    0.669
         3 -10.3277    242.2306     12.2044   5.4453663676e+01   2.2605816796e+01    0.3740771    0.1011094 -32.77  0.001398684    2.891    0.654
         4 -10.6583    244.3175      4.4425   5.2320694309e+01   2.2851445113e+01    0.5559036    0.2520409 -46.29  0.002558112    2.091    0.522
         5  -9.2557    235.2867      3.2904   5.2743059661e+01   2.5057108194e+01    0.3841683    0.0977436 -43.19  0.001312906    3.589    0.721
         6  -9.3526    150.0439    245.4726   1.2059526313e+02   8.5651480280e+00    0.1804514    0.1431538  -7.63  0.001361498    1.699    0.412
         7 -11.4130    211.8307    240.9112   1.0938472773e+02   2.2574119195e-01     3.832816     1.493295  18.18  0.009322464   12.175    0.918
         8  -9.0672    249.8777    199.4577   9.6542278155e+01  -1.1714853239e+00    0.3357481    0.1833744 -22.26   0.00178926    1.840    0.457
         9 -10.6601    248.9113    214.3603   9.9212783146e+01  -2.4976045704e+00    0.7483223    0.5009971   4.37  0.005169476    1.241    0.194
        10 -11.4919    216.5213    246.8738   1.0940068625e+02  -1.0061263453e+00     1.538117    0.6859652  15.85  0.007290785    3.360    0.702
        11 -10.2373    228.4949    243.4923   1.0696959238e+02  -2.3470165096e+00     1.022481    0.3741179  20.56  0.003809396    5.063    0.803
        12 -12.0054    239.8217    232.0761   1.0347040045e+02  -2.8722901143e+00     1.157615    0.6920857  -3.09  0.007745432    1.665    0.399
        13  -9.5758    248.3639    224.3086   1.0089127515e+02  -3.3486307620e+00    0.3749116    0.1947895  13.49  0.001543935    1.803    0.445
        14 -11.4038    236.5059    242.6811   1.0555134911e+02  -3.3671555635e+00     1.661924    0.5985706  20.15  0.006227079    5.044    0.802
        15 -11.4687    246.2659    246.6876   1.0455512071e+02  -5.0080109423e+00     1.000633    0.5165328  28.60  0.006775283    1.335    0.251
        16 -10.2652    249.6838    231.9122   1.0184830637e+02  -4.2085163170e+00    0.5330367     0.243249 -22.92  0.002917774    2.374    0.579
        17  -8.9180    193.0162    248.5336   1.1354962320e+02   2.1256721847e+00    0.2704784    0.1500686  18.30  0.001143318    1.903    0.474
        18  -8.4137    184.7377    249.4492   1.1506410585e+02   3.2001241931e+00    0.2514908    0.1440458  19.07  0.001580032    1.831    0.454
        19  -7.7207    181.0106    249.4669   1.1570015720e+02   3.7251185664e+00    0.1703209   0.07568968  32.48 0.0009730004    1.731    0.422
        20  -8.9372    195.6060    243.3237   1.1245580807e+02   2.2965744037e+00    0.3796611    0.1492766  32.23  0.002016439    2.007    0.502
        21  -9.0483    190.2632    244.6529   1.1353698792e+02   2.9216761370e+00    0.4922392    0.1415116  32.24  0.002031015    3.406    0.706
        22  -8.1177    177.0146    250.5217   1.1650342282e+02   4.1757673267e+00    0.1739918   0.07788889  38.44  0.001027358    1.579    0.366
        23  -8.6033    170.5612    250.6514   1.1761860288e+02   5.0707767071e+00    0.2799728   0.07158734  41.90  0.001246114    2.866    0.651
        24  -8.7428    153.2192    250.4429   1.2056703468e+02   7.5251968136e+00    0.2143945   0.07875145  35.91  0.001064242    2.070    0.517
        25  -7.9663    139.5506    250.4969   1.2292060043e+02   9.4074048523e+00    0.1082176   0.07784094  38.26 0.0001311888    1.040    0.038
        26  -8.4008    119.8347    246.3997   1.2593993131e+02   1.2595519913e+01    0.1582296   0.08003101  31.92 0.0009494372    1.815    0.449
        27  -9.3037    177.2809    243.6483   1.1565002510e+02   4.8944297290e+00    0.2750907    0.1805169   5.38  0.001800318    1.938    0.484
        28  -8.4713    157.3953    245.2700   1.1929259491e+02   7.5508629745e+00    0.2123938    0.1009839  32.42 0.0009874924    1.724    0.420
        29  -8.9901    114.0358    248.4821   1.2711926975e+02   1.3086036214e+01    0.1685298   0.07817092  38.43 0.0006463666    1.605    0.377
        30  -8.4198      1.6631    244.6740   1.4509793238e+02   2.5741199688e+01   0.06996569   0.06579527 -73.85 0.0007051541    1.722    0.419
        31  -9.1077    168.9787    241.8008   1.1687668367e+02   6.3018861863e+00    0.2449589    0.1207334  27.35  0.001376506    1.950    0.487
        32  -7.8544    113.6610    242.6597   1.2668368968e+02   1.3916479545e+01    0.1000214   0.07550748  15.24 -0.0002834291    1.766    0.434
        33  -8.0429     29.4959    242.5393   1.4078133352e+02   2.3585636691e+01   0.09437492   0.06546354  58.36 0.0008092761    1.020    0.020
        34  -8.6246    201.6347    240.2122   1.1102154297e+02   1.7542331677e+00    0.2244853    0.1291111  26.51 0.0007871608    1.353    0.261
        35  -7.7233    126.3157    241.3371   1.2434154083e+02   1.2391339292e+01    0.1019749   0.07543131  16.14  0.000704775    1.697    0.411
        36  -7.7106    206.5094    240.4681   1.1022522615e+02   1.0285880538e+00     0.192665    0.1096051   7.58  0.001138389    2.145    0.534
        37  -8.5925    209.7791    236.1127   1.0907716428e+02   1.0008009811e+00    0.2304526    0.1337145  15.77   0.00113987    1.683    0.406
        38  -8.4552    187.4128    239.8364   1.1342254347e+02   3.8518907521e+00    0.2293081    0.1090995  27.80 0.0008810404    1.869    0.465
        39  -8.1076    133.6635    240.6886   1.2298057038e+02   1.1463622713e+01    0.1053596   0.07418612  18.71 0.0003782426    1.685    0.407
        40  -9.4764      3.3382    238.1427   1.4468726174e+02   2.6567119003e+01    0.2009374   0.05725322  67.33  0.001156919    2.925    0.658
        41  -8.2686    136.4732    246.4958   1.2306211349e+02   1.0327931232e+01    0.1093146   0.07953554  37.71 0.0008092482    1.064    0.060
        42  -8.2819    147.1735    236.8082   1.2016964674e+02   1.0057723958e+01    0.1500599    0.1127668  23.60 0.0008435321    1.318    0.241
        43  -8.1823    199.3112    235.9339   1.1085105524e+02   2.5402354351e+00     0.155656     0.117986  17.34  0.001098673    1.155    0.134
        44  -8.1024    183.8390    235.8763   1.1354205137e+02   4.8165401596e+00    0.1783426    0.1216069  19.63   0.00121478    1.342    0.255
        45  -8.4261      7.4934    236.4708   1.4400784054e+02   2.6471110051e+01   0.09356466   0.06069639  60.95 5.524513e-05    1.037    0.035
        46  -8.5486    204.1475    234.8190   1.0986500980e+02   1.9522652755e+00    0.2231131    0.1157799  24.87  0.001309869    1.674    0.403
        47  -7.7979    190.3309    235.3234   1.1233201069e+02   3.9232739288e+00    0.1169939   0.07027223  17.48 0.0005160078    1.701    0.412
        48  -8.2997    178.7149    235.1545   1.1435375058e+02   5.6544637569e+00     0.219594    0.1154749  22.29  0.001210904    2.070    0.517
        49  -8.5662    170.8547    233.8742   1.1559047876e+02   6.9669132832e+00    0.1785197    0.1241771  23.22 0.0007636739    1.296    0.228
        50  -7.6196    131.3144    234.3285   1.2275652871e+02   1.2641289254e+01    0.1052151   0.07733672  15.86 0.0007044259    1.673    0.402
        51  -8.0859    140.6440    233.6755   1.2100252737e+02   1.1404186421e+01    0.1111355   0.07645465  16.66  0.000704571    1.769    0.435
        52  -8.5369     12.0000    232.9690   1.4320316059e+02   2.6618888440e+01    0.1330764   0.04402851 -82.55 0.0008014406    2.936    0.659
        53  -8.5562    194.7352    237.3997   1.1183797811e+02   3.0509191442e+00    0.2077544    0.1453768  12.32  0.001203402    1.384    0.278
        54  -9.1597    219.7187    230.8280   1.0663787312e+02   9.7614934534e-02    0.3166243    0.1429017  26.14  0.001722758    1.930    0.482
        55  -8.7793    213.6815    231.6301   1.0778214273e+02   8.9296185204e-01     0.203211    0.1246947  -0.02 0.0007967168    1.835    0.455
        56  -7.5948    166.3218    232.3324   1.1621273129e+02   7.8257032447e+00    0.1143621   0.07485508  16.45  0.000566225    1.701    0.412
        57  -7.6722    153.6594    232.7157   1.1854161010e+02   9.6432955987e+00    0.1121509   0.07415184  20.20 0.0007015354    1.634    0.388
        58  -8.3191    202.5744    230.0621   1.0947995933e+02   2.6910924032e+00    0.1944825    0.1258991  -8.35  0.001114769    1.823    0.452
        59  -7.7501    115.2621    231.0010   1.2533466057e+02   1.5332112937e+01      0.18061    0.1100288  10.89 0.0008952243    3.470    0.712
        60  -8.1861    208.4827    230.0105   1.0844643663e+02   1.8232385761e+00    0.1483174    0.1040078 -15.38  0.001026376    1.614    0.380
        61  -8.7836    211.6547    225.6313   1.0726627913e+02   1.8180305543e+00    0.2814964    0.1585703   2.00  0.001279726    2.292    0.564
        62  -8.7263    195.6165    229.0434   1.1055885430e+02   3.8394530473e+00    0.2856507    0.1682095   2.22  0.001612895    2.322    0.569
        63  -8.4407    189.2321    229.8958   1.1180414343e+02   4.6980591260e+00    0.2242798     0.116215  21.77  0.001211534    2.066    0.516
        64  -9.5510      4.5115    229.0326   1.4426439336e+02   2.7857800832e+01    0.1856881   0.07802861  49.47 0.0009147674    1.620    0.383
        65  -7.3461    177.3562    228.3108   1.1371683257e+02   6.6680252874e+00    0.1197274   0.07387631  17.97 0.0004938988    1.733    0.423
        66  -8.5330    152.2958    227.8196   1.1821567778e+02   1.0482269711e+01    0.2242883    0.1267365  22.06  0.001237546    2.101    0.524
        67  -7.9425    138.6466    227.7032   1.2071176876e+02   1.2500971293e+01    0.1118191    0.0777063  18.22 0.0007034386    1.691    0.409
        68  -8.1480    223.2384    225.7288   1.0528895662e+02   9.9413268370e-02    0.1588588    0.1007339  14.38 0.0007059716    1.360    0.265
        69  -7.8829    185.3700    225.7776   1.1193620337e+02   5.7599247159e+00    0.1419783    0.1015163 -13.04 0.0009429718    1.685    0.406
        70  -7.8180    190.6014    225.1302   1.1090861583e+02   5.0422027811e+00    0.1442927    0.1005519 -10.13 0.0006934398    1.703    0.413
        71  -8.1077    219.3644    223.3229   1.0559146265e+02   9.1633242726e-01    0.2663664    0.1228845  22.23   0.00127268    2.220    0.550
        72  -8.2945    200.8253    223.2354   1.0881865696e+02   3.7078891968e+00    0.2077066    0.1265407   3.42  0.001209941    2.001    0.500
        73  -7.9197    206.9299    222.0526   1.0756752415e+02   2.9151587878e+00    0.1886017    0.1103923  17.29  0.001077368    1.661    0.398
        74  -8.4372    174.3757    222.2369   1.1345502577e+02   7.8700064479e+00     0.226566    0.1155439  30.80 0.0008864012    1.661    0.398
        75  -8.7075    225.6625    219.0267   1.0385426862e+02   4.2795036245e-01    0.3301458    0.1608692   2.51  0.001491695    3.379    0.704
        76  -7.8061    185.5909    219.1958   1.1098327566e+02   6.5190284282e+00    0.1441418    0.1049132 -11.28 0.0008326555    1.614    0.380
        77  -8.0887    149.0136    219.4758   1.1781718322e+02   1.2104998550e+01     0.169184   0.08715671  23.03 0.0008099473    2.555    0.609
        78  -8.3072    204.3334    216.6533   1.0722443016e+02   3.9197849791e+00    0.2435468    0.1372657  13.20  0.001319847    2.052    0.513
        79  -7.9179    211.3053    216.3198   1.0593496992e+02   2.8853848724e+00    0.1221398   0.07316305  15.07 0.0007029881    1.633    0.388
        80  -9.1816    239.0249    204.6531   9.9248320447e+01  -8.0480839180e-02    0.2457629    0.1422381  -6.56  0.001440572    1.783    0.439
        81  -8.8385    247.9882    205.5340   9.7897333200e+01  -1.5034742826e+00    0.2651364     0.158033  11.00  0.001298308    1.460    0.315
        82  -8.2332    240.2910    210.3313   9.9981157098e+01  -8.5123105485e-01    0.1220981   0.06943741  12.58 0.0002939718    1.628    0.386
        83 -10.3025    235.4889    213.4991   1.0130659200e+02  -4.6221570761e-01    0.4043219    0.1909441  12.90  0.001922464    2.746    0.636
        84  -8.1230    216.4809    219.5347   1.0551791074e+02   1.7475249363e+00    0.1786944   0.09946156 -13.76  0.001017894    2.177    0.541
        85  -8.0834      4.4939    211.9775   1.4376639779e+02   3.0590879396e+01    0.1481406    0.0474694  70.08 0.0008095179    2.778    0.640
        86  -7.7810    213.3218    210.3098   1.0464169411e+02   3.2503376637e+00    0.1253596   0.07438745  15.63 0.0007036352    1.648    0.393
        87  -8.0344    179.0163    207.4793   1.1051047319e+02   9.0491151846e+00    0.1867618   0.08672786  24.36 0.0008101357    2.686    0.628
        88  -8.8901    243.8480    197.9473   9.7284479832e+01  -1.0952402814e-01    0.2692075    0.1629086  -7.18  0.001297234    1.600    0.375
        89  -8.4197    238.2095    198.8643   9.8398577772e+01   6.5486306827e-01    0.2360552    0.1181948  19.47   0.00121554    1.979    0.495
        90  -8.4851    230.4136    198.0467   9.9600989099e+01   1.9551262459e+00    0.2522481    0.1287071  26.00  0.001302714    1.694    0.410
        91  -8.4945    237.3587    193.1662   9.7547328405e+01   1.4058676290e+00    0.2926631    0.1540771  -4.29  0.001475178    2.287    0.563
        92  -8.1151    231.5123    191.5645   9.8276068166e+01   2.5105440631e+00    0.2086055    0.1039644 -14.59 0.0009549367    2.376    0.579
        93  -9.0521    243.9532    188.3750   9.5564331484e+01   8.9831393696e-01    0.3591957    0.2077956   5.42  0.001996876    1.738    0.425
        94  -7.6008    215.2998    190.3479   1.0095579511e+02   5.2935710739e+00    0.1323518   0.08124334  11.53 0.0007037233    1.685    0.407
        95  -8.7518    237.7635    185.7810   9.6148720287e+01   2.1665611167e+00    0.2867467    0.1444887 -10.23  0.001390077    2.386    0.581
        96  -8.7858    230.6534    185.3575   9.7310027003e+01   3.3657172905e+00    0.3012236    0.1539274  12.69  0.001385367    2.465    0.594
        97  -8.5441    249.4892    183.4512   9.3731743998e+01   5.6865744290e-01    0.2960701    0.1463604  10.84  0.001384462    2.477    0.596
        98  -9.2451    242.5837    177.1337   9.3710259884e+01   2.3735156091e+00    0.4357539    0.2256627 -11.31  0.002181027    2.136    0.532
        99  -8.1790    235.4854    179.4963   9.5379620553e+01   3.2604403067e+00    0.2112706    0.1070145 -14.82  0.001028189    2.222    0.550
       100  -7.7410    246.3277    157.3424   8.9169821792e+01   4.0743692248e+00    0.1407421   0.08297981  11.04 0.0007051171    1.741    0.426
       101  -8.6496    243.4110    139.8628   8.5966314482e+01   6.7517739453e+00    0.3222431    0.1188778 -20.30   0.00116082    3.341    0.701
       102  -9.3045    231.0211    130.7283   8.6055800478e+01   1.0283668482e+01    0.3582084    0.1653093 -18.08  0.001431512    2.546    0.607
       103  -9.1464    239.9695    125.0592   8.3232779074e+01   9.3153645993e+00    0.3678411    0.1919913 -19.84  0.001220885    1.898    0.473
       104  -9.8781    247.8001    116.2892   7.9937542737e+01   8.9551619674e+00    0.4508691    0.2136285 -28.15  0.002045623    1.929    0.482
       105  -8.7282    220.0835    114.1220   8.4094925165e+01   1.4828300628e+01    0.3369998    0.1941447  14.52  0.001381724    2.318    0.569
       106  -9.4376    240.8908    108.5776   7.9216459667e+01   1.1321825652e+01    0.4200951    0.1458454 -22.97  0.001451774    3.186    0.686
       107  -9.4049    231.3689    114.0066   8.2091361774e+01   1.2511864996e+01    0.6153924    0.2461917 -24.51  0.002348592    2.584    0.613
       108  -8.6192    229.9455    102.0303   7.9407988182e+01   1.4467626164e+01    0.3320476    0.1748369 -11.84  0.001282377    2.312    0.567
       109  -8.5835    242.2370     98.0528   7.6453835577e+01   1.2444006131e+01    0.2969665    0.1784626 -26.97  0.001453647    1.521    0.343
       110  -8.4124    248.4454     96.5565   7.5150154763e+01   1.1376066181e+01    0.2747737    0.1742774 -50.30  0.001299033    2.148    0.534
       111  -8.7012    248.6588     89.1536   7.3312163195e+01   1.2283531250e+01    0.3680136    0.1221756 -24.77  0.001307978    2.934    0.659
       112  -9.0663    238.0568     68.2109   6.9521256475e+01   1.7232890112e+01    0.2320786    0.1874089 -16.52 0.0003827891    1.142    0.124
       113  -8.3116    242.7056     63.9618   6.7791208707e+01   1.6738746799e+01     0.241647    0.1355524 -66.07 0.0008964867    3.456    0.711
       114  -9.9884    247.4681     33.0848   5.9291840077e+01   1.9275072303e+01    0.4179946    0.1899914 -49.76  0.001747768    2.479    0.597
       115  -8.2158    239.3285     34.3341   6.0475728020e+01   2.0992500299e+01    0.1426205   0.09853735  25.37 0.0004949801    1.722    0.419
       116  -8.6454    230.4982     25.4940   5.9079682515e+01   2.4027959840e+01    0.2461105    0.1316162  -6.64  0.001031394    2.356    0.576
       117  -8.0707    161.3593    249.3099   1.1904734989e+02   6.5175286459e+00    0.1101102   0.06862532  20.05 0.0007041804    1.739    0.425
       118  -8.5262    144.1492    249.0338   1.2198441709e+02   8.9534153673e+00    0.1621649    0.1141678   3.56  0.001090571    2.112    0.526
       119  -9.0923    232.3826     15.7938   5.6285570833e+01   2.4569374274e+01    0.1897574    0.1258897  -8.68  0.000955162    1.668    0.400
       120  -9.5629    125.6344    249.1229   1.2518371349e+02   1.1466322014e+01    0.2857024   0.08453106  40.98  0.001424336    2.352    0.575
       121  -8.5212    227.4832     11.4993   5.5602881017e+01   2.6166860279e+01    0.1325122    0.1262562 -54.68 -2.452988e-05    1.007    0.007
       122  -8.9401    165.4702    246.1997   1.1799336806e+02   6.2945503561e+00    0.2290878    0.1087193  29.26  0.001183429    1.914    0.478
