#   1 NUMBER                 Running object number                                     
#   2 MAG_AUTO               Kron-like elliptical aperture magnitude                    [mag]
#   3 X_IMAGE                Object position along x                                    [pixel]
#   4 Y_IMAGE                Object position along y                                    [pixel]
#   5 X_WORLD                Barycenter position along world x axis                     [deg]
#   6 Y_WORLD                Barycenter position along world y axis                     [deg]
#   7 A_WORLD                Profile RMS along major axis (world units)                 [deg]
#   8 B_WORLD                Profile RMS along minor axis (world units)                 [deg]
#   9 THETA_WORLD            Position angle (CCW/world-x)                               [deg]
#  10 FWHM_WORLD             FWHM assuming a gaussian core                              [deg]
#  11 ELONGATION             A_IMAGE/B_IMAGE                                           
#  12 ELLIPTICITY            1 - B_IMAGE/A_IMAGE                                       
         1 -12.3587    211.5213      3.0188   5.8711461920e+01   3.0940451218e+01     1.134604    0.5680443  66.99  0.004394301    1.787    0.440
         2 -13.2343    189.0029     27.0826   6.7470808703e+01   3.4036496122e+01     1.628629      1.36167 -13.59  0.005760809    1.435    0.303
         3 -13.0775    196.2681     20.4488   6.4746743117e+01   3.2933312914e+01     1.277524    0.9437972 -62.75  0.004729161    1.337    0.252
         4 -11.8590     32.6827     11.6926   1.0326358091e+02   6.9879175257e+01     1.034098    0.4206928 -48.28   0.00440518    3.790    0.736
         5 -11.9119    202.2950     12.9235   6.2091394088e+01   3.2223619078e+01    0.5847839    0.5192591  26.91  0.001291514    1.415    0.294
         6 -14.7909     57.1289    210.6581   1.3836105003e+02   2.5157111679e+01     6.821343     1.052171  46.77   0.01832236    4.443    0.775
         7 -10.4685    249.6725    248.2075   1.0657961392e+02  -1.0925031916e+01    0.2646488    0.1709024 -30.92  0.001808245    1.833    0.454
         8 -11.2794    140.8313    249.6381   1.2618538998e+02   5.6548088294e+00    0.5068058    0.1892584  39.75  0.002373303    2.127    0.530
         9 -11.1960     94.0641    249.3515   1.3479278448e+02   1.2925603379e+01    0.5401274    0.3120217  27.94  0.002109874    2.371    0.578
        10 -10.1811    101.0404    249.4243   1.3352458308e+02   1.1881642672e+01    0.3275322    0.2675942  29.83  0.002284291    1.500    0.333
        11 -10.8726     97.5936    244.3734   1.3367764443e+02   1.3230524932e+01    0.3770328    0.1442642  42.25  0.001849775    2.045    0.511
        12 -10.7065     81.7255    249.0253   1.3700034631e+02   1.4753372833e+01    0.4070575    0.2256796  88.42  0.002352165    2.194    0.544
        13 -10.8167     83.6248    243.8999   1.3621561670e+02   1.5351836990e+01    0.3563576     0.198258  78.48   0.00199714    2.117    0.528
        14 -10.6580     63.9351    250.4149   1.4027028805e+02   1.6944562808e+01     0.607882   0.09121914  43.92  0.002359702    3.802    0.737
        15 -11.5007     70.9433    244.8252   1.3860148416e+02   1.6961660969e+01     0.414197    0.3746733 -79.53  0.003215767    1.436    0.304
        16 -14.0302     33.7907    247.0613   1.4523643327e+02   2.1242177568e+01      2.08538     1.185089  50.95   0.01451275    1.338    0.253
        17 -10.5514     67.3071    233.6478   1.3836354195e+02   1.9432812632e+01    0.3742073    0.1958605  43.82  0.002186596    1.583    0.368
        18 -12.4129     48.2626    230.7281   1.4166227831e+02   2.2435767927e+01    0.6249789    0.4132328  42.70  0.004002778    1.447    0.309
        19  -9.3354    226.0494    200.8336   1.0265707316e+02  -1.6503560230e+00    0.2385063    0.1798431 -42.51 0.0007956329    1.644    0.392
        20 -10.0521    193.3378    195.1015   1.0777365336e+02   5.0262063685e+00    0.7702835    0.4009053 -63.04  0.002227607    6.895    0.855
        21 -11.0371     72.3049    190.8586   1.3315432363e+02   2.7156316825e+01    0.3965154    0.2549051 -44.44  0.001550175    2.171    0.539
        22 -11.0137     76.6578    184.3032   1.3139249882e+02   2.7925840258e+01      0.28269    0.2536614 -46.74 0.0007910451    1.423    0.297
        23 -10.0629    126.2728    174.2475   1.1841286161e+02   2.1742363385e+01    0.4000564     0.188722  42.27  0.001662212    1.948    0.487
        24  -9.5073    118.9545    174.4997   1.2015744607e+02   2.3043055046e+01    0.2261982    0.1302099  42.79  0.001036893    1.602    0.376
        25 -12.6178     58.1162    130.7415   1.2830224659e+02   4.2689319207e+01      2.29872     0.765331 -74.32  0.005654238    7.110    0.859
        26 -12.0038     90.0016    164.9880   1.2552700689e+02   3.0121903724e+01     2.121347    0.6729507  51.57 0.0009837411    3.928    0.745
        27 -12.8596     68.4802    145.6898   1.2793384906e+02   3.7800754662e+01     1.521659     0.796621  83.78  0.005681066    3.323    0.699
        28  -9.2857    164.0027    156.3135   1.0630422128e+02   1.7835200693e+01    0.3314384    0.2047885 -53.04  0.001446227    1.845    0.458
        29 -11.8555     46.3393    147.3045   1.3395358150e+02   4.0256923084e+01    0.7289088    0.4114611  60.15  0.003690478    1.906    0.475
        30  -9.4394    102.9876    148.4893   1.1941438850e+02   3.1647391647e+01    0.3112261    0.2126215 -57.30 0.0007905017    1.476    0.322
        31  -9.1680    105.2367    144.7756   1.1811975351e+02   3.2086526037e+01    0.2806081    0.1875959 -30.69  0.001236013    2.114    0.527
        32 -11.4394     91.8764    147.9081   1.2217760854e+02   3.3693072727e+01    0.2749215    0.2646747 -33.83 0.0005029287    1.212    0.175
        33  -8.6439    134.4046    148.2099   1.1148393431e+02   2.5684914434e+01    0.3377878    0.1438071 -57.57  0.001142724    3.012    0.668
        34 -10.7037     84.5206    172.5594   1.2798823712e+02   2.9303643890e+01    0.3969121    0.2612813  68.67 0.0005074386    1.609    0.379
        35  -9.1948    112.7166    134.7577   1.1410485485e+02   3.2960399030e+01    0.3002786    0.2402873 -10.98  0.001000506    1.720    0.419
        36 -12.6093     72.7613    169.9802   1.3043327745e+02   3.1637489207e+01    0.4721718     0.279912 -45.36  0.001632056    2.153    0.536
        37  -9.9580    100.3456    131.7806   1.1677391209e+02   3.5936257129e+01    0.2874075    0.2377107 -25.04 0.0004432985    1.493    0.330
        38 -11.1873     49.0389    131.7808   1.3100569079e+02   4.3556536875e+01    0.3650646    0.1825915 -57.95  0.001758758    1.787    0.440
        39 -11.6679     40.9850    127.7946   1.3264944358e+02   4.5387933554e+01    0.5676138    0.1723664 -68.85  0.002080602    3.174    0.685
        40  -8.9396    108.9693    122.4605   1.1235891082e+02   3.6455235312e+01    0.2048335    0.1993403 -76.34 0.0003624439    1.023    0.022
        41 -10.6610     44.8085    128.5494   1.3168875280e+02   4.4794928324e+01    0.2598229    0.1698406 -67.66  0.001431652    1.347    0.257
        42 -13.9875     11.6841    206.9143   1.4690177741e+02   3.1038900322e+01     1.281705    0.8106576  56.10  0.005149077    1.298    0.230
        43 -10.1862    168.3049    113.1396   9.5222924179e+01   2.5434353772e+01     0.353918    0.3094512 -74.67 0.0007804767    1.285    0.222
        44  -8.6195    205.7198    110.5423   8.7030328432e+01   1.7106278877e+01     0.289407     0.139312  47.89  0.001137104    2.093    0.522
        45 -10.4863     32.9527    107.8779   1.3185308076e+02   5.0820254547e+01    0.3815901    0.1622972 -72.28  0.001663594    2.346    0.574
        46  -8.9632    160.8209    128.2321   1.0067351516e+02   2.4164706839e+01    0.2617857    0.1735044 -87.08 0.0009513861    2.802    0.643
        47  -9.7435    244.4001     83.8074   7.4504904606e+01   1.2755488574e+01    0.1953154    0.1260022 -24.09   0.00095326    1.671    0.402
        48 -10.3452    100.1275    238.3141   1.3260363878e+02   1.3876279635e+01    0.1746211    0.1594468 -83.80  0.000566468    1.314    0.239
        49 -11.1843    150.4020    228.5071   1.2166544109e+02   7.3368089806e+00    0.4878678    0.2155332  42.46  0.002157386    1.829    0.453
        50 -12.4225     49.0431    223.0217   1.4094998103e+02   2.3781780770e+01    0.5064303    0.4040695 -58.94  0.001277375    1.670    0.401
        51 -11.2030    108.1730    246.1274   1.3188314328e+02   1.1340557009e+01    0.3449911    0.2514252  66.79  0.001156367    1.293    0.227
        52  -8.5820    169.5654    215.7584   1.1599877889e+02   6.0375230321e+00    0.1609357    0.1288339 -64.16 0.0006618482    1.661    0.398
        53 -16.0602      7.3375    240.1933   1.4928081811e+02   2.5276701934e+01     19.65068     1.067502 -77.11   0.04119584   12.713    0.921
        54 -11.5291     74.2548    232.3847   1.3695003494e+02   1.8706543824e+01    0.5933359    0.2752219  89.51    0.0027322    3.165    0.684
