#   1 NUMBER                 Running object number                                     
#   2 MAG_AUTO               Kron-like elliptical aperture magnitude                    [mag]
#   3 X_IMAGE                Object position along x                                    [pixel]
#   4 Y_IMAGE                Object position along y                                    [pixel]
#   5 X_WORLD                Barycenter position along world x axis                     [deg]
#   6 Y_WORLD                Barycenter position along world y axis                     [deg]
#   7 A_WORLD                Profile RMS along major axis (world units)                 [deg]
#   8 B_WORLD                Profile RMS along minor axis (world units)                 [deg]
#   9 THETA_WORLD            Position angle (CCW/world-x)                               [deg]
#  10 FWHM_WORLD             FWHM assuming a gaussian core                              [deg]
#  11 ELONGATION             A_IMAGE/B_IMAGE                                           
#  12 ELLIPTICITY            1 - B_IMAGE/A_IMAGE                                       
         1 -13.3886    199.8032     29.6617   6.4149942311e+01   3.2050779965e+01     1.333479     1.174101  69.00  0.007163037    1.185    0.156
         2 -13.4011    217.3597     11.8239   5.8258581355e+01   3.0088856573e+01    0.8820666     0.773049  63.90  0.004072842    1.353    0.261
         3 -11.5991      7.0191      3.8727   1.0650880422e+02   7.1737264033e+01    0.2942791    0.1449163 -32.15  0.001945185    1.686    0.407
         4 -11.9661      2.0000     13.4769   1.1307082729e+02   7.0873074772e+01    0.8188459    0.1402709 -48.25  0.002730569    6.992    0.857
         5 -12.3818    140.3315    248.3129   1.2379845421e+02   2.8411752058e+00    0.5827811    0.3333845  46.53  0.003036582    1.498    0.332
         6 -11.8815    188.4325    249.4195   1.1443176633e+02  -5.4169642182e+00    0.5087378     0.236559  33.33  0.002391423    1.984    0.496
         7 -12.5323    161.2103    248.5009   1.1966098184e+02  -7.2907404925e-01    0.6435083    0.3752755  32.12  0.003309654    1.645    0.392
         8 -12.9233     34.5993    246.3241   1.4374663109e+02   1.9080954079e+01     1.095534     0.985158 -42.77  0.008010674    1.851    0.460
         9 -10.8463     63.4281    246.5496   1.3856430716e+02   1.5277092758e+01    0.2610236    0.1794797  83.01 0.0005631961    1.295    0.228
        10 -11.1720    244.1393    247.2917   1.0362291288e+02  -1.3566459064e+01    0.2015106    0.1292115  14.20  0.001217698    1.457    0.314
        11 -12.6228      9.7875    207.0106   1.4541039694e+02   3.0008190112e+01    0.6829516    0.5108407  32.79  0.002847185    1.744    0.427
        12 -11.4902     98.8919    249.2829   1.3209778321e+02   9.4683416253e+00    0.4406346    0.1708883  43.17  0.001985635    2.162    0.537
        13  -9.4491    186.2934    239.3350   1.1324544046e+02  -3.4466147993e+00    0.1310637   0.09566546   3.45            0    1.641    0.391
        14 -15.3223      7.8361    130.7692   1.3840673387e+02   4.7563061961e+01     11.27503     2.977309 -76.87   0.03442746    5.205    0.808
        15 -12.1447     95.9033    228.3984   1.3025074491e+02   1.4114828693e+01    0.7286316    0.1687562  46.04  0.002410674    3.702    0.730
        16 -11.3754     86.8318    225.8490   1.3181667606e+02   1.6083558369e+01    0.5956649    0.1416165  48.63  0.001922697    4.004    0.750
        17 -12.6676    118.8314    231.6508   1.2591412249e+02   9.6528766517e+00    0.9112172    0.2188018  41.80   0.00300498    3.546    0.718
        18  -9.5217     81.3152    248.6601   1.3540582531e+02   1.2282713213e+01    0.1339173   0.07789969  68.67  0.000704784    1.703    0.413
        19  -8.7124    152.6067    212.8081   1.1582734673e+02   7.4257464827e+00    0.1756585    0.1366861 -66.68 0.0002790183    1.480    0.324
        20 -10.5406     53.0408    202.7611   1.3626659079e+02   2.6059950256e+01    0.4097912    0.2053211  64.71  0.001894803    2.185    0.542
        21 -11.6444     56.0613    196.6139   1.3491055141e+02   2.7077932789e+01    0.2885183    0.2319884 -62.92 0.0005001975    1.307    0.235
        22  -8.6993    191.6870    192.3681   1.0368270062e+02   4.0806004811e+00    0.1449452    0.1164605 -89.49 0.0007037082    1.771    0.435
        23 -11.8613     62.8551    188.3877   1.3236369993e+02   2.8088824402e+01    0.2738883    0.2477975 -73.51 0.0004091746    1.179    0.152
        24 -11.7865      4.0399    184.4070   1.4480101793e+02   3.5529762352e+01     0.522262    0.2877704  78.37  0.001780102    1.649    0.393
        25 -10.6743     73.8628    175.7800   1.2797931480e+02   2.9540341907e+01    0.2555314    0.2126732 -70.22 0.0003578113    1.116    0.104
        26 -13.1242     60.2134    173.6627   1.3098017639e+02   3.1973301920e+01    0.5484965    0.2817773 -46.70  0.001863091    2.279    0.561
        27  -9.6112     92.2801    169.5607   1.2240967578e+02   2.8164303444e+01    0.2787442    0.2065917  79.70 0.0007353535    1.493    0.330
        28 -11.7394     81.8339    167.0939   1.2460950272e+02   3.0445669788e+01    0.6024364    0.5732836 -12.21  0.003518224    1.297    0.229
        29 -13.8644      7.9271    240.0719   1.4790300733e+02   2.3323637471e+01      2.00257     1.091557 -89.03   0.01296322    1.457    0.314
        30 -12.9870     43.2633    212.1690   1.3927064926e+02   2.5185198537e+01      1.03895    0.9007294  88.83  0.005306506    1.172    0.147
        31 -10.1502     95.1521    151.5084   1.1830499734e+02   3.2087780638e+01    0.2888567    0.2801363 -78.56 0.0008752828    1.067    0.063
        32 -11.8608     83.7347    150.3116   1.2110277464e+02   3.4260486324e+01    0.3220704    0.2494731 -49.84  0.000712464    1.275    0.216
        33  -9.1189     98.7295    147.2465   1.1649286188e+02   3.2507798387e+01    0.1981086    0.1727503 -28.50 0.0004924149    1.323    0.244
        34 -11.7411     68.6497    143.4796   1.2388826543e+02   3.8191244041e+01     0.587052    0.4134183 -84.88  0.001797938    1.589    0.371
        35 -11.2012     65.3121    141.6651   1.2446655349e+02   3.9096917793e+01    0.3905806    0.2636658 -53.91 0.0009976368    1.350    0.259
        36  -9.6014    107.9111    137.0376   1.1182369692e+02   3.3309947166e+01    0.4041317    0.2660598 -14.86  0.001490768    2.764    0.638
        37 -10.4664     94.9231    133.8463   1.1466168910e+02   3.6411989700e+01    0.2480522    0.2163333 -43.91 0.0003252002    1.147    0.128
        38  -9.1297    105.6956    123.4363   1.0925171519e+02   3.6935829962e+01    0.1795116    0.1496499  26.81 0.0002303259    1.328    0.247
        39  -9.3131    167.4487    112.4369   9.0869700120e+01   2.6076552247e+01    0.2686313    0.2048253 -81.64 0.0005452855    1.638    0.389
        40 -11.3842    243.8106     95.0667   7.3122295220e+01   1.2114223586e+01    0.3242849    0.1763759 -35.29  0.001486097    1.872    0.466
        41  -9.1133     63.0707     79.0738   1.1058864548e+02   5.3583923971e+01    0.1889836    0.1623084  77.74 0.0005425112    1.648    0.393
        42  -9.6237    159.2337     77.6239   8.3396338580e+01   3.4735146164e+01    0.2174405    0.1334565  46.60 0.0009489689    1.636    0.389
        43 -12.7479     27.5394    229.5555   1.4377690072e+02   2.3320223531e+01    0.2775573    0.2298676 -80.94 0.0007399682    1.303    0.233
        44  -8.7290     51.7893     72.5153   1.1258123173e+02   5.6343953899e+01    0.1563042    0.1206549  41.24  0.000502834    1.561    0.359
        45 -11.2942    226.5073    249.4998   1.0720005047e+02  -1.1356307200e+01    0.4007084    0.1010397  34.22  0.001415152    4.000    0.750
        46 -11.6158    199.4788    247.7484   1.1202331600e+02  -6.9468498278e+00     0.358825    0.2840875  71.55  0.002081316    2.004    0.501
        47 -13.9224     32.8554    222.9783   1.4227107171e+02   2.4089114410e+01    0.7514936    0.5719603  77.93  0.002433454    1.015    0.014
        48 -11.8111    124.7850    249.9749   1.2710531649e+02   5.1462264436e+00    0.6279888    0.1501124  42.04   0.00218216    3.416    0.707
