#   1 NUMBER                 Running object number                                     
#   2 MAG_AUTO               Kron-like elliptical aperture magnitude                    [mag]
#   3 X_IMAGE                Object position along x                                    [pixel]
#   4 Y_IMAGE                Object position along y                                    [pixel]
#   5 X_WORLD                Barycenter position along world x axis                     [deg]
#   6 Y_WORLD                Barycenter position along world y axis                     [deg]
#   7 A_WORLD                Profile RMS along major axis (world units)                 [deg]
#   8 B_WORLD                Profile RMS along minor axis (world units)                 [deg]
#   9 THETA_WORLD            Position angle (CCW/world-x)                               [deg]
#  10 FWHM_WORLD             FWHM assuming a gaussian core                              [deg]
#  11 ELONGATION             A_IMAGE/B_IMAGE                                           
#  12 ELLIPTICITY            1 - B_IMAGE/A_IMAGE                                       
         1 -16.2678    240.4974     92.1505   4.8292410834e+01   1.3886375800e+01     7.515568     2.061296 -38.00   0.02663292    3.089    0.676
         2  -9.6732     40.8411     14.1497   7.0469813427e+01   6.8309379692e+01    0.1668969    0.1151634   7.45 0.0002385648    1.292    0.226
         3 -11.2047    159.8285    243.1614   9.3880077264e+01   1.4765504698e+00    0.1781054    0.1378468   8.01 0.0005186392    1.336    0.251
         4  -9.6234     72.4803    228.5067   1.1044761736e+02   1.7313272007e+01    0.1288333    0.1054152  62.10 0.0001205553    1.046    0.044
         5 -11.5615    163.1568    225.9540   9.0577560343e+01   3.8640734901e+00    0.4394828    0.2950613  23.55  0.002006491    1.434    0.303
         6 -10.9287     99.1585    226.0338   1.0442758333e+02   1.3999611633e+01    0.3800088    0.1790694  36.26  0.001755964    1.915    0.478
         7  -9.9023    148.7325    221.8375   9.3005064335e+01   6.9524114724e+00    0.3009803    0.1217069 -51.99  0.001218215    2.882    0.653
         8 -11.3111    125.9269    220.7052   9.7826122086e+01   1.0886403714e+01    0.2389338    0.2060664  69.52 0.0006898086    1.271    0.213
         9 -10.0193     83.2235    219.9663   1.0720110083e+02   1.7590752277e+01    0.1625489    0.1049598 -68.47 0.0004962187    1.639    0.390
        10 -10.3237    143.9528    216.7919   9.3254720544e+01   8.6926827163e+00    0.2298411    0.2010753 -40.48  0.001119097    1.253    0.202
        11  -9.6952    199.4776    215.4838   8.1351309120e+01  -1.6392842693e-01    0.1316737    0.1139923   7.30 7.568673e-05    1.046    0.044
        12  -9.9709    185.9781    214.7569   8.3946976727e+01   2.1108330437e+00    0.2037995    0.1488504  57.25 0.0007796178    1.936    0.484
        13 -10.1744    131.5087    214.0072   9.5584390380e+01   1.1302550623e+01    0.1957354    0.1374997 -52.81 0.0006693024    1.568    0.362
        14 -10.5731    116.6722    210.5762   9.8426750348e+01   1.4438913433e+01    0.2306316    0.1693456  88.70  0.000934278    1.760    0.432
        15  -9.5398    177.3289    210.6654   8.5023046266e+01   4.2488834797e+00    0.1306028    0.1092331  70.48 0.0003085055    1.724    0.420
        16  -9.7835    206.3076    208.6234   7.8765430650e+01  -1.1108155324e-01    0.1207732    0.1088672 -87.00 0.0005839819    1.779    0.438
        17  -9.5927    139.3368    207.6689   9.2816004568e+01   1.1260073135e+01     0.143137    0.1065686  67.68 0.0007052082    1.735    0.424
        18 -11.4934    186.0523    203.7931   8.1960078557e+01   4.0175839748e+00    0.4171826    0.2437134 -53.76  0.001911743    2.263    0.558
        19 -10.1531    198.4346    204.2272   7.9513159817e+01   1.8896242072e+00    0.1801814    0.1270143 -48.50 0.0009487484    1.690    0.408
        20 -12.0031    164.7063    201.5644   8.6108133496e+01   8.0871702228e+00    0.6554164    0.3718422 -52.98  0.002969243    2.081    0.519
        21 -11.5412    162.6041    194.1727   8.5218453237e+01   9.8987694058e+00    0.4009324    0.3373947  74.01    0.0014565    1.578    0.366
        22 -10.5437    130.7236    202.7848   9.3983743046e+01   1.3726708743e+01    0.2745538    0.1779772 -81.70  0.001175036    2.521    0.603
        23  -9.6168    140.5042    200.9942   9.1435037028e+01   1.2415769891e+01    0.1913449    0.1283841 -82.53 0.0008102934    2.532    0.605
        24 -11.9071    177.3414    197.6949   8.2662516419e+01   6.6230205825e+00    0.3642621    0.2838537  67.96  0.001381864    1.895    0.472
        25 -11.9081    172.8951    195.9484   8.3291573934e+01   7.7309154921e+00    0.3850548    0.2809979  25.03  0.001508539    1.340    0.254
        26 -10.8429    173.0331    191.6573   8.2449160697e+01   8.5314246938e+00    0.2977728    0.2625391 -82.17  0.001116536    1.524    0.344
        27 -10.7499    149.0695    198.4001   8.9030552849e+01   1.1449149345e+01    0.3322025    0.2407295 -81.33  0.001548889    2.146    0.534
        28 -11.6344    125.1125    197.6446   9.4447007964e+01   1.5772688596e+01    0.3793296    0.2916777  41.08  0.002008226    1.219    0.179
        29 -10.3686     88.8821    198.9470   1.0325272535e+02   2.1349638951e+01    0.2880743    0.1735861  77.90  0.001254976    2.310    0.567
        30 -10.4614    112.8282    197.7248   9.7366784640e+01   1.7823123503e+01    0.2740312    0.1845147  83.78  0.001235925    2.134    0.531
        31  -9.3944    203.3235    197.6550   7.7300027488e+01   2.2184693886e+00    0.1256938    0.1120282  89.68 0.0004008388    1.737    0.424
        32  -9.7757    193.4372    196.2563   7.9023843599e+01   4.1182163137e+00    0.1839605    0.1305681 -49.68 0.0009437351    1.653    0.395
        33 -10.9184    206.0325    190.9170   7.5462683675e+01   2.9389440879e+00    0.3784934      0.21481 -52.54  0.001512997    2.376    0.579
        34 -11.3491    204.3671    184.8423   7.4590577272e+01   4.2945658496e+00    0.3670428    0.2629282 -56.23  0.001802548    1.863    0.463
        35  -9.8658    132.4990    195.5002   9.2350317324e+01   1.4956749482e+01    0.1433598    0.1341175  45.22 0.0008103395    1.042    0.040
        36 -10.8628    186.7382    193.9231   7.9961657631e+01   5.6914104467e+00    0.2470767    0.2008489 -58.76   0.00108362    1.583    0.368
        37  -9.9007    199.8548    191.8150   7.6866072843e+01   3.8214988509e+00    0.1750393     0.171411  62.12 0.0008777318    1.330    0.248
        38 -10.0816    179.4530    190.8103   8.0901864766e+01   7.5521474969e+00    0.2535495     0.137666 -47.78 0.0008538191    1.995    0.499
        39 -11.2113    138.8021    188.8762   8.9698659187e+01   1.5257817528e+01    0.4322867    0.2122637 -56.09   0.00172602    2.336    0.572
        40 -10.5607    210.6508    189.3130   7.4246587964e+01   2.4483088766e+00    0.1919568    0.1683665 -76.20  0.001065862    1.738    0.425
        41 -10.4875    129.1195    188.3582   9.1907532412e+01   1.7092515657e+01    0.2824672    0.2208307 -65.16  0.001295659    1.429    0.300
        42 -10.2450    217.9176    187.9083   7.2581201689e+01   1.4944050518e+00    0.1906225    0.1721613 -76.26 0.0008674375    1.664    0.399
        43 -10.0472    192.6851    188.1348   7.7602426596e+01   5.7214723219e+00    0.2131569    0.1772555 -56.73 0.0008943834    1.509    0.337
        44 -10.4677    156.0044    186.9704   8.5349617001e+01   1.2543610775e+01    0.3444325    0.2161352 -56.00  0.001521759    1.858    0.462
        45 -10.5920    165.4261    186.2574   8.3085024315e+01   1.0968931122e+01    0.4001875    0.2496634 -60.18  0.001747228    2.150    0.535
        46 -11.5000    120.1984    184.7067   9.3425316154e+01   1.9469525667e+01    0.5723645     0.241075 -61.90  0.001985149    3.101    0.678
        47 -11.1576     94.9590    185.2421   9.9760524946e+01   2.3560071327e+01    0.5706987    0.2635307 -64.36  0.002267837    2.385    0.581
        48 -11.2050     15.2144    185.5744   1.1912976516e+02   3.3436956197e+01    0.3170104    0.2191246 -46.48    0.0018911    1.797    0.443
        49 -10.6549    108.7933    185.2705   9.6328838541e+01   2.1293813134e+01    0.3494369    0.2041766 -76.66  0.001407537    2.467    0.595
        50 -10.3589    183.1556    184.0649   7.8788409758e+01   8.1777377689e+00     0.292919    0.1892502 -57.22  0.001062536    2.038    0.509
        51 -10.9338    224.8855    183.7538   7.0462837682e+01   1.0664348338e+00    0.2400692    0.1718597 -59.28  0.001213842    2.151    0.535
        52 -11.0977    174.4274    183.1947   8.0495392671e+01   9.9330924556e+00    0.3525806     0.273492 -58.50  0.001434329    1.567    0.362
        53 -10.2032    197.1809    182.7221   7.5605529344e+01   5.9282248757e+00    0.2439571    0.1874768 -45.96  0.001024195    1.412    0.292
        54 -11.1600    244.0556    181.8027   6.6697521376e+01  -1.5984569703e+00    0.2372774    0.1654744 -30.31  0.001061091    1.238    0.192
        55 -11.7716    147.6823    179.6308   8.5865619133e+01   1.5619362830e+01    0.5216796    0.2652503 -52.52  0.002108841    2.134    0.532
        56 -11.0641    137.9598    178.9576   8.8051469493e+01   1.7563970411e+01      0.34322    0.2246111 -60.17  0.001135975    1.754    0.430
        57 -10.5789    192.5415    177.9945   7.5595485681e+01   7.6368629403e+00    0.2937976     0.246784 -79.01  0.001536187    1.746    0.427
        58  -9.8866    205.6471    178.2967   7.3016392121e+01   5.2496674525e+00    0.2049471    0.1739077 -77.86   0.00109691    1.776    0.437
        59 -10.6667    183.2530    175.6629   7.7064730811e+01   9.7856502572e+00    0.3515654    0.2574105 -51.09  0.001752037    1.520    0.342
        60 -10.0316    211.1823    183.1319   7.2916240971e+01   3.4362948652e+00    0.2174509    0.1746168  -6.69  0.001047541    1.182    0.154
        61 -10.7064     77.4282    176.1416   1.0280663635e+02   2.8400352143e+01    0.3043525    0.1610276  50.71  0.001314451    1.984    0.496
        62  -9.9741    159.6335    175.2891   8.2221175235e+01   1.4298121577e+01    0.2324669    0.1858871  85.56  0.001110298    1.786    0.440
        63 -10.3398    105.6747    174.8751   9.5330261734e+01   2.4238893382e+01    0.3113343    0.1859517 -87.41  0.001146419    2.924    0.658
        64 -10.9429    177.2739    170.9659   7.7377450685e+01   1.1837493219e+01    0.4068245    0.2743555 -58.66  0.001467959    1.882    0.469
        65 -10.0216    142.4603    172.0225   8.5607495699e+01   1.8253245184e+01    0.2286669    0.1481668 -49.19 0.0006657923    1.579    0.367
        66 -10.5895    134.7740    171.1374   8.7304733824e+01   1.9895202944e+01    0.3799385    0.2095906 -61.36  0.001492615    2.253    0.556
        67 -10.7904    206.3654    169.8286   7.1124422184e+01   6.6658354979e+00    0.3040645    0.2372273 -63.48  0.001403736    1.772    0.436
        68 -11.4764    121.6849    168.9082   9.0140672612e+01   2.2821684219e+01    0.5666682    0.3545643 -70.85  0.002345085    2.129    0.530
        69  -9.5603    199.2860    170.6486   7.2699093139e+01   7.7943136774e+00    0.1366286    0.1151469 -72.91 0.0003567231    1.662    0.398
        70 -10.4616    168.1118    168.8949   7.8971546711e+01   1.4011898627e+01    0.3294728    0.2490138 -62.95  0.001349441    1.648    0.393
        71 -10.5827    149.8207    169.4510   8.3321415766e+01   1.7415606367e+01    0.2923709    0.2442208 -86.09  0.001187655    1.535    0.349
        72 -11.3307    211.7715    168.1460   6.9727931622e+01   6.0077965014e+00     0.408482    0.2597457 -66.60  0.001613496    3.232    0.691
        73 -11.1825    221.5111    166.3553   6.7534014232e+01   4.6211888342e+00    0.5334147    0.2497638 -54.00  0.001896375    3.587    0.721
        74  -9.4577     88.3173    167.9838   9.8653474896e+01   2.8733072625e+01    0.2385218    0.1196944 -83.28 0.0007047905    4.277    0.766
        75 -10.8593    192.3427    164.1330   7.2729094582e+01   1.0326577821e+01    0.6864712    0.2283734 -44.99  0.002306973    3.027    0.670
        76 -10.4393    188.2934    157.4197   7.2109191070e+01   1.2418343781e+01    0.3012489    0.2466958 -60.77 0.0009043865    1.460    0.315
        77 -10.0421    185.1977    166.7554   7.4783728356e+01   1.1169748539e+01    0.2604133    0.1936976 -50.33  0.001050872    1.457    0.314
        78 -11.6801    139.1424    164.0668   8.4792921713e+01   2.0659132170e+01    0.6106639    0.3683487 -63.53  0.002471187    2.135    0.532
        79 -10.5197     99.2297    166.1367   9.5441915794e+01   2.7410819103e+01    0.3063118    0.1805942  59.58  0.001248713    2.147    0.534
        80 -11.4271    213.4922    164.0116   6.8529944802e+01   6.4497244804e+00    0.3466495    0.2704449 -78.05  0.001145452    2.116    0.528
        81 -12.2230    212.7974    158.4135   6.7465802357e+01   7.5943525018e+00    0.4076792    0.3128757 -25.29  0.001907256    1.219    0.180
        82 -10.4922     79.3923    163.4931   1.0028135968e+02   3.1203849352e+01    0.4326245    0.2352988  84.97  0.001462662    3.548    0.718
        83 -11.2233    197.9778    136.3728   6.5383644133e+01   1.4608707418e+01    0.6573789    0.2286118 -41.33  0.002255603    2.684    0.627
        84 -11.6159    200.3201    148.5685   6.7703361055e+01   1.1795493128e+01    0.6387438    0.3105282 -43.93  0.002615305    1.979    0.495
        85 -11.8415    196.3887    143.3178   6.7293667736e+01   1.3584943469e+01    0.5361458    0.4067468  53.09  0.001985576    1.492    0.330
        86 -11.4940    205.5952    162.3132   6.9682094127e+01   8.1957482612e+00    0.4690459    0.3068784 -57.08  0.001767659    2.018    0.505
        87 -12.4459    204.4790    155.0016   6.8315133348e+01   9.7739616455e+00    0.5552206    0.4370869 -66.16  0.002816743    1.700    0.412
        88 -10.3664    159.5086    163.3730   7.9766284494e+01   1.6846836154e+01    0.3772913    0.2502461 -51.56  0.001703221    1.597    0.374
        89 -10.9307    177.7741    160.1207   7.4946758916e+01   1.3934722412e+01    0.4549995    0.3142376 -56.12  0.001645015    1.697    0.411
        90 -10.5750    151.5119    160.3929   8.1010128090e+01   1.9065568354e+01    0.3585901    0.2519226 -66.48  0.001434078    1.843    0.457
        91 -10.4465     92.7661    160.1319   9.6073366789e+01   2.9940116179e+01    0.3391704    0.2086264 -82.03  0.001368503    2.279    0.561
        92 -13.8646    236.5660    146.8868   6.0804671968e+01   5.3994980427e+00     1.522666     1.049248 -88.54  0.006517187    3.338    0.700
        93 -11.4515    166.0818    248.8250   9.3432792232e+01  -3.7358595462e-01    0.2260173    0.1802833  -6.18  0.001440956    1.336    0.252
        94  -9.7777    203.2164    141.1996   6.5478419347e+01   1.2633465286e+01    0.1972317    0.1719372 -64.81 0.0006799002    1.342    0.255
        95 -11.4984    219.7120    136.7490   6.1453313002e+01   1.0253075031e+01    0.3551466    0.2585328 -18.46  0.001812363    1.482    0.325
        96 -10.4684    215.4628    135.9378   6.2021458005e+01   1.1216761646e+01    0.5217312    0.3475322 -74.90  0.002157833    2.798    0.643
        97 -10.5853    172.2764    137.5673   7.1011244916e+01   1.9708925508e+01    0.4575866    0.2550611 -56.47  0.001752469    2.258    0.557
        98 -10.1284     23.9878    138.9878   1.1212697753e+02   4.3931525739e+01    0.2736636    0.1162041  64.48 0.0009468774    4.033    0.752
        99 -10.2939    138.4326    137.7067   7.9103970279e+01   2.6784831002e+01    0.3033816    0.1518787 -51.96  0.001122579    2.101    0.524
       100  -9.8507    192.5678    136.6459   6.6517128111e+01   1.5661504215e+01    0.2884567    0.1393984 -36.45  0.001121728    2.035    0.509
       101 -10.2063    187.8720    135.1162   6.7109681773e+01   1.6934795812e+01    0.3099944    0.1876273 -44.80 0.0008939691    1.600    0.375
       102 -10.2380    162.6185    135.6238   7.2728223452e+01   2.2163396355e+01    0.3411461    0.1862225 -49.66  0.001345663    1.901    0.474
       103 -11.6648    218.2297    156.6631   6.6082033888e+01   6.9263798263e+00    0.3802218    0.2150147 -45.57  0.001751042    1.767    0.434
       104 -10.7505    179.4894    133.2921   6.8426021314e+01   1.9062350633e+01     0.403923    0.2529565 -48.81  0.001275658    1.625    0.385
       105 -10.4803    112.8795    132.9462   8.4800917314e+01   3.2989300280e+01    0.3664567    0.2310043 -65.59  0.001357066    1.949    0.487
       106 -11.3205    131.7517    129.8547   7.8934752749e+01   2.9949968913e+01     0.747886     0.342266 -55.36  0.002552552    2.588    0.614
       107 -11.5268     83.2054    130.3842   9.2848719581e+01   3.8849010212e+01    0.7012122    0.3138985 -64.96  0.002422544    2.789    0.641
       108 -10.9492    143.0675    130.2501   7.6125220250e+01   2.7492793559e+01    0.5737935    0.2558208 -47.73  0.002045068    2.246    0.555
       109 -12.3083    221.0818    129.7251   5.9642115946e+01   1.1256392238e+01    0.4057577    0.2386835 -38.23  0.001890646    1.522    0.343
       110 -10.8196    167.9667    156.4445   7.6315372245e+01   1.6639932115e+01    0.5058029    0.2666647 -49.14  0.001907476    1.979    0.495
       111 -11.0370    204.6516    129.9854   6.2628331870e+01   1.4469224507e+01    0.4420412    0.2864112 -68.44  0.001781089    2.478    0.596
       112 -11.3101    211.9733    129.1492   6.1100158080e+01   1.3150114525e+01    0.3467596    0.2100359 -50.30  0.001447915    1.716    0.417
       113 -10.7286    168.5714    128.7251   6.9698593572e+01   2.2339664621e+01    0.4552563    0.2724128 -49.79  0.001734244    1.728    0.421
       114 -10.9852    152.6469    127.9482   7.3199534157e+01   2.5949661820e+01    0.5774415    0.2674679 -50.98   0.00204781    2.350    0.575
       115 -10.6184    105.3629    157.2617   9.2125108150e+01   2.8507192926e+01    0.4516123    0.3062626 -80.96  0.001936903    1.972    0.493
       116  -9.8802    186.3322    129.0880   6.5990411760e+01   1.8454450787e+01    0.2210929    0.1835988 -41.83 0.0006938374    1.151    0.131
       117 -11.7545     98.4582    125.9427   8.7283155776e+01   3.7343193928e+01    0.8968493    0.3502627 -58.88  0.002837187    3.121    0.680
       118 -10.1222     72.8467    129.0477   9.5712215926e+01   4.0772870143e+01    0.2473855    0.1688598  88.35  0.001078651    2.024    0.506
       119 -11.2777    117.7963    124.2837   8.1328548898e+01   3.4068041457e+01    0.6882103    0.4059008 -65.08  0.002599034    2.312    0.567
       120 -10.9210     59.5725    124.6474   9.8938549105e+01   4.3711501611e+01    0.4762593    0.2641042  81.07  0.001580835    3.944    0.746
       121 -10.6665    193.0010    129.7880   6.4817026086e+01   1.6911562523e+01     0.363936    0.2145456 -44.03  0.001141408    1.619    0.382
       122 -10.8159    179.7414    123.9116   6.6096933057e+01   2.0900823885e+01    0.4376328    0.2801206 -38.17  0.001725269    1.511    0.338
       123 -10.9144     44.2932    123.4105   1.0354306168e+02   4.5849308919e+01    0.4713104     0.253909  68.07  0.001801888    3.176    0.685
       124 -10.2422    157.5094    155.6108   7.8542938354e+01   1.8914407620e+01    0.3227763     0.218519 -56.60  0.001252532    1.666    0.400
       125 -10.4455    188.7302    123.6372   6.4190401540e+01   1.9015930600e+01    0.3170059    0.1934965 -49.18  0.001109854    1.667    0.400
       126 -10.4971     29.7744    124.1833   1.0825670384e+02   4.7104889905e+01    0.2328603    0.1232687  67.03 0.0009564488    2.837    0.647
       127 -10.9851    203.2149    121.8292   6.0980090396e+01   1.6297404393e+01    0.3385705    0.2111758 -56.19  0.001454968    1.870    0.465
       128 -10.3696    194.9824    121.9354   6.2553550931e+01   1.8010617441e+01    0.3815298    0.1805798 -50.86  0.001283787    2.379    0.580
       129 -10.4310    172.5030    120.4820   6.6787376580e+01   2.3175335084e+01    0.4127234    0.2337543 -45.90  0.001396631    1.738    0.425
       130 -10.5956    158.4049    120.3393   6.9917856475e+01   2.6316953707e+01    0.4942231      0.25586 -47.55  0.001784594    1.952    0.488
       131 -11.5484    141.5209    117.4440   7.3265752832e+01   3.0644040304e+01    0.8619925    0.3189236 -49.94  0.002695859    2.983    0.665
       132 -11.1445    130.6600    117.8453   7.6182882962e+01   3.2889375964e+01    0.5884884    0.3322278 -63.81  0.002074328    2.667    0.625
       133 -10.6905     70.4171    118.6561   9.4214571018e+01   4.3699066147e+01    0.2952951    0.1389612 -71.17   0.00095996    3.382    0.704
       134  -9.8911    203.4774    115.9809   5.9540574953e+01   1.7331843803e+01    0.2321325    0.1348063 -41.18    0.0010259    1.589    0.371
       135 -10.7428    193.0011    114.5369   6.1135768277e+01   1.9847719313e+01    0.4347316    0.2066507 -44.03   0.00157991    2.000    0.500
       136 -10.5055    185.9026    115.2359   6.2692235123e+01   2.1264533603e+01    0.3794712    0.2103506 -43.29  0.001311966    1.719    0.418
       137 -11.4255    108.7774    112.2822   8.0817463860e+01   3.8623116635e+01    0.8831804    0.3409419 -54.13  0.002811944    3.001    0.667
       138 -10.8919    119.3177    154.4354   8.7832478180e+01   2.6655364196e+01    0.5550464    0.2751961 -59.17  0.002061901    2.301    0.565
       139 -10.9733     78.7961    112.0798   8.9980997613e+01   4.4017718768e+01    0.5920663    0.3572873 -82.65  0.002109161    3.201    0.688
       140 -11.2779     92.2689    110.5421   8.5335403748e+01   4.2113386009e+01    0.8752849    0.3102852 -54.95  0.002770035    3.108    0.678
       141  -9.8738    167.5052    112.4814   6.5839958949e+01   2.5905832722e+01    0.3349068    0.1493959 -40.90  0.001214994    2.179    0.541
       142 -11.2349    122.0524    111.1019   7.6729570955e+01   3.6201520476e+01    0.5521514    0.2346709 -45.82  0.001940013    2.314    0.568
       143 -10.4085    201.0545    110.3707   5.8626335440e+01   1.8885013979e+01     0.543655    0.2566215 -25.91  0.001866715    3.071    0.674
       144 -10.5344    159.1511    110.6889   6.7244974535e+01   2.8151999396e+01     0.456888    0.2191749 -40.12  0.001710563    2.056    0.514
       145 -11.0565     66.3042    110.4351   9.3657281606e+01   4.6293670011e+01    0.3232254    0.2126179  83.15  0.001325396    2.563    0.610
       146 -10.7361     14.3188    110.4430   1.1106138586e+02   5.1709893479e+01    0.3300154    0.1893764  78.68  0.001574295    2.299    0.565
       147 -10.3091    182.7310    108.7788   6.1703815141e+01   2.3213025575e+01    0.3521141    0.1823279 -45.74  0.001341873    1.891    0.471
       148 -10.5053    133.1469    108.7938   7.3118318819e+01   3.4340660724e+01    0.4017532    0.2255824 -50.42  0.001590172    1.864    0.464
       149 -10.4812    189.2360    107.2066   6.0037566142e+01   2.2060544306e+01     0.407264    0.1959946 -42.69  0.001391489    1.964    0.491
       150 -10.2740    144.6736    154.5153   8.1386760384e+01   2.1723651424e+01    0.3098823     0.239992 -80.37  0.001339899    1.735    0.424
       151 -11.1820     23.2307    102.8637   1.0677250651e+02   5.2885628154e+01    0.5748788    0.3014745  68.71  0.002271994    3.515    0.715
       152 -10.7471    174.6420    110.8397   6.3885169885e+01   2.4627593328e+01    0.4649897    0.2139744 -45.04  0.001441064    2.133    0.531
       153 -10.9075    139.6043    103.1879   6.9920575499e+01   3.4102655481e+01    0.6038689     0.288671 -48.14  0.002220928    2.178    0.541
       154 -10.3126    166.5390    102.8116   6.3516571570e+01   2.8045011903e+01    0.4518899    0.1502781 -38.88   0.00141688    2.992    0.666
       155 -11.2066    149.9808    101.2529   6.6846849236e+01   3.2151947340e+01    0.7575517    0.2531547 -46.88  0.002305802    3.200    0.687
       156 -11.2333     45.1770    102.2192   9.8965241047e+01   5.0951941683e+01    0.4890056    0.2898525  75.71  0.001892105    3.325    0.699
       157  -9.8362    201.2763    102.8365   5.6750506166e+01   2.0210590408e+01    0.2943961     0.111078 -44.15 0.0008782208    2.500    0.600
       158 -11.2937    128.5726    100.6868   7.2086989296e+01   3.7065790307e+01    0.5737977    0.2988505 -44.87  0.002242692    1.909    0.476
       159 -10.2108    175.5415    100.8633   6.1113921607e+01   2.6354899976e+01    0.3603533    0.1428497 -41.07  0.001263456    2.415    0.586
       160 -10.0789    159.5527     99.7646   6.4234504968e+01   3.0249506674e+01    0.3951282    0.1452543 -42.52  0.001307368    2.656    0.623
       161 -11.7146    108.4817     97.2535   7.6760603091e+01   4.2032039398e+01    0.8641648     0.512936 -62.06  0.003347388    2.333    0.571
       162 -10.2320     81.8389     99.7320   8.5796406845e+01   4.6418545027e+01    0.2876537     0.200761 -78.24  0.001239283    2.143    0.533
       163 -10.3486     81.4961    154.4940   9.8139624870e+01   3.3116452141e+01    0.3389741    0.2088134  72.65   0.00137011    2.372    0.578
       164 -11.0616     94.8572     95.1579   8.0318582755e+01   4.5139120145e+01    0.6531122    0.2081853 -45.27  0.002083043    3.022    0.669
       165 -11.1757     63.7128     96.1673   9.0989288185e+01   5.0040663568e+01    0.4050592    0.2666227 -89.93  0.001638708    2.822    0.646
       166 -11.0562    133.1788    151.6790   8.3642027072e+01   2.4641903970e+01    0.6125814    0.3267859 -57.61  0.002345588    2.151    0.535
       167  -9.9431    164.5859     93.2741   6.1369071835e+01   3.0329265919e+01    0.2999926    0.1421008 -42.51  0.001136072    2.064    0.516
       168 -10.0465    176.6116     92.7048   5.8750503042e+01   2.7631979117e+01    0.2882312    0.1438264 -35.12  0.001122815    2.042    0.510
       169 -10.8284    138.5591     91.1111   6.6768974357e+01   3.6784915316e+01    0.5170022    0.2678764 -46.49  0.002017331    1.991    0.498
       170 -11.4796    124.6637     88.6657   6.9658485732e+01   4.0392958184e+01    0.7883062    0.3339578 -38.06  0.002790624    2.446    0.591
       171  -9.8900    157.5917     90.7664   6.2196627811e+01   3.2438565847e+01    0.2932192    0.1490913 -35.13  0.001127381    2.047    0.511
       172 -10.7641     35.1067     90.2450   9.9869735088e+01   5.4834317280e+01    0.3498601    0.2054777  85.73  0.001372908    3.434    0.709
       173  -9.9371    150.8248     88.5606   6.3100730856e+01   3.4439593107e+01    0.2686771    0.1765025 -43.26  0.001190496    1.518    0.341
       174  -9.9096     67.4125    153.2124   1.0185621146e+02   3.5486446062e+01    0.2103574    0.1317037 -77.38 0.0009488073    1.741    0.426
       175 -10.7935     86.1017     86.4302   8.0578440823e+01   4.8628142237e+01    0.3547088    0.2476463 -71.88  0.001546537    2.165    0.538
       176 -10.8339     48.9842     84.9997   9.3352210903e+01   5.4524237127e+01    0.3721212    0.2183617  61.37  0.001466216    3.347    0.701
       177  -9.6287    179.4047     85.1933   5.6218306173e+01   2.8330650906e+01    0.2237623    0.1291549 -48.89 0.0009470516    1.766    0.434
       178 -11.1589    104.2834     81.6360   7.3340484942e+01   4.6135174123e+01    0.6358909    0.2719053 -47.49  0.002308924    2.483    0.597
       179 -10.2107    158.3031     82.2640   5.9652495801e+01   3.3839868842e+01    0.3328385    0.2096181 -33.57  0.001209953    1.648    0.393
       180 -10.7898    140.9166     82.1132   6.3560584804e+01   3.7963089060e+01    0.4039181    0.2341696 -38.47  0.001639726    1.737    0.424
       181 -10.4737     24.6092     81.0243   1.0172182339e+02   5.7894654617e+01    0.2850131     0.190115  87.97  0.001308693    2.245    0.555
       182 -11.4123    215.7770     79.5339   4.8796299814e+01   2.1023658214e+01    0.3750074     0.187637 -23.00  0.001417234    2.994    0.666
       183 -10.3101    150.1451     79.6084   6.0679700296e+01   3.6252293580e+01    0.3580928    0.2118235 -47.17  0.001483221    1.764    0.433
       184 -10.3190    119.0872     79.1446   6.8286704577e+01   4.3479455610e+01    0.3820452    0.2140715 -42.14  0.001599002    1.800    0.445
       185 -10.3408    182.1319    150.2816   7.1817389240e+01   1.5066776023e+01     0.338028    0.2055065 -47.02  0.001162445    1.658    0.397
       186  -9.8708    174.6814     77.5860   5.5060724881e+01   3.0763384470e+01    0.2676367    0.1319737 -38.17  0.001073851    1.984    0.496
       187 -10.8473    211.5990     75.9801   4.8546847931e+01   2.2509779958e+01    0.2940696    0.1583955 -33.61  0.000954709    1.847    0.459
       188  -9.4789    183.7838     76.7399   5.3178984162e+01   2.8753099238e+01    0.2350885     0.098887 -45.86 0.0008657241    2.383    0.580
       189  -9.7136    167.4865     77.0116   5.6287792723e+01   3.2576010756e+01    0.2296647    0.1446062 -38.19 0.0008921268    1.578    0.366
       190  -9.7429    189.4831     75.9244   5.1985123796e+01   2.7553073649e+01    0.2245109    0.1371847 -38.38 0.0008466035    1.581    0.368
       191 -10.1994    157.4844     75.5719   5.7917070770e+01   3.5216432459e+01    0.3037648     0.147343 -36.48 0.0009519669    2.085    0.520
       192 -10.7298    140.2602     74.1964   6.1350962404e+01   3.9551267201e+01    0.3724656    0.2070693 -35.15  0.001551949    1.858    0.462
       193 -10.3376    206.4988     73.8996   4.8786829372e+01   2.3978915096e+01    0.2122062    0.1300289 -38.50 0.0006704208    1.537    0.350
       194 -10.0803    162.3572    150.0583   7.6165830346e+01   1.9129485193e+01    0.3287295    0.1845489 -51.20  0.001325383    1.899    0.473
       195  -9.7657    151.4473     72.9491   5.8444988077e+01   3.7112563609e+01    0.2318631    0.1461022 -37.64  0.001031073    1.604    0.377
       196 -10.7061     82.0292     72.0815   7.7437464030e+01   5.2298679206e+01     0.318053    0.2038393 -65.66  0.001314665    2.577    0.612
       197  -9.5029    195.3785     72.2414   5.0074447339e+01   2.6782023808e+01    0.2063065    0.1215759 -46.33 0.0006214693    1.622    0.384
       198  -9.9208    175.6716     70.8526   5.3043446993e+01   3.1650827807e+01     0.294195    0.1399662 -27.35  0.001092814    2.605    0.616
       199  -9.8311    162.5502     70.9894   5.5569923422e+01   3.4778301900e+01    0.2271304    0.1444645 -36.48  0.001027388    1.589    0.371
       200 -10.3073    105.3491     70.8573   6.9573884313e+01   4.7986111741e+01    0.2985839    0.1297304 -47.12  0.001085327    2.583    0.613
       201 -10.3012     94.5710     70.0715   7.2630054956e+01   5.0325381650e+01    0.4544643    0.1733824 -50.83  0.001446261    3.641    0.725
       202 -10.6479     51.7902     70.4684   8.8059246620e+01   5.7323544734e+01    0.3228012    0.1942293 -67.92  0.001392694    2.620    0.618
       203  -9.8045     16.9810     70.5024   1.0227016935e+02   6.0825843222e+01    0.1624066   0.09446887  46.82 0.0008094394    2.476    0.596
       204 -11.0426    127.8953     73.4361   6.4162936057e+01   4.2558179718e+01    0.6341761    0.2690894 -36.83  0.002324343    2.423    0.587
       205 -10.5230    147.0027     66.8686   5.7606389761e+01   3.9201104889e+01    0.4592919     0.223683 -31.93  0.001803766    2.223    0.550
       206  -9.9939    115.5804     71.3225   6.6783340625e+01   4.5703339883e+01    0.2970954    0.1407145 -42.60  0.001153223    2.168    0.539
       207 -10.1327     98.3684    150.3991   9.2664798507e+01   3.1390792738e+01     0.371504    0.1473585 -60.51  0.001234061    2.844    0.648
       208 -10.2916    121.5660     64.5643   6.2979900727e+01   4.5549337329e+01    0.4143136    0.1446293 -36.47  0.001404962    2.946    0.661
       209 -11.7364    190.3045    149.6865   6.9969469854e+01   1.3551027100e+01    0.6220239    0.4039568 -58.25  0.002155201    1.961    0.490
       210  -9.5024    187.6161     62.2443   4.8716056693e+01   3.0164792727e+01     0.192266    0.1360352 -25.40 0.0009464498    1.607    0.378
       211 -10.0841    109.7186     62.2077   6.5428919778e+01   4.8585398477e+01    0.3468632    0.1307886 -35.05  0.001221761    2.795    0.642
       212 -10.3028     73.4327     59.7666   7.6259229608e+01   5.6138236070e+01    0.2645567    0.1304766 -45.79  0.001131035    2.118    0.528
       213 -10.6141    138.5074     65.0673   5.8967589892e+01   4.1524726854e+01    0.3896364    0.1457723 -35.94  0.001364279    2.736    0.634
       214 -10.2476    203.4007     66.3453   4.7376258648e+01   2.5863462246e+01    0.2762667    0.1547261 -39.14  0.001170205    1.679    0.404
       215  -9.9912    130.4187     56.2766   5.8081520430e+01   4.4842748254e+01    0.2800813    0.1460174 -27.63  0.001143066    2.185    0.542
       216 -10.0901      7.5099     57.5107   1.0307038199e+02   6.4223571713e+01    0.1209138   0.09893814 -43.35 0.0008095535    1.069    0.065
       217 -10.3538    139.5601     54.7418   5.5508613791e+01   4.2903714117e+01    0.2747724    0.1468826 -27.72  0.001146095    2.113    0.527
       218  -9.9258    119.3080     55.6684   6.0631780016e+01   4.7514233804e+01    0.1442852    0.1149952 -74.94 0.0006379328    1.666    0.400
       219 -10.1909     63.2271     55.2554   7.8445985195e+01   5.8638027794e+01    0.2075811    0.1058999 -51.32 0.0007246315    2.408    0.585
       220  -9.5655    170.5538     70.2494   5.3818335451e+01   3.2975800661e+01    0.1996852    0.1442867 -22.25  0.000945723    1.613    0.380
       221  -9.3665    100.4950     54.4810   6.5444604582e+01   5.1841050941e+01    0.1448029    0.1305747  16.03 -1.531172e-05    1.044    0.042
       222 -10.0402     31.4170     52.2016   9.0662475540e+01   6.3370949580e+01    0.1720723    0.1150318 -57.50 0.0006835812    1.704    0.413
       223  -9.9932     92.4878     50.9782   6.6634952178e+01   5.4057642420e+01     0.195111    0.1186428 -56.92 0.0008104574    2.588    0.614
       224  -9.9829    142.5148    148.5449   8.0588534366e+01   2.3498770851e+01    0.3228718    0.1526625 -48.64  0.001193517    2.124    0.529
       225  -9.7982    129.6315     47.1680   5.5295020580e+01   4.6378205103e+01    0.2038637    0.1368082 -15.17 0.0009546538    1.818    0.450
       226  -9.8382    206.3583    148.1507   6.6440550753e+01   1.0705690862e+01    0.2118807    0.1252455 -47.41 0.0009418937    1.724    0.420
       227 -11.6913    148.8211    143.1345   7.7790157261e+01   2.3422844603e+01    0.8751437    0.4005247 -53.43  0.003065221    2.501    0.600
       228 -10.0306      5.3829     42.5738   9.9824560716e+01   6.7363390277e+01     0.212798    0.1076406 -72.29 0.0009544909    3.263    0.694
       229  -9.9151    113.4672     41.7650   5.7354830903e+01   5.0885210369e+01    0.1875073    0.1347328  -9.05   0.00093853    1.630    0.387
       230 -11.2818    107.2766    144.7112   8.9012078518e+01   3.1206195859e+01    0.7387524    0.4629685 -84.71  0.002700046    2.801    0.643
       231  -9.9306     39.3289    147.6804   1.0893043167e+02   4.0292755451e+01    0.1423706   0.09460136  69.58 0.0007047701    1.687    0.407
       232  -9.9883    175.7867    146.1085   7.2236666280e+01   1.7209037462e+01    0.2351159    0.2076903 -65.90 0.0009892309    1.296    0.229
       233 -10.6001     55.6457    145.2121   1.0388034342e+02   3.9041746149e+01    0.3832685      0.20596  85.22  0.001417801    3.048    0.672
       234  -9.7987    209.0006    144.7717   6.5187049521e+01   1.0830780702e+01    0.2194053    0.1709899  87.23  0.001058886    1.982    0.495
       235 -10.4573    165.8645    142.9622   7.3723824431e+01   1.9919597094e+01    0.4341706    0.2084153 -49.22  0.001618527    2.179    0.541
       236  -9.9787    137.9747    144.1789   8.0733748052e+01   2.5406070894e+01     0.231026    0.1761185 -69.24  0.001042569    1.588    0.370
       237 -11.3050    124.6256    141.8828   8.3674455003e+01   2.8599792936e+01    0.6776945    0.3440419 -63.57  0.002293721    2.862    0.651
       238 -10.9604     87.8122    142.8127   9.4109347556e+01   3.5025361425e+01    0.5151561    0.2044466 -60.71   0.00176565    2.697    0.629
       239 -10.0286    128.1127    158.6679   8.6436855332e+01   2.4003973445e+01    0.2747458    0.2126166 -64.78 0.0009410041    1.427    0.299
       240 -10.5624    182.1885    141.2871   6.9740568562e+01   1.6876487616e+01     0.367639    0.2519242 -56.49  0.001202322    1.688    0.408
       241 -11.4252    196.8461    157.2075   7.0308586417e+01   1.0806958558e+01    0.4727013    0.3123339 -54.98  0.001426738    1.819    0.450
