#   1 NUMBER                 Running object number                                     
#   2 MAG_AUTO               Kron-like elliptical aperture magnitude                    [mag]
#   3 X_IMAGE                Object position along x                                    [pixel]
#   4 Y_IMAGE                Object position along y                                    [pixel]
#   5 X_WORLD                Barycenter position along world x axis                     [deg]
#   6 Y_WORLD                Barycenter position along world y axis                     [deg]
#   7 A_WORLD                Profile RMS along major axis (world units)                 [deg]
#   8 B_WORLD                Profile RMS along minor axis (world units)                 [deg]
#   9 THETA_WORLD            Position angle (CCW/world-x)                               [deg]
#  10 FWHM_WORLD             FWHM assuming a gaussian core                              [deg]
#  11 ELONGATION             A_IMAGE/B_IMAGE                                           
#  12 ELLIPTICITY            1 - B_IMAGE/A_IMAGE                                       
         1 -15.3362     35.7513     48.1638   8.9327900926e+01   6.3133523700e+01     3.651224     1.988567 -18.40   0.01041119    2.159    0.537
         2 -14.9569     11.6355     20.2194   9.0177189105e+01   7.0342812624e+01     2.598408     1.225869 -18.12   0.01322506    2.346    0.574
         3 -13.7229     75.6563     32.7125   6.7337094254e+01   5.9758835134e+01     2.211446     1.137205  19.45  0.008962599    2.853    0.649
         4 -14.8636     62.3928     73.2111   8.6925131911e+01   5.4808884995e+01     2.545096     1.477881 -13.36   0.01053249    2.580    0.612
         5 -12.3957     83.0585     22.5427   6.0712419774e+01   5.9635196508e+01    0.5788242    0.3960989  47.91  0.002287656    1.404    0.288
         6  99.0000     65.0057     17.8765   6.4753641326e+01   6.3584482818e+01    0.7592182    0.3309845  34.00  0.003459763    2.245    0.555
         7 -12.9549     75.7489     13.2996   5.9073904031e+01   6.2087414013e+01    0.4886354    0.4110674  29.04  0.002242435    1.072    0.067
         8 -14.4110     86.8008      7.0494   5.3145491790e+01   6.0453626028e+01     2.564256    0.9243643  53.61   0.01117505    2.323    0.570
         9 -13.3674    104.7574      4.7149   4.7839063560e+01   5.6760522749e+01    0.9191938    0.6208745  59.48  0.005271823    1.330    0.248
        10 -12.7983    123.3794     10.7687   4.6235220420e+01   5.1978467289e+01     1.103807    0.3449627  55.46 0.0009871348    2.485    0.598
        11 -11.4348    175.3264     14.0165   3.9252059841e+01   3.9228940872e+01    0.3013137    0.2518946 -30.98  0.001868712    1.331    0.248
        12 -10.8034    155.1102     14.8591   4.2216891915e+01   4.4013823803e+01    0.2233929    0.1760003 -44.75 0.0007487583    1.365    0.267
        13 -10.8045    156.3403     10.0060   4.0606080548e+01   4.4178010353e+01    0.2586607    0.1973476  64.50  0.000857404    1.155    0.134
        14 -12.3478    185.5984     11.4883   3.7390449810e+01   3.7043299306e+01    0.4149129    0.2961459  62.50   0.00244139    1.320    0.243
        15 -10.0663    242.2526     10.0555   3.2044740717e+01   2.4665451040e+01    0.1629765    0.1262525 -56.84 0.0003547582    1.108    0.098
        16 -10.9602    150.8095      8.8089   4.1034487594e+01   4.5618381572e+01    0.2895635    0.2426715 -34.07  0.001798901    1.328    0.247
        17 -11.8356    193.0877      6.4554   3.5347379524e+01   3.5787775566e+01    0.4376141    0.2512849 -41.44  0.001714632    1.713    0.416
        18 -12.0053    188.2731      5.2157   3.5518521579e+01   3.7024416059e+01    0.2778015    0.2604845  38.75 0.0003820118    1.292    0.226
        19 -10.7134    128.6137      6.0199   4.3660725220e+01   5.1157527004e+01    0.3330362    0.2156942 -27.56  0.001622796    1.726    0.421
        20 -12.2478    138.2955      4.5879   4.1602567330e+01   4.8979552639e+01    0.6940238    0.2876059  57.94  0.002915263    1.957    0.489
        21 -11.7968    161.5750      3.2243   3.7965346406e+01   4.3523309879e+01    0.4257571    0.2814245  52.18   0.00241363    1.446    0.308
        22 -11.5269     73.4379      1.5414   5.4555309686e+01   6.3632001511e+01    0.2218314    0.1309444  50.48 0.0006020232    1.503    0.334
        23  -9.6132    211.8132      1.3794   3.2494092975e+01   3.2035235352e+01    0.1637173   0.09636889  67.11 0.0005837735    1.592    0.372
        24 -13.9000      6.4217     81.9632   1.1041731883e+02   5.8257062464e+01     1.446129    0.5361627 -47.38  0.006811922    2.079    0.519
        25 -13.7976      9.2254     64.1833   1.0555470501e+02   6.2057957125e+01    0.7514182    0.7165461 -55.95  0.004155718    1.260    0.206
        26 -10.5093    187.6829    198.3376   8.2696129422e+01   4.7839084176e+00    0.1294738    0.1132292  80.16 0.0006553118    1.702    0.412
        27 -13.1295      3.7155     47.3759   1.0363845645e+02   6.5875889558e+01    0.6785507    0.5285399 -73.43   0.00298575    1.574    0.365
        28 -10.7852    246.7256    183.5673   6.8589470390e+01  -2.2772290195e+00    0.2227622    0.1713088 -25.04 0.0001936691    1.131    0.116
        29  -9.3152    249.6631     86.3319   4.7527608423e+01   1.2982011680e+01    0.1384084   0.08914609 -62.28 0.0007052075    1.738    0.425
        30 -12.2646     93.0504     58.4609   7.1321996954e+01   5.2433413276e+01    0.6861323    0.2956211 -34.41  0.002683161    2.379    0.580
        31 -10.9712     34.5166    177.1288   1.1525812908e+02   3.3146789938e+01    0.2368621    0.1778857  -4.29  0.001348431    1.993    0.498
        32 -13.3872     84.3240     63.5346   7.5951209587e+01   5.3165364814e+01    0.8954071    0.6499235 -24.94  0.004592464    1.361    0.265
        33 -11.8465    203.3551    171.7705   7.4191937770e+01   6.8652135031e+00    0.3746113    0.2160146 -45.29  0.001711894    1.806    0.446
        34 -11.6852    118.3419     73.5957   6.8884197077e+01   4.4488001264e+01    0.4076357    0.2621322  23.29  0.001726032    1.981    0.495
        35 -10.3734    154.6059     69.7675   5.8832324916e+01   3.6829750572e+01    0.2001817    0.1374452 -45.31 0.0002901463    1.496    0.332
        36 -13.9863     69.2138     54.4054   7.8055515422e+01   5.7426069168e+01      1.10892    0.7232847  52.04  0.003183938    2.091    0.522
        37 -12.6694    117.9744     65.4407   6.6347749506e+01   4.6031958827e+01    0.6826368    0.3921628 -27.22  0.002508595    1.935    0.483
        38 -12.0438    133.1830     68.4716   6.3371015711e+01   4.2081420441e+01    0.4367018    0.2815289 -60.77    0.0012712    2.174    0.540
        39 -11.0210    122.9895     63.2323   6.4284679213e+01   4.5295678709e+01    0.2103154    0.1910803  43.85  0.000552209    1.092    0.084
        40 -11.2448    126.1511     65.8182   6.4302724806e+01   4.4142833788e+01    0.2853658    0.2264436  20.99 0.0002642116    1.375    0.272
        41 -11.5144    129.2538     63.2012   6.2671914892e+01   4.3878735520e+01    0.5313218    0.2523677 -35.25  0.002083485    2.144    0.533
        42 -10.1056    164.5227     67.9807   5.6268952260e+01   3.4755478802e+01    0.2186883    0.1450479 -34.05 0.0004579455    1.527    0.345
        43 -12.0542    144.0767     74.9443   6.2739620384e+01   3.8420814741e+01    0.5025349    0.3833174 -78.02  0.001955469    1.781    0.439
        44  -9.2053    177.2767     64.3089   5.2840265331e+01   3.2288071760e+01    0.1407299    0.1132279  18.06 0.0002067589    1.554    0.357
        45 -10.7126    214.6149     61.0694   4.6235255939e+01   2.4110925779e+01    0.2730967    0.2185034 -29.07  0.001338718    1.321    0.243
        46  -9.8219    189.7387     59.4800   4.9445364411e+01   3.0065512218e+01    0.1901689    0.1334469  82.20 0.0009247186    1.617    0.381
        47 -12.5843    124.8237     56.7343   6.1674311368e+01   4.5944856834e+01    0.3086524    0.2808527  33.01 0.0004673637    1.049    0.047
        48 -11.5048    150.9010     73.2314   6.0668276753e+01   3.7117682664e+01     0.355918    0.2170509 -40.32   0.00101293    1.640    0.390
        49 -11.9682    174.4090     56.5103   5.1170486873e+01   3.4167367342e+01    0.2746614    0.2434161  74.00 0.0008231524    1.113    0.102
        50 -11.0192    164.3101     53.3935   5.2081883913e+01   3.7067192426e+01    0.3887152    0.2382252 -44.26  0.001805406    1.674    0.403
        51 -10.4896    131.9581     53.8981   5.8997624898e+01   4.4738939135e+01    0.2192126    0.2019129  28.20 0.0004289749    1.057    0.054
        52  -9.9804    155.4124     52.2138   5.3418338928e+01   3.9394196571e+01    0.1985862    0.1301878 -45.17 0.0004198315    1.599    0.375
        53 -10.8762    145.4371     50.4505   5.4894236404e+01   4.2055930236e+01    0.2646818    0.2458897 -66.73  0.000769599    1.154    0.133
        54  -9.6131    213.4479     50.5211   4.3832436098e+01   2.5885497544e+01    0.1337234    0.1197508 -65.69 0.0002229619    1.005    0.005
        55 -14.3986     98.0258     71.5731   7.4205557641e+01   4.9071091542e+01     1.577806    0.8524016  35.31  0.002076138    1.942    0.485
        56  -9.6803    194.6023     47.8457   4.5667143888e+01   3.0591786469e+01    0.1846757    0.1179022 -46.56 0.0003865945    1.515    0.340
        57  -9.9807    168.6078     81.1913   5.9195535522e+01   3.1536314103e+01    0.2129059    0.1435717 -24.27 0.0005604735    1.679    0.405
        58 -10.2637    116.0484     45.9042   6.0239157019e+01   4.9575940003e+01    0.2082057    0.1920299  24.52 0.0003800701    1.008    0.008
        59 -10.5205    204.4048     43.5791   4.3271789841e+01   2.8888996806e+01    0.2332554    0.2156398  46.29  0.001443678    1.249    0.199
        60 -11.1211    181.8591     43.2986   4.6313655945e+01   3.4236716206e+01    0.2376663    0.2266185 -74.33  0.000179746    1.042    0.040
        61 -11.1247    156.9590     43.6214   5.0539569859e+01   4.0224656741e+01    0.3131114    0.2388011  61.10 0.0006642555    1.246    0.198
        62 -10.6736    140.9318     43.8528   5.3749191271e+01   4.4065644308e+01    0.2213112    0.2049953 -18.15 0.0003357778    1.139    0.122
        63 -11.4648    128.8179     43.0151   5.6131049012e+01   4.7051388901e+01    0.2605271      0.24501  35.49   0.00152572    1.010    0.010
        64 -10.5586    122.0685     43.4755   5.7885422897e+01   4.8553282637e+01    0.2321819    0.1891267   1.55 0.0004993742    1.336    0.251
        65 -10.8542    196.8786     41.3662   4.3688502996e+01   3.0929298776e+01    0.2834205    0.2098072 -16.83  0.001518031    1.665    0.400
        66 -11.8944    217.1583     39.0790   4.0663131858e+01   2.6590837056e+01    0.4337686    0.3205792  24.30  0.002252748    2.053    0.513
        67  -9.9051    226.1433     39.4711   3.9779953191e+01   2.4566703660e+01    0.2063758    0.1449054 -61.90 0.0005795363    1.319    0.242
        68  -9.7311    159.8794     36.4453   4.7880457483e+01   4.0447238603e+01    0.1987878    0.1284611  62.98  0.000356207    1.452    0.311
        69 -11.0350    140.5241     35.0318   5.1000243405e+01   4.5312754158e+01    0.3118934    0.1955193  49.14 0.0003595828    1.482    0.325
        70  -9.4131    240.5013     34.4485   3.7265089009e+01   2.2170984692e+01     0.123208    0.1037893 -65.04 0.0001932669    1.021    0.021
        71 -10.2361    176.4351     33.4890   4.4428116949e+01   3.6796450920e+01    0.2601041    0.1269265  66.14 0.0006984387    1.948    0.487
        72 -10.2017    148.9229     32.5799   4.8631702055e+01   4.3584432143e+01     0.399662    0.1700372  32.93  0.001219685    4.619    0.784
        73  -9.5576    216.5025     28.4567   3.8250087402e+01   2.8061666939e+01    0.1252978    0.1122423 -78.16 0.0001105657    1.061    0.057
        74 -11.8527    241.8325     22.6527   3.4662259950e+01   2.3330029850e+01    0.3197999    0.2088126 -64.17 0.0005276882    1.348    0.258
        75 -12.0073    234.7392    163.7928   6.6640804601e+01   2.8122874087e+00     0.455235    0.2991562  34.42  0.002423506    1.636    0.389
        76 -12.4758    238.9066    158.4996   6.4813340935e+01   3.0060873365e+00    0.5055528    0.3639195 -50.40  0.002738103    1.633    0.388
        77 -13.6410    247.7648    139.9349   5.9431772583e+01   4.6117816391e+00      1.77506    0.5182705 -36.26   0.00635748    2.987    0.665
        78 -12.7089    197.4471    137.5610   6.7790264818e+01   1.4467214578e+01    0.4466192    0.3450605 -34.76  0.002268597    1.209    0.173
        79 -10.7480      3.3329    140.1098   1.1930906146e+02   4.4629832206e+01    0.2437488    0.1912027 -58.08  0.001607834    1.233    0.189
        80 -11.2490    148.9397     21.7897   4.5285985456e+01   4.4801033259e+01    0.3763327    0.2387431  60.12  0.001775247    1.405    0.288
        81 -10.9091    153.9828     20.0632   4.3945972186e+01   4.3760993668e+01    0.2370629    0.1801493  54.39 0.0003639843    1.217    0.178
        82 -10.7007    141.5662     21.6520   4.6508802390e+01   4.6595771453e+01    0.4178841    0.2195481  77.37  0.001797311    2.297    0.565
        83 -10.6928     33.8283    135.8199   1.1036522206e+02   4.3272122764e+01    0.1882839    0.1467773  73.98  0.001081237    1.364    0.267
        84 -10.3847    208.9182     18.9861   3.6799544403e+01   3.0859329609e+01    0.2016572    0.1684309 -72.53  0.001294722    1.050    0.048
        85 -10.0687    202.0154     17.6566   3.7179296021e+01   3.2578284779e+01    0.1793023    0.1443071  81.77 0.0005147466    1.131    0.115
        86 -13.2722    203.1888    128.3463   6.4506692239e+01   1.5054646800e+01    0.7818039    0.4777432  31.87  0.003432916    1.971    0.493
        87 -12.8372    218.2674    122.0608   6.0294569636e+01   1.3159274224e+01    0.8043013    0.5283009 -45.75  0.003933624    1.455    0.313
        88 -12.3697     49.0838    142.0486   1.0694798654e+02   4.0134933373e+01    0.7062805    0.4660855  16.94  0.003576763    1.906    0.475
        89 -10.9014    195.2120    112.9892   6.2309119485e+01   1.9632153020e+01    0.2643684    0.2296221  46.63  0.001402161    1.225    0.184
        90 -10.9841    111.8467    109.8511   8.1397557787e+01   3.8302808528e+01    0.2137475    0.1911585  89.59 0.0009133503    1.329    0.247
        91 -10.9020     89.9649     98.2876   8.4859008075e+01   4.4970581571e+01    0.5672051    0.1889904 -46.77  0.001876726    2.802    0.643
        92 -11.9154    141.0379     96.6388   6.9836406393e+01   3.4987283268e+01    0.5203447    0.3482473 -42.25  0.002314947    1.473    0.321
        93 -10.4095     15.4904     98.4885   1.1017421683e+02   5.3860308407e+01    0.2042565    0.1066198  35.19   0.00103481    2.274    0.560
        94 -10.8921     71.9921     93.4998   8.9434486598e+01   4.8971646499e+01    0.2124557    0.1434304  33.05 0.0009311087    1.585    0.369
        95 -13.0208     71.4588     84.7713   8.7157769556e+01   5.0999876794e+01     0.681536    0.4489538  13.83  0.003202446    1.842    0.457
        96 -13.2292     33.0477     88.1958   1.0189640377e+02   5.4899771727e+01    0.5881396    0.4824097  13.27  0.003597062    1.381    0.276
        97 -13.4635     40.7396     81.9142   9.7515381843e+01   5.5583664879e+01     0.584143    0.5025667 -15.97   0.00277376    1.162    0.139
