#   1 NUMBER                 Running object number                                     
#   2 MAG_AUTO               Kron-like elliptical aperture magnitude                    [mag]
#   3 X_IMAGE                Object position along x                                    [pixel]
#   4 Y_IMAGE                Object position along y                                    [pixel]
#   5 X_WORLD                Barycenter position along world x axis                     [deg]
#   6 Y_WORLD                Barycenter position along world y axis                     [deg]
#   7 A_WORLD                Profile RMS along major axis (world units)                 [deg]
#   8 B_WORLD                Profile RMS along minor axis (world units)                 [deg]
#   9 THETA_WORLD            Position angle (CCW/world-x)                               [deg]
#  10 FWHM_WORLD             FWHM assuming a gaussian core                              [deg]
#  11 ELONGATION             A_IMAGE/B_IMAGE                                           
#  12 ELLIPTICITY            1 - B_IMAGE/A_IMAGE                                       
         1 -11.7531     61.0151     23.8698   1.0230495885e+02   6.3827334396e+01    0.4860957    0.2998097 -42.95  0.002544355    1.492    0.330
         2 -11.5426     25.5132     20.2398   1.1712046101e+02   6.8525961973e+01    0.4904488    0.2557512 -26.95  0.002383093    2.056    0.514
         3 -10.8685    107.9450     17.7091   8.2884325222e+01   5.6038405751e+01    0.4007325    0.2489787 -10.68 0.0007877111    1.673    0.402
         4 -11.0533     75.4313     17.3553   9.3534671095e+01   6.2623090619e+01    0.3689125    0.2286541  -1.18 0.0008937468    1.999    0.500
         5 -11.7784     26.2170     13.7233   1.1416839046e+02   6.9756123773e+01    0.2551159    0.2428676  19.09 0.0004117072    1.402    0.287
         6 -12.1991    130.7409     13.2742   7.5088870561e+01   5.1150141923e+01    0.5905557    0.4213456  19.25  0.002740604    1.405    0.288
         7 -10.1300     99.7020     14.4792   8.3846676994e+01   5.8278401650e+01    0.2584676    0.1795474 -19.41   0.00062505    1.345    0.256
         8  -9.7324    175.6899     11.9669   6.6234512240e+01   3.9460689175e+01    0.2038729    0.1869053  -2.03 0.0003675783    1.085    0.078
         9 -11.0028    119.6770     11.7622   7.7070356786e+01   5.4042354466e+01    0.2490857    0.2276233  15.93 0.0005756521    1.057    0.054
        10 -10.9595     75.2026      4.7696   8.7265311574e+01   6.4492606835e+01    0.8558395    0.2765548 -37.17  0.003140949    3.126    0.680
        11 -11.1466     77.9592      9.5240   8.8719061675e+01   6.3331349861e+01    0.4175073    0.2382787  32.18  0.001280396    1.797    0.444
        12 -11.5850     81.3927      6.0128   8.5676785435e+01   6.3148919951e+01    0.2887032    0.2173794 -14.93 0.0002017284    1.178    0.151
        13  -9.9269      1.8857      8.2081   1.2532096459e+02   7.2423665992e+01    0.2238113    0.1353704  87.27  0.001185296    2.868    0.651
        14 -10.5131    161.0550      8.0069   6.7096388645e+01   4.3773385455e+01    0.2203977    0.2032842  32.92 0.0003025845    1.006    0.006
        15 -10.1997      8.9901      7.6278   1.2106625493e+02   7.2185102434e+01    0.3303989    0.1554177 -21.47  0.001729257    2.455    0.593
        16 -10.4189    127.2551      5.6324   7.2584649126e+01   5.2832396795e+01    0.2812576    0.1617912 -32.72   0.00119074    1.815    0.449
        17  -9.9783    115.6626      5.1023   7.5058688183e+01   5.5736865815e+01    0.2084901    0.1711493   0.92 0.0006892275    1.132    0.117
        18  -9.3357     60.2435      5.1447   9.3466187076e+01   6.7035177014e+01    0.3063447   0.09146826  45.09  0.001107819    3.905    0.744
        19  -9.8752     91.9180      4.0192   8.1153099803e+01   6.1247973459e+01    0.2166228    0.1821646   3.74 0.0006221281    1.025    0.024
        20 -11.8214     27.6621      2.8790   1.0832910459e+02   7.1637166064e+01    0.4503154    0.2607387  20.46  0.002104786    1.960    0.490
        21  -9.5720     18.7362      3.9829   1.1391554136e+02   7.2228000484e+01    0.1641465     0.115013 -39.23 0.0003193974    1.076    0.071
        22  -9.2293    100.7412      3.6387   7.8324996787e+01   5.9364023190e+01    0.1512482   0.09579353  15.88 0.0004126569    1.628    0.386
        23  -8.7822    124.2823      1.2717   7.1312024589e+01   5.3996284992e+01     0.151048   0.09681825  29.66            0    1.498    0.332
        24 -11.5709     73.8322    238.2954   1.3630914553e+02   2.0454221812e+01    0.4554543    0.2094902  47.47  0.003145308    1.554    0.357
        25 -10.1136    243.0210    247.6485   1.1008000299e+02  -3.3703344994e+00    0.1491972    0.0925775  27.61 0.0005424092    1.068    0.064
        26 -10.9763    247.7725    249.9084   1.0966980712e+02  -4.1708574636e+00    0.4073462    0.1131069  35.30  0.002112143    2.473    0.596
        27 -10.3056    250.4785    244.0340   1.0845810801e+02  -4.0941019912e+00    0.2592136    0.1411198 -15.52  0.001833769    2.018    0.504
        28 -11.1137    182.0621    247.6446   1.1961538467e+02   5.0880342936e+00    0.3505757    0.2090288  -4.77  0.002145161    2.886    0.654
        29  -9.4270    168.6286    250.7018   1.2210107585e+02   6.6531297615e+00    0.1057537     0.063233  23.66 0.0007029411    1.740    0.425
        30 -10.0942    127.9149    249.6423   1.2851453032e+02   1.2294356028e+01    0.1401893    0.1309662  27.60 0.0009971488    1.375    0.273
        31  -9.7330     72.8523    250.0692   1.3717715955e+02   1.8970392628e+01    0.1214131    0.1085474  18.68  0.001115703    1.728    0.421
        32 -10.3688     32.1624    249.3064   1.4319126781e+02   2.3278132367e+01    0.1960878     0.122477 -57.41  0.001618685    2.515    0.602
        33 -11.6938     27.8057    246.1336   1.4370368656e+02   2.4120962253e+01    0.2826078    0.1542161 -86.97  0.002161268    1.806    0.446
        34 -12.3727     21.1608    248.7148   1.4474458550e+02   2.4374882480e+01    0.4622205    0.1142576  47.23   0.00299853    2.308    0.567
        35 -11.5234     14.4136    244.6848   1.4557625697e+02   2.5526506841e+01    0.2213236   0.09126024  86.91  0.001634007    2.281    0.562
        36 -10.6997     11.5038    250.1284   1.4614120483e+02   2.5032669724e+01    0.1912203   0.05677572  50.21   0.00134634    2.002    0.500
        37 -10.2545    137.1255    247.3627   1.2683037432e+02   1.1339636582e+01    0.1447133    0.1305757  23.92 0.0007008564    1.348    0.258
        38 -10.0133    169.9840    228.9859   1.1941557792e+02   8.8445671311e+00    0.1382276   0.09990269  36.34 0.0009046874    1.018    0.017
        39 -10.1696     86.2973    233.4393   1.3396324959e+02   1.9671666173e+01    0.1697933      0.10015  74.57  0.001188594    1.882    0.469
        40 -10.8154    115.9823    226.8669   1.2843093544e+02   1.6800183978e+01     0.278843    0.1070707 -60.38  0.001509816    3.487    0.713
        41 -10.2619    190.4250    226.4602   1.1564076841e+02   6.0802891633e+00    0.1837437    0.1500675  12.26 0.0007325637    1.244    0.196
        42 -10.3125    129.7417    226.7335   1.2605431621e+02   1.4933055572e+01    0.3285999    0.1196446  49.47  0.001659987    2.449    0.592
        43 -10.3268     88.1105    227.1479   1.3319138233e+02   2.0345378799e+01    0.1475105    0.1223707  40.53  0.001224745    1.291    0.225
        44  -9.5553      6.6662    227.3033   1.4618453520e+02   2.8676997995e+01    0.0966254   0.04055819  59.83 0.0005690545    1.660    0.398
        45 -10.1504    144.4402    226.5332   1.2350151245e+02   1.2875676819e+01    0.1099929     0.082721  43.17  0.000115628    1.035    0.034
        46 -10.5391     66.4766    226.3230   1.3673661479e+02   2.3004474544e+01    0.2194733    0.1017127  42.84  0.001025947    1.652    0.395
        47 -10.4702     81.4362    224.7184   1.3413149480e+02   2.1506886610e+01    0.1982906    0.1398215  64.04 0.0009157451    1.206    0.171
        48 -10.8860     13.1161    222.1538   1.4504709049e+02   2.8905949753e+01    0.1458782    0.1170618  70.62 0.0003626111    1.235    0.190
        49 -11.2931    141.4669    221.3566   1.2344357834e+02   1.3977689352e+01    0.2839956    0.1782079  23.61  0.001428712    1.867    0.464
        50  -9.2227    134.8825    223.0000   1.2477410144e+02   1.4705968045e+01    0.1814108   0.04861318  40.42  0.000788392    2.846    0.649
        51 -10.9753    123.4455    221.4815   1.2661289768e+02   1.6522598940e+01    0.2304258     0.168546  40.41 0.0009580581    1.125    0.111
        52  -9.0938     51.6628    222.6752   1.3894990381e+02   2.5159465720e+01   0.07957108   0.07574921  -7.60 0.0006319361    1.720    0.419
        53  -9.8655    165.6302    220.7440   1.1914884252e+02   1.0475382881e+01    0.1235813    0.1093042 -59.66 0.0009457182    1.590    0.371
        54 -10.3489    174.0330    219.9882   1.1759290162e+02   9.2938110786e+00    0.1787584    0.1323512  35.28 0.0005810938    1.015    0.015
        55  -9.5630     21.9821    220.2498   1.4359994448e+02   2.8419296534e+01    0.1112713    0.0610668  43.66 0.0004148966    1.498    0.333
        56  -9.7048    250.2994    219.0723   1.0480032545e+02  -2.0786882151e+00    0.1530947    0.1083077  12.47 0.0006160898    1.116    0.104
        57  -9.9082     50.3521    218.2647   1.3891373611e+02   2.5971868649e+01    0.1653289    0.1058649  33.52  0.001141661    1.696    0.411
        58 -10.8221     10.0527    217.0280   1.4534653455e+02   2.9949353700e+01    0.2304529    0.1114896  57.46 0.0009041426    1.462    0.316
        59 -10.6575    201.5745    216.1647   1.1233019003e+02   5.4961465600e+00    0.2166838    0.1574528  20.47  0.001273361    1.168    0.143
        60 -10.1578    191.5275    216.9553   1.1416146568e+02   6.9608431778e+00    0.1611769    0.1279192  24.46   0.00114941    1.094    0.086
        61  -9.8733    194.5004    215.4785   1.1344202753e+02   6.6665977953e+00    0.2133722    0.0880303  39.42 6.049268e-05    1.845    0.458
        62  -9.9469     24.5882    216.9207   1.4305036880e+02   2.8697624261e+01       0.2055   0.07327383  51.24  0.001333254    1.975    0.494
        63 -10.8596      6.2561    245.1673   1.4673803179e+02   2.6156236077e+01    0.2376846     0.113041  74.65  0.001412013    1.655    0.396
        64  -9.5453    137.1811    215.6304   1.2355507368e+02   1.5373316945e+01    0.1639663   0.08580016  34.07 0.0009432675    1.717    0.418
        65  -9.9830     31.0015    215.4976   1.4195255668e+02   2.8325779440e+01    0.1411008    0.0740331  41.83  0.001035555    1.598    0.374
        66 -10.1752    170.1927    213.1572   1.1736755055e+02   1.0716619383e+01    0.1555136    0.1178615  49.37  0.000911106    1.321    0.243
        67  -9.6548    142.8162    213.3929   1.2228619999e+02   1.4850230792e+01    0.1595119   0.08749981  34.01 0.0005441129    1.610    0.379
        68 -10.9510     20.5502    211.4407   1.4347139370e+02   2.9920677306e+01    0.2519948    0.1139362  68.34 0.0007458621    1.825    0.452
        69  -9.7799    212.9011    211.8689   1.0977234820e+02   4.1994999429e+00    0.1457133    0.1193881  35.70 0.0005956069    1.314    0.239
        70 -10.3004    208.9776    212.0607   1.1046610412e+02   4.7892505429e+00    0.1807744    0.1314642  25.94 0.0005111913    1.027    0.026
        71 -12.0539      4.4642    207.4154   1.4590786507e+02   3.1915538176e+01    0.3494486    0.2008908  72.43  0.002873119    1.289    0.224
        72  -9.3951    218.6449    206.6452   1.0799262147e+02   3.8506677783e+00    0.1282734   0.07136585  17.00 0.0007027234    1.856    0.461
        73  -9.2815    150.3059    205.3136   1.1992416403e+02   1.4829850285e+01    0.1123104   0.08173443  16.17 0.0004887297    1.621    0.383
        74  -9.3754     27.5444    205.5095   1.4205277587e+02   3.0242793191e+01   0.09853917   0.06896082  65.63 0.0004139162    1.043    0.041
        75  -9.4004    238.5269    201.4511   1.0383693680e+02   1.2767841385e+00    0.1211938   0.08524535  19.91 0.0001243863    1.042    0.041
        76 -10.6782    210.6440    201.3198   1.0851472854e+02   5.6970753663e+00    0.1649586     0.141378  59.25  0.001115975    1.762    0.433
        77  -9.0460     34.6694    200.7283   1.4059169297e+02   3.0360660648e+01   0.07890774   0.07659024 -47.15 0.0002549238    1.588    0.370
        78  -9.6881     19.6606    200.0223   1.4312932725e+02   3.1850633234e+01    0.1414499   0.04710522 -57.48 0.0007048782    4.349    0.770
        79 -10.4673    227.1713    196.7829   1.0494264505e+02   3.5352842408e+00     0.240762    0.1509658  12.01 0.0008136811    1.505    0.336
        80 -11.7089    192.0684    194.7615   1.1075483724e+02   9.5060603221e+00    0.2819023    0.2505954  53.40  0.001961441    1.450    0.310
        81  -9.7777    203.0109    195.9711   1.0899047925e+02   7.5524045729e+00    0.1870737    0.1460837  24.95 0.0006267201    1.023    0.022
        82 -10.6781    232.1538    191.7209   1.0323718895e+02   3.2676179283e+00    0.2881044    0.1589986   4.33  0.001521728    2.115    0.527
        83 -10.3263    163.1916    191.1593   1.1554919437e+02   1.4765748206e+01    0.2344993   0.09102353 -37.02  0.001025117    3.447    0.710
        84 -11.5598    215.5559    194.1565   1.0649064826e+02   5.7014767344e+00    0.2900628    0.1765876 -27.00  0.001704287    1.852    0.460
        85 -11.3502    187.6106    189.4639   1.1071789106e+02   1.0924685928e+01    0.2897056    0.1493292 -29.63  0.001500883    2.380    0.580
        86  -9.3647    205.6039    190.2284   1.0758236783e+02   7.8051105965e+00    0.1527912    0.1066765  -8.28 0.0004970763    1.554    0.356
        87 -10.4459    168.0568    184.1074   1.1353704677e+02   1.4961574429e+01    0.4137216    0.2262195  61.46  0.001764722    3.302    0.697
        88  -9.5447     61.6132    184.7958   1.3456869555e+02   3.0295891519e+01    0.1492231   0.08935896  89.71 0.0009519934    1.710    0.415
        89  -9.9537    236.4692    182.4582   1.0086307388e+02   3.5469923200e+00    0.1256617    0.0943804  18.10 0.0002285094    1.005    0.005
        90 -12.0055     16.2996    183.2238   1.4294101398e+02   3.5006982766e+01    0.3304192     0.175942  78.13   0.00190314    1.566    0.362
        91 -11.5466    248.1145    182.7624   9.8991527891e+01   1.6252307892e+00    0.4311315    0.1680275  27.07  0.001895925    2.669    0.625
        92 -11.5146    224.2691    178.3641   1.0220078085e+02   6.0445201672e+00    0.2822215    0.2055654  20.52 0.0004958827    1.092    0.084
        93  -9.8306    250.4687    190.0079   9.9919747479e+01   5.3672595839e-01    0.1630788    0.1029735 -16.74   0.00054034    1.567    0.362
        94 -10.4842      2.1516    180.1262   1.4533364792e+02   3.6665762260e+01    0.1634677    0.1066052  60.63 0.0005395634    1.190    0.159
        95 -11.7943    244.7847    177.8602   9.8629013931e+01   2.6683994832e+00    0.3346488    0.1741184   4.38  0.001641729    2.291    0.563
        96  -8.8435     36.4338    178.5093   1.3893530137e+02   3.4050348939e+01     0.104822   0.07997989  71.41 0.0004155446    1.023    0.022
        97 -10.7876    200.3399    176.7483   1.0619879601e+02   1.0386649225e+01    0.2109521    0.1546213  -7.89 0.0008190675    1.446    0.308
        98  -9.5170     70.2057    177.5922   1.3223580897e+02   3.0590384461e+01    0.1351362    0.1004754  31.50 0.0004236171    1.511    0.338
        99  -9.6598    211.2754    175.3390   1.0394790566e+02   8.6497275475e+00    0.1308968   0.08396801  12.24 0.0006998572    1.613    0.380
       100 -10.2350    241.5427    173.5101   9.8345760744e+01   3.6677638965e+00    0.1287878   0.09586982  15.29 0.0001056833    1.030    0.029
       101  -9.7132    183.3382    173.3202   1.0879113036e+02   1.3851950752e+01     0.135185   0.08921108  15.07 0.0007049961    1.711    0.416
       102 -10.9980     17.9360    173.0199   1.4212232932e+02   3.6699663845e+01    0.2930304    0.1026795  50.48  0.001690459    2.287    0.563
       103  -9.4340     59.6211    171.7982   1.3383481237e+02   3.2880739638e+01    0.1526352   0.09215932 -88.51 0.0009446819    1.670    0.401
       104  -9.6691     74.4949    171.4919   1.3075450621e+02   3.1189525733e+01    0.1130687   0.09655412  66.87 -4.709669e-06    1.020    0.020
       105 -10.4528    196.9988    169.2599   1.0545615435e+02   1.1971714354e+01    0.1753351   0.09732039  40.34 0.0006499038    1.545    0.353
       106  -9.8639      4.5811    167.7362   1.4437985102e+02   3.8708343549e+01    0.1864536    0.0743112 -77.03  0.001139547    2.114    0.527
       107  -9.6659    209.9982    166.4943   1.0251993338e+02   9.9943081244e+00    0.1962267     0.110331  38.81 0.0004414418    1.524    0.344
       108  -9.3054     34.6676    166.7410   1.3847156199e+02   3.6393321469e+01   0.08997981   0.07980765 -45.20  0.000250374    1.569    0.363
       109 -10.7964      9.9867    165.1627   1.4323087059e+02   3.8779298300e+01    0.1605145    0.1118183  83.32 0.0003248819    1.118    0.106
       110 -10.6691     52.9975    163.0158   1.3440471305e+02   3.5268150272e+01    0.4608619    0.2438111 -34.35  0.001951136    4.973    0.799
       111  -9.1112    229.5023    164.5444   9.8659350241e+01   6.7517645759e+00    0.1335307    0.1019959  16.53 0.0001274692    1.044    0.042
       112 -10.4808     36.2632    161.7140   1.3777648014e+02   3.7200583805e+01    0.3153777    0.1243945 -69.69  0.001729958    2.275    0.561
       113 -11.0026    246.5070    162.4738   9.5367674653e+01   4.0313302633e+00     0.209427    0.1526432  41.33  0.001034827    1.485    0.326
       114 -10.9649    247.8198    158.8466   9.4421191480e+01   4.2056886995e+00    0.3048566    0.2581265 -35.10  0.001942941    1.676    0.403
       115  -9.2457    200.3135    162.7314   1.0359460165e+02   1.2255966215e+01    0.1176039     0.102579  60.07  0.000261505    1.549    0.354
       116  -9.8965    238.3936    158.7825   9.5981051994e+01   5.8564950435e+00    0.1794768    0.1075236  -9.18 0.0007940393    1.675    0.403
       117  -9.8957     48.3311    158.6872   1.3499833204e+02   3.6596475593e+01    0.1192657   0.06846082  65.64  0.000257655    1.676    0.403
       118 -10.2078      9.0369    158.3295   1.4306682914e+02   4.0133816638e+01      0.28146    0.1037549  30.95  0.001609501    2.776    0.640
       119 -10.8448     22.2942    156.7016   1.4029517014e+02   3.9404296832e+01    0.2787555    0.2427147  67.78  0.002302264    1.189    0.159
       120  -9.3844     23.6997    152.6711   1.3973067424e+02   4.0071498500e+01    0.1165229    0.1105659  -1.80 0.0009541324    1.511    0.338
       121  -9.5490    217.3129    154.7104   9.8847479729e+01   1.0177728847e+01    0.2753435    0.1093145  46.57  0.001140169    2.434    0.589
       122  -9.9184    205.2780    152.2612   1.0056988369e+02   1.2765491930e+01    0.2335986    0.1609328 -20.10  0.001266303    1.503    0.335
       123  -9.2558    151.6815    153.3356   1.1159706023e+02   2.2664425289e+01     0.131426    0.1039937  75.10 0.0005624421    1.700    0.412
       124 -10.2558     10.3373    152.7030   1.4250049871e+02   4.1114799817e+01    0.1658771    0.1128326  69.99 0.0005340992    1.186    0.157
       125 -10.4186    178.4091    151.5194   1.0567792076e+02   1.7991624078e+01    0.2835352    0.2207461  49.67  0.001593547    1.350    0.259
       126  -9.2405     92.6782    148.2927   1.2392017335e+02   3.3240663924e+01    0.1277141   0.08762422  68.12 0.0005009454    1.611    0.379
       127  -9.3853    233.5328    146.9536   9.4352663989e+01   8.1435869242e+00     0.194281     0.120332 -20.97   0.00102365    1.571    0.363
       128 -10.4896    207.0037    145.9531   9.8926035149e+01   1.3308832593e+01    0.2612203    0.1740178  39.20 0.0007797098    1.358    0.264
       129  -9.0918     37.5064    146.5028   1.3626162904e+02   4.0078629307e+01    0.1115953   0.09079452  81.28 0.0001181191    1.006    0.006
       130  -9.6973    215.6719    145.6838   9.7257469539e+01   1.1675594832e+01    0.1457718    0.0918674  15.01 0.0007045333    1.677    0.404
       131 -11.0475      7.8696    145.1461   1.4258210987e+02   4.2766408627e+01    0.1941598    0.1209963  42.52  0.001032355    1.599    0.375
       132 -10.7046      3.4798    143.2921   1.4340224211e+02   4.3431680982e+01    0.2156413      0.15118 -46.40  0.001160858    1.910    0.477
       133  -9.9800    213.0249    141.4568   9.6832952696e+01   1.2759630448e+01    0.3008111    0.1547717   7.24  0.001051517    3.618    0.724
       134  -9.8463     37.2187    142.3743   1.3595414806e+02   4.0942610755e+01     0.156238   0.08769746  46.27 0.0009515928    1.690    0.408
       135 -10.6341     11.9872    141.8229   1.4150190809e+02   4.3131579196e+01    0.1529521   0.09404831 -63.76 0.0004673893    1.603    0.376
       136 -10.3455    236.2274    138.6777   9.2096600546e+01   8.6583027796e+00    0.2132301    0.1928954   5.17 0.0005673736    1.233    0.189
       137 -11.1352     57.2851    138.3236   1.3087491379e+02   3.9742988251e+01    0.4053373    0.1958811  63.37  0.001937629    2.554    0.608
       138 -11.6130      3.5628    136.1814   1.4298718597e+02   4.4838152222e+01    0.4439588    0.1764414 -60.06  0.001875772    2.450    0.592
       139 -11.7008      9.1381    136.7845   1.4180197792e+02   4.4344045897e+01    0.1942987    0.1920404  65.40 0.0002477109    1.382    0.276
       140 -10.4566     21.7973    136.1833   1.3892538222e+02   4.3531457008e+01     0.188318    0.1240218  53.04  0.001295549    1.438    0.305
       141  -9.8977    138.3219    135.2816   1.1108605210e+02   2.8323735457e+01    0.2583542    0.1577422  31.57 0.0007842734    1.725    0.420
       142  -9.4351     67.7128    134.0008   1.2781746848e+02   3.9441643426e+01    0.1497174    0.1001889 -68.61 0.0008734363    1.407    0.289
       143 -12.0812     36.4527    130.9193   1.3502835794e+02   4.3385542208e+01    0.3360594    0.2535827 -81.85  0.001547794    1.127    0.113
       144 -10.2222     73.9250    129.4068   1.2562925092e+02   3.9639562595e+01    0.2267675    0.1675431 -58.90 0.0006248228    1.318    0.241
       145  -9.3895     29.1666    130.6108   1.3673687138e+02   4.4085990349e+01    0.1244096    0.1088436   4.50 0.0002994494    1.578    0.366
       146 -10.0040    126.5075    129.4778   1.1268900933e+02   3.1563862911e+01    0.1351133    0.1293835  38.56 0.0001889999    1.006    0.005
       147  -9.3909    242.9942    128.4614   8.8671090553e+01   8.6276118284e+00    0.1875795    0.1234226  40.88 0.0004146823    1.482    0.325
       148  -9.5592     60.0864    128.5370   1.2895959606e+02   4.1487597164e+01    0.1617909    0.1150234  38.95 0.0003468708    1.470    0.320
       149 -10.1652    249.4745    130.0058   8.7968765162e+01   7.2166612646e+00    0.2103381    0.1662655  26.47  0.001252086    1.179    0.152
       150  -9.8130      1.3516    126.7705   1.4292219196e+02   4.6881460792e+01    0.2033469   0.07931075 -84.40   0.00110889    2.082    0.520
       151 -10.4639    219.6365    124.5554   9.1792494568e+01   1.3757651744e+01    0.2622847    0.2205547   8.31 0.0005524426    1.019    0.019
       152 -11.6740     10.4365    122.5238   1.4051628248e+02   4.7184697631e+01    0.3256416    0.2539269 -11.81  0.002378125    1.911    0.477
       153 -11.7809     18.6762    115.1104   1.3786852698e+02   4.8187477504e+01    0.5213351    0.1674441 -56.15  0.002450526    2.849    0.649
       154 -12.1454     16.4684    108.8294   1.3784181881e+02   4.9693708334e+01    0.3502554    0.2673188 -89.10 0.0006675114    1.074    0.069
       155  -9.4602     20.5131    121.5583   1.3799964676e+02   4.6679136406e+01    0.1116195    0.0894407 -89.66 0.0001523332    1.007    0.007
       156  -9.8485     44.5171    125.5456   1.3246774210e+02   4.3766773811e+01    0.1171507    0.0993432 -89.53 0.0002373951    1.005    0.005
       157  -9.4729     55.2861    117.3577   1.2864303816e+02   4.4428054558e+01    0.1231993    0.0850875 -42.65  0.000292532    1.677    0.404
       158 -10.1400    179.4011    116.2673   9.7670346601e+01   2.3478856562e+01    0.2609841    0.1895849  39.99 0.0004566954    1.298    0.230
       159  -9.3943     63.4835    114.5783   1.2604754114e+02   4.4110371611e+01    0.1236708    0.1105215 -86.58 0.0001736812    1.028    0.028
       160 -10.0499     35.0000    114.0401   1.3354455663e+02   4.7129432878e+01    0.2375838    0.1432799 -72.75  0.001424306    1.404    0.288
       161 -11.0565     36.6968    110.3363   1.3264274962e+02   4.7790920696e+01    0.4067172    0.2178686  78.49  0.001326943    2.234    0.552
       162  -9.6292     66.6990    113.0285   1.2493170906e+02   4.4066136322e+01    0.1721183    0.1424784 -70.36 0.0002096062    1.100    0.091
       163  -9.3571      5.0050    113.3279   1.4114556019e+02   4.9458311335e+01    0.1724551   0.03725887  46.35 0.0007048942    4.298    0.767
       164  -8.8650    212.6724    112.6555   9.0191830296e+01   1.6880595678e+01    0.1582574    0.1016954  14.24  0.000705066    1.746    0.427
       165  -9.9059     42.4808    110.4895   1.3110497479e+02   4.7230015077e+01    0.1202386    0.1016641 -82.44  6.73473e-05    1.013    0.013
       166  -9.7351    167.4622    109.0128   9.8453257264e+01   2.7273749483e+01     0.219464    0.1448125 -33.44 0.0005597672    1.547    0.354
       167 -10.0276    242.2043    108.3888   8.4062470886e+01   1.1274186171e+01    0.1791143    0.1346588  56.38 0.0006625252    1.651    0.394
       168  -9.3263    117.2947    108.7005   1.1051981324e+02   3.7372295719e+01    0.1373274     0.111254  83.40 0.0006988984    1.570    0.363
       169 -10.9550     62.0714    106.8854   1.2517399751e+02   4.5968392202e+01    0.2812018    0.1575114 -56.22 0.0005768323    1.611    0.379
       170 -11.0085     23.3320    107.3128   1.3587117561e+02   4.9536337709e+01    0.2225103    0.1628734  80.15 0.0002158002    1.257    0.204
       171 -10.5726      6.2853    106.3198   1.4026788325e+02   5.0875372570e+01    0.2682274    0.1449576 -57.28  0.001137644    1.735    0.424
       172 -10.8744      2.9664    105.2321   1.4103893007e+02   5.1295801232e+01    0.1960554    0.1563202 -83.31 0.0004593534    1.059    0.056
       173  -9.5001    133.0364    107.4894   1.0621568807e+02   3.4667379374e+01    0.2016252    0.1240292  19.16 0.0004808977    2.389    0.581
       174  -8.9721    126.7316    106.6888   1.0761567242e+02   3.6038433032e+01    0.1408608    0.1112139  -7.62 0.0001573781    1.544    0.352
       175  -9.8767    223.3380    103.9959   8.6111423205e+01   1.5800784504e+01    0.2059248    0.1679423 -12.76 0.0005249968    1.134    0.118
       176 -10.3459     92.7676    103.4599   1.1594086985e+02   4.2574854950e+01    0.3719913    0.2399376 -76.91  0.001464561    2.092    0.522
       177  -9.3159     32.2505    104.3502   1.3309753517e+02   4.9489061404e+01    0.1188746   0.07433245 -51.41 0.0001776636    1.590    0.371
       178 -11.2098     70.3290    102.5325   1.2206762191e+02   4.5929318153e+01    0.3413635    0.2163632  17.83  0.001007314    2.140    0.533
       179 -10.4091    247.9686    102.4714   8.1712469572e+01   1.0839334028e+01    0.2002657    0.1320674  46.37 0.0006225198    1.580    0.367
       180 -10.3816     36.5400    101.4794   1.3151867788e+02   4.9761977728e+01    0.2118766    0.1738842   1.76  0.000881261    1.617    0.381
       181  -9.7197     10.0558    102.3125   1.3892196873e+02   5.1516563072e+01    0.1452433    0.1307021  88.17  0.001136532    1.173    0.148
       182  -9.8010    120.1896    101.2607   1.0799172960e+02   3.8364304644e+01    0.2310407    0.1801346  13.87 0.0008086092    1.525    0.344
       183 -10.3539     27.9073    100.9744   1.3388098938e+02   5.0583572975e+01     0.167243    0.1388175 -78.07 0.0002855773    1.023    0.022
       184 -11.4567     20.5775     97.7678   1.3555423230e+02   5.1830987052e+01    0.3495609    0.1652675 -84.76  0.001623255    2.014    0.504
       185 -10.6229      3.8105    100.6884   1.4044668685e+02   5.2225308740e+01    0.2466735    0.1666042  47.78  0.001003876    1.599    0.375
       186 -11.1131     62.1878     98.5762   1.2367080563e+02   4.7802100148e+01    0.4420896    0.1979058  44.32  0.002021169    2.451    0.592
       187 -10.2048     92.5949     96.2097   1.1436848221e+02   4.4167898160e+01    0.2686098     0.128763 -55.76  0.001138655    2.064    0.516
       188 -10.4955      7.1131     88.8343   1.3842015935e+02   5.4629645295e+01     0.198544    0.1364992  83.38 0.0003914826    1.317    0.241
       189 -11.4257      8.4054     94.8643   1.3866090135e+02   5.3235683067e+01    0.2310276    0.1649612 -79.19 0.0003051381    1.088    0.081
       190 -10.6571     10.3196     91.3085   1.3775444724e+02   5.3906724227e+01     0.221535    0.1568075  -8.06  0.001479108    2.003    0.501
       191 -11.1930    109.1627     93.1843   1.0895528089e+02   4.2040735712e+01    0.3935025    0.1990415 -44.83  0.001672942    1.919    0.479
       192 -10.1996      1.5056     93.9318   1.4049209116e+02   5.3806920284e+01    0.2146097   0.07829132 -71.79  0.001117486    2.010    0.503
       193  -9.3265    171.3258     91.3349   9.2891292125e+01   2.9459043033e+01    0.1636932    0.1140836  12.77 8.731708e-05    1.717    0.417
       194  -9.5545    115.6852     91.0315   1.0659366646e+02   4.1296838970e+01    0.2013552    0.1794585 -40.04 0.0003730892    1.093    0.085
       195 -10.5685     95.9711     90.6196   1.1205858298e+02   4.4833516974e+01    0.3179931    0.1774784 -20.76   0.00108715    3.851    0.740
       196  -9.6139     37.8881     90.2455   1.2945437093e+02   5.2158959720e+01    0.1571576    0.1193211 -49.70 0.0002473104    1.288    0.223
       197  -9.2679     73.2922     88.7152   1.1835423909e+02   4.8611044557e+01    0.1280117    0.1005385  80.65 0.0002339513    1.538    0.350
       198 -11.2077     46.2792     83.2046   1.2562183256e+02   5.2970215897e+01    0.5404737    0.2503799 -64.41  0.002124714    1.864    0.464
       199 -10.4417    112.9567     86.6054   1.0616325289e+02   4.2713968116e+01    0.2661049    0.1965919  54.68   0.00105202    1.545    0.353
       200 -11.1678     85.3865     82.4947   1.1317125864e+02   4.8255054761e+01    0.4826893    0.2345005 -54.84  0.001725087    1.986    0.496
       201 -10.8885     67.1908     85.0821   1.1942217853e+02   5.0210320627e+01    0.2080163    0.1642854 -40.52 0.0006301375    1.259    0.206
       202 -11.1140    118.2483     83.0240   1.0369154277e+02   4.2436823213e+01    0.3686173    0.2596354 -21.83  0.001179688    1.649    0.394
       203 -11.4236     24.0376     78.9864   1.3199897506e+02   5.5784607597e+01    0.3573164    0.2452146 -72.81  0.002211494    1.195    0.163
       204 -11.6224     19.8835     82.0575   1.3376070010e+02   5.5376145487e+01    0.3094115     0.198278  88.68 0.0003428387    1.524    0.344
       205 -11.4376     15.9847     81.6451   1.3491678797e+02   5.5715418858e+01    0.2715907    0.1849607 -50.87  0.001148714    1.401    0.286
       206 -10.1885      7.1821     82.5745   1.3772597296e+02   5.6006783938e+01    0.3107491    0.1500597 -66.00  0.001078025    1.570    0.363
       207 -10.2674      2.3959     71.8396   1.3798647299e+02   5.8614284858e+01    0.2639969    0.1266146 -55.30  0.001426216    1.725    0.420
       208  -9.7593      7.3574     77.2738   1.3705672090e+02   5.7172697914e+01    0.2394435    0.1216049 -56.06 0.0009502227    1.646    0.393
       209 -10.5372      3.2335     78.2210   1.3844818976e+02   5.7164779040e+01     0.264802    0.1767732 -88.12  0.001436545    1.273    0.214
       210 -11.2236      6.6064     73.7453   1.3686344599e+02   5.7994274484e+01    0.4071251    0.2431281  -1.52  0.002501699    2.379    0.580
       211 -12.3550     72.3260     78.7871   1.1632675667e+02   5.0939797123e+01    0.3991448      0.34137 -19.91 0.0004263601    1.288    0.224
       212 -11.5848    151.0314     78.6284   9.3873857116e+01   3.6316281052e+01    0.2716483    0.2674941  27.01 0.0003560975    1.119    0.107
       213 -10.1990    101.2722     78.4185   1.0726718427e+02   4.6523908799e+01    0.2631786    0.1403299  35.13  0.001124122    2.054    0.513
       214  -9.5851     12.2543     77.9987   1.3560669025e+02   5.6748698343e+01    0.1525634   0.07940684 -72.65 0.0007314658    1.497    0.332
       215  -9.5909    193.4933     77.4303   8.4348777024e+01   2.6456296797e+01    0.1563707    0.1392271  12.60 0.0008061712    1.039    0.038
       216 -11.7772    108.3441     75.3342   1.0428556939e+02   4.5880024988e+01    0.5191085    0.3203851 -26.77 0.0008967594    1.912    0.477
       217 -11.7844     68.9160     67.4469   1.1450367172e+02   5.3888148358e+01    0.3499332    0.2616166 -46.82 0.0007936179    1.178    0.151
       218 -10.2228     54.5635     72.4421   1.2063521109e+02   5.4530954758e+01    0.2527038    0.1944795  54.26 0.0005223762    1.552    0.356
       219 -11.0126     59.0442     76.5521   1.2009663099e+02   5.3103131804e+01    0.3433522    0.2258761  71.80  0.001693421    2.245    0.555
       220 -12.1377     62.5991     72.7098   1.1800165923e+02   5.3535952688e+01    0.4360157    0.4221815  51.34  0.001629044    1.176    0.149
       221 -10.1193    121.6050     76.1999   1.0076445022e+02   4.3128227745e+01    0.2157922    0.1365398 -30.42 0.0009490441    1.650    0.394
       222  -9.8974     49.3040     76.3042   1.2325337206e+02   5.4223763570e+01     0.129561    0.0860788 -37.25            0    1.598    0.374
       223 -11.1808     40.2414     72.9575   1.2558797310e+02   5.5852200745e+01    0.2934296    0.2085997 -77.80 0.0003743644    1.387    0.279
       224 -11.1287     77.7409     71.8685   1.1277984238e+02   5.1697842671e+01    0.2859684    0.2452534  53.64  0.000318612    1.351    0.260
       225 -10.7549     20.8315     66.0539   1.3095367420e+02   5.8910391564e+01    0.2477027    0.1744013  27.56  0.001603357    1.744    0.426
       226 -11.3464     25.8849     68.9149   1.2971032813e+02   5.7923255667e+01    0.4872111    0.2904719 -52.11  0.002875968    1.422    0.297
       227 -11.1605    152.1106     72.1264   9.1620614219e+01   3.7211865894e+01    0.3198087    0.2004924  43.95  0.001267917    1.574    0.365
       228  -9.7085    175.0498     70.7074   8.6037373983e+01   3.1963460319e+01    0.2160708    0.1932868  24.58  0.000280761    1.063    0.059
       229  -9.9561    115.5460     70.5557   1.0074335718e+02   4.5449768687e+01    0.3121508    0.1405048 -41.31   0.00119723    2.135    0.532
       230 -11.1109     49.0321     70.7492   1.2212440424e+02   5.5500666890e+01    0.3006639    0.2053296  40.35  0.001725982    1.698    0.411
       231 -10.3679     50.7017     67.6785   1.2083278027e+02   5.6013906875e+01     0.214476    0.1561358 -45.09 0.0006717944    1.235    0.190
       232 -11.3996    130.4493     65.4279   9.4961213284e+01   4.3311026774e+01    0.5513554    0.2471084 -46.86  0.001969574    2.563    0.610
       233 -10.9605     94.8099     68.6497   1.0638306100e+02   4.9678420423e+01    0.2695732    0.1936143 -21.22 0.0008470187    1.589    0.371
       234 -10.6548     37.1000     67.1525   1.2546898457e+02   5.7437781069e+01    0.3314848    0.2047065 -54.74  0.001386941    1.324    0.244
       235 -11.4886     42.4361     65.0128   1.2311445231e+02   5.7436817706e+01    0.5066682    0.3397995  78.75  0.002692676    2.095    0.523
       236 -10.9304     31.1701     66.2440   1.2736530191e+02   5.8130083636e+01    0.2839986    0.1794706 -69.80 0.0006269388    1.374    0.272
       237 -10.1332      6.9287     67.9551   1.3600656981e+02   5.9267073167e+01    0.1724647    0.1370446 -65.76  0.001244087    1.077    0.071
       238 -10.6255    156.3448     66.4525   8.8827364229e+01   3.7178567767e+01    0.2603337    0.1835092 -50.16 0.0009694143    1.689    0.408
       239  -9.3314    146.7092     66.2990   9.1075592709e+01   3.9479159173e+01    0.1478864    0.1241251 -68.72 0.0002426711    1.561    0.360
       240 -10.8386    119.0635     65.9007   9.8257324743e+01   4.5640409288e+01    0.3096953    0.2440932   5.11 0.0003257613    1.429    0.300
       241 -10.9217    122.5094     61.5303   9.5842954156e+01   4.5740741462e+01    0.3231229    0.2609912   6.43  0.001120541    1.332    0.249
       242  -9.9000     15.1276     66.1337   1.3294720910e+02   5.9240723703e+01    0.1573988    0.1188264  88.75 0.0002669776    1.315    0.239
       243 -11.1112      2.5029     64.6899   1.3706602880e+02   6.0194427116e+01    0.3322832   0.09545337 -60.44  0.001580932    2.326    0.570
       244 -10.9383    106.0195     64.4689   1.0161781087e+02   4.8499648317e+01    0.3616657    0.1793223 -47.06  0.001464944    2.028    0.507
       245 -10.5046     87.1181     52.7937   1.0375924872e+02   5.4214554946e+01    0.3015784    0.1921793 -49.95  0.001398436    1.588    0.370
       246 -11.2265     84.0784     62.9588   1.0809961980e+02   5.2635619586e+01    0.4445021     0.323037 -67.52  0.002030998    1.742    0.426
       247 -10.9813     86.1043     57.8643   1.0580459664e+02   5.3361222868e+01    0.4310048    0.2405545 -45.80 0.0008479589    1.649    0.393
       248 -10.6463     76.6713     65.2164   1.1125200398e+02   5.3286587893e+01    0.3162372    0.1762566  51.08  0.001403548    2.387    0.581
       249 -10.5313    173.9760     63.7496   8.4094913807e+01   3.3310454533e+01    0.2794929    0.2240718 -34.32 0.0005161933    1.273    0.215
       250  -9.2881    141.5878     63.5310   9.1443041252e+01   4.1145770660e+01    0.1530898    0.1446118 -11.69 -2.363575e-05    1.056    0.053
       251 -10.3240     51.8405     62.4669   1.1913608255e+02   5.7050754458e+01    0.2692349    0.1669509 -38.26  0.001427072    1.586    0.369
       252 -11.3105     10.8349     62.4724   1.3386522376e+02   6.0294954285e+01    0.2279309    0.1743837 -59.52 0.0003618276    1.101    0.092
       253 -10.3963     93.0982     61.2547   1.0461249256e+02   5.1490280506e+01    0.2461341    0.1792518 -32.90 0.0005709816    1.306    0.234
       254  -9.8375     71.8227     61.7891   1.1189617877e+02   5.4714169859e+01    0.1996942    0.1659595 -32.11   0.00025592    1.134    0.119
       255 -10.9424     70.3661     58.3369   1.1136571538e+02   5.5654064142e+01    0.3686167    0.1776984 -41.12  0.001251944    1.935    0.483
       256 -11.3742     57.4939     59.5371   1.1631521277e+02   5.7053385892e+01    0.4389619    0.2460861 -46.81  0.002220165    1.529    0.346
       257  -9.8814     38.5076     58.5141   1.2301576022e+02   5.9248803557e+01    0.2313499    0.1368124 -18.35  0.001161356    2.366    0.577
       258 -11.0386     26.9442     61.3719   1.2789738561e+02   5.9543702502e+01    0.3160932    0.2033778  11.62  0.001882094    2.001    0.500
       259 -10.2648     32.9447     60.5107   1.2552687643e+02   5.9276434575e+01    0.3174918    0.1940619 -21.91    0.0017179    2.120    0.528
       260  -9.8420    170.3066     61.3095   8.4084597039e+01   3.4595693537e+01    0.1641071    0.1148708  18.44  0.000190134    1.614    0.380
       261 -10.1809     18.1195     59.6239   1.3077092121e+02   6.0522990646e+01    0.2642666    0.1435861 -83.58 0.0006101364    1.941    0.485
       262  -9.5745    134.3937     60.1964   9.2175702544e+01   4.3372121598e+01    0.2668132    0.1980784  -5.40 0.0003591718    1.514    0.340
       263 -11.4223    137.5458     54.5196   8.9411683673e+01   4.3624613154e+01    0.5316747    0.2710545 -26.57  0.002051401    2.057    0.514
       264 -12.2033    136.0489     50.8512   8.8501782985e+01   4.4584593532e+01    0.4096843    0.3282232 -65.92 0.0004709614    1.695    0.410
       265 -11.2403     64.2756     59.9390   1.1399928545e+02   5.6127513126e+01    0.3194696    0.1954097  36.93 0.0009844608    1.853    0.460
       266 -11.4578    113.6406     57.4095   9.6984002381e+01   4.8356002692e+01    0.4454832    0.2336667  35.92  0.001809735    2.092    0.522
       267  -9.3357    170.4623     57.5497   8.2836012431e+01   3.5129300141e+01    0.1565776    0.1461801   8.34 9.041427e-05    1.018    0.018
       268  -9.7967     80.9706     57.0311   1.0726921203e+02   5.4357021302e+01    0.2119397    0.1564693 -15.97 0.0004390313    1.538    0.350
       269  -9.3299     46.9470     58.0000   1.1975727561e+02   5.8554457275e+01     0.185244   0.07469067  27.44 0.0006007818    2.932    0.659
       270 -10.8667    122.0359     56.0044   9.4084716931e+01   4.6849787615e+01     0.229697    0.2108851 -10.66 0.0004308685    1.015    0.014
       271 -10.9682     99.3944     55.9186   1.0081974699e+02   5.1421322418e+01    0.4882799      0.21121  36.18  0.001847508    2.622    0.619
       272 -11.5673     38.2055     51.6897   1.2141498267e+02   6.0786560985e+01    0.5765135    0.3550636 -39.56  0.003219808    1.506    0.336
       273 -10.0892     44.7201     51.4463   1.1882380006e+02   6.0218465621e+01    0.2650089    0.1795198 -24.75 0.0009533659    1.650    0.394
       274 -10.8087     46.1152     47.1314   1.1702544139e+02   6.1010004314e+01    0.2234143    0.1718516 -52.95 0.0002733667    1.129    0.114
       275 -12.5000    127.9655     51.5904   9.0891608700e+01   4.6316695491e+01     0.431612    0.3121734 -21.43 0.0004072228    1.377    0.274
       276 -12.0059      4.6050     52.8451   1.3459650597e+02   6.2733302573e+01    0.6437379    0.2509018 -49.87  0.003386596    2.061    0.515
       277 -10.8972     12.8893     50.2867   1.3097760688e+02   6.2903373398e+01     0.299008    0.1310387 -61.83  0.001593282    1.658    0.397
       278 -11.9678      8.7637     45.6588   1.3170665257e+02   6.4136094841e+01    0.3916888    0.3401745 -23.52  0.001199266    1.346    0.257
       279 -10.6554     73.6006     52.1940   1.0825817069e+02   5.6476969573e+01    0.3240758    0.2290096 -63.14  0.001037764    1.708    0.415
       280 -10.0606     82.9378     51.6367   1.0478712325e+02   5.5139660291e+01    0.2472493    0.1735148 -33.30 0.0006193325    1.320    0.243
       281 -10.6095    114.8327     49.4813   9.3819261361e+01   4.9552553110e+01    0.3157629     0.242474 -11.67    0.0010918    1.345    0.256
       282 -11.9636    100.1678     47.3494   9.7515528763e+01   5.2900890208e+01    0.5421839    0.3753607 -61.71 0.0007402242    2.110    0.526
       283 -10.1435    157.7373     52.0806   8.3749804137e+01   3.9139587499e+01    0.2213108    0.1940964  -1.20 0.0003946438    1.094    0.086
       284 -11.0335     51.8354     47.1498   1.1477919297e+02   6.0382114766e+01    0.6970131    0.1849789 -54.85  0.002406535    3.385    0.705
       285 -11.3885    142.6207     46.9514   8.5465421111e+01   4.3646745884e+01     0.488174    0.2677095 -21.72  0.001500947    1.943    0.485
       286 -10.7735    138.8150     44.5079   8.5511738719e+01   4.4945392406e+01    0.3212234    0.2814678  77.51  0.001629609    1.425    0.298
       287 -11.2800    154.2984     47.7242   8.3012279932e+01   4.0656468789e+01    0.4425558    0.3111897 -83.34  0.001787895    2.397    0.583
       288  -9.7752    162.9853     47.7178   8.1117677717e+01   3.8471194726e+01    0.1937993    0.1360901  51.86 0.0004403098    1.416    0.294
       289  -9.0824    104.3098     46.3133   9.5824061994e+01   5.2279321542e+01    0.1520148    0.1099006   1.61 0.0005572355    1.629    0.386
       290  -9.9419     91.7153     46.1698   9.9841032086e+01   5.4697353995e+01    0.2258835    0.1712555 -52.55 0.0008487509    1.496    0.332
       291 -10.8604      6.9570     40.8850   1.3149358322e+02   6.5270382808e+01    0.2318997    0.2210364  56.43  0.001816015    1.353    0.261
       292  -9.7453    233.1761     45.1551   6.8657241942e+01   2.1075697667e+01    0.2136576    0.1773989   7.77 0.0004771697    1.188    0.158
       293 -10.5902    122.5792     44.1044   8.9616523432e+01   4.8787358109e+01     0.445296    0.2906145 -34.21  0.001219985    1.485    0.326
       294 -10.4458    119.2363     39.4865   8.8782212588e+01   5.0290038148e+01    0.2914589    0.2373824   4.90 0.0006645193    1.222    0.182
       295 -10.3036     87.0191     44.9873   1.0099542127e+02   5.5753574156e+01    0.3254363    0.1356068  34.89 0.0006104233    2.785    0.641
       296  -9.4791     75.3799     43.8067   1.0468749171e+02   5.7899441569e+01    0.2419083    0.1071324  40.65  0.001004938    2.527    0.604
       297 -10.9157     64.0882     41.5292   1.0810548327e+02   6.0008465614e+01    0.2709533    0.1826537 -42.91  0.000933322    1.283    0.220
       298 -11.0757     68.6810     38.1771   1.0509214725e+02   6.0017444261e+01    0.4560277     0.196787 -35.00  0.001847215    2.334    0.572
       299 -10.3940    162.8479     41.8902   7.9126832355e+01   3.9334060500e+01     0.213797    0.1864449 -54.38 0.0005918742    1.343    0.255
       300 -10.2954     24.0862     41.4935   1.2444742292e+02   6.4153491085e+01    0.2167808    0.1911481 -45.01  0.001534691    1.133    0.117
       301 -10.1417    226.0944     40.4817   6.8244245436e+01   2.3315773691e+01    0.2167336    0.1915316 -11.96 0.0008037668    1.057    0.054
       302 -10.5648     95.3000     40.2342   9.6385988566e+01   5.5125990371e+01     0.342532    0.2596551  68.77  0.001118311    2.012    0.503
       303 -10.9832     88.9922     39.2459   9.8120582825e+01   5.6474344693e+01    0.4408008    0.3161395 -78.96    0.0016115    2.911    0.656
       304 -11.5177     82.4703     36.7809   9.9428489781e+01   5.8075883822e+01    0.3252197    0.2898272 -19.51 0.0009172509    1.048    0.046
       305  -9.9052    123.4898     38.5269   8.7232863520e+01   4.9480905976e+01    0.2202973    0.1413912 -16.27 -6.915298e-06    1.651    0.394
       306 -10.2219     44.0883     39.5828   1.1547791882e+02   6.2826085187e+01    0.2787189    0.1610479 -52.42 0.0009641179    1.455    0.313
       307 -10.0066     19.2075     37.9946   1.2561774221e+02   6.5240865267e+01    0.1806265    0.1520156 -40.38 0.0003608574    1.149    0.130
       308 -10.5568      2.0608     37.5810   1.3289088173e+02   6.6197384945e+01    0.3317002    0.1194829 -39.70 0.0008115059    2.600    0.615
       309 -10.6437      9.1527     25.4205   1.2682927622e+02   6.8511675201e+01    0.3270342    0.1355523 -40.98  0.001266461    2.026    0.507
       310 -10.1044      1.4932     31.5106   1.3188578119e+02   6.7538115009e+01    0.1885661    0.1099834 -56.88 9.863156e-05    1.237    0.191
       311 -10.6714      9.2052     33.5846   1.2890887011e+02   6.6757405288e+01     0.308055    0.1488806 -59.08  0.001162136    1.490    0.329
       312 -11.2880      5.8443     30.7771   1.2975227394e+02   6.7519697080e+01    0.4014534     0.208546 -50.72 0.0008818559    1.432    0.302
       313  -8.7526    112.4888     31.4873   8.7507540842e+01   5.3048763523e+01    0.3529124     0.151152  54.74  0.001288015    2.681    0.627
       314 -10.2319    111.0974     34.9823   8.9342151883e+01   5.2803652583e+01    0.4399316     0.229624 -46.70  0.001733724    2.354    0.575
       315 -10.5212    102.9726     36.6821   9.2503611531e+01   5.4231614663e+01     0.399187    0.2219414  44.05  0.001344156    1.856    0.461
       316 -10.5926    106.1713     34.1669   9.0491917157e+01   5.3985531615e+01    0.2877958    0.2681113  17.52 0.0009899116    1.115    0.104
       317 -11.2278     24.6340     35.5525   1.2258014992e+02   6.5399477252e+01    0.2662617    0.2150425  37.60 0.0007012757    1.587    0.370
       318 -10.7220     76.3095     33.7387   1.0045079394e+02   5.9669181466e+01    0.2615665    0.1948451  21.33  0.001330919    1.433    0.302
       319 -10.5950     82.5001     29.6226   9.6459623490e+01   5.9346481022e+01    0.2877631    0.2266403 -65.26  0.001475099    1.921    0.479
       320 -10.3555     14.2797     33.8293   1.2670503279e+02   6.6438012893e+01    0.2014321      0.14311  55.13  0.001125448    1.954    0.488
       321 -10.5596     97.8568     32.1118   9.2260404805e+01   5.6026759705e+01    0.2579621    0.1955861 -14.32 0.0003744594    1.263    0.208
       322 -11.3702     56.7248     30.4060   1.0684252774e+02   6.3196048534e+01    0.6049703    0.1824019 -38.33  0.001858424    3.304    0.697
       323 -12.4607    226.6518    246.4318   1.1242425234e+02  -1.0481203149e+00    0.7309187    0.3692384  22.70  0.004730801    1.710    0.415
       324  -9.7526     32.6471     33.7277   1.1847960611e+02   6.5149077042e+01    0.2352269    0.1110361  11.33  0.001084049    3.034    0.670
       325 -11.3392    145.2429     31.6993   7.9198647426e+01   4.5218716971e+01    0.2672701    0.2514216   3.14 0.0002581441    1.056    0.053
       326  -9.8638    178.0041     31.0184   7.2483154740e+01   3.6779765818e+01    0.2402157    0.1795011 -57.77 0.0005853362    1.641    0.390
       327 -10.0683     78.4862     29.9664   9.8072176305e+01   5.9984648036e+01     0.252058    0.1585285 -30.88 0.0003429551    1.435    0.303
       328  -9.9569     49.6963     31.2965   1.1016606527e+02   6.3900591511e+01    0.1818414    0.1651618  33.32 0.0004535649    1.371    0.270
       329 -10.1803     50.3786     27.8019   1.0850269540e+02   6.4505825632e+01      0.31254    0.1341645 -36.65  0.001249221    2.162    0.537
       330  -9.4288    196.3646     28.1564   6.8604417700e+01   3.2264319930e+01     0.209463    0.1290304 -32.78 0.0003322723    1.596    0.373
       331  -9.5132    124.5528     27.9248   8.2717752294e+01   5.0811668511e+01    0.2151871    0.1424504 -20.44 0.0003239244    1.477    0.323
       332 -11.5529     66.3511     21.2482   9.8930886463e+01   6.3487846781e+01    0.3649028    0.2776124  42.29  0.002076577    1.586    0.370
       333 -10.9601     70.5836     26.1872   9.9451976672e+01   6.1957054438e+01    0.4386705    0.2217946  28.40  0.001931584    2.362    0.577
       334 -10.2868    177.9568     25.2176   7.0496946808e+01   3.7466025660e+01    0.2188883    0.1946677  50.25 0.0004879561    1.107    0.097
       335 -10.3285    112.8754     23.0516   8.3834956006e+01   5.4199935074e+01    0.4472019     0.180782 -32.86  0.001132501    2.349    0.574
       336 -10.0700     17.0206     24.2059   1.2266633491e+02   6.8321847111e+01     0.208171    0.1327781 -52.31  0.000486781    1.184    0.155
       337 -10.4770      1.3581     23.6928   1.3013285570e+02   6.9221288901e+01    0.1656107   0.07490862 -58.76 0.0009303732    1.528    0.346
       338 -10.3522    100.0333     22.3282   8.7335234069e+01   5.7110011191e+01    0.2714634    0.1986956 -31.85 0.0006624089    1.340    0.254
       339 -10.7424     84.1389     22.3815   9.2675571364e+01   6.0252851380e+01    0.2713984    0.2061867  -2.56 0.0005925319    1.282    0.220
       340  -9.3193     86.9946     19.0117   9.0118066926e+01   6.0234859572e+01    0.2059812    0.1512294   1.09 0.0006057418    1.360    0.265
       341  -9.4530     48.6496     23.3199   1.0741748371e+02   6.5577367857e+01    0.1184064    0.1031922 -81.53 0.0007048145    1.742    0.426
       342 -11.6922      8.5363    241.6024   1.4632151377e+02   2.6460206432e+01    0.3105196    0.1132995  65.44  0.002219656    2.064    0.515
       343  -9.9987    124.1277     21.8042   8.0287073276e+01   5.1741029343e+01    0.2074105    0.1987387 -13.08 0.0003489794    1.151    0.131
       344 -10.3700     35.0773     21.1138   1.1279625594e+02   6.7497309390e+01    0.3326343    0.1607686 -50.35  0.001589754    1.723    0.419
       345  -9.6046    167.4014     19.3648   7.0212886806e+01   4.0927249828e+01    0.2960939    0.1368937  -0.41  0.000957671    3.182    0.686
       346 -11.0625    147.0671    244.1366   1.2490595933e+02   1.0362177229e+01     0.229827    0.1034691  38.62  0.001227544    1.640    0.390
       347 -10.0155    104.4814     18.5044   8.4257033417e+01   5.6698310725e+01    0.2565875    0.1335305 -13.72 0.0009662081    2.203    0.546
       348  -9.4077     45.5027     20.5340   1.0765255361e+02   6.6481730190e+01    0.1308332    0.1049318 -29.10 0.0003222847    1.005    0.005
       349  -9.6557     81.5892     17.8276   9.1475286304e+01   6.1438175538e+01     0.286907    0.1242021 -28.54  0.001160286    2.211    0.548
       350  -9.7591    115.4364    244.2839   1.3006245234e+02   1.4578633146e+01    0.1166087   0.08860023  80.94  0.000943606    1.569    0.363
       351 -10.8535    217.5211     16.2347   6.2178573281e+01   2.8013186563e+01    0.5224446    0.1928478  53.56  0.001965699    2.530    0.605
       352 -10.1570     19.5205     18.5422   1.1950225988e+02   6.9322759461e+01    0.2416864    0.1177091  13.90  0.001281082    2.562    0.610
       353  -9.7199     19.9906     15.4533   1.1810727607e+02   6.9911531380e+01    0.2021257    0.1256939 -37.78 0.0005622407    1.285    0.222
       354 -10.9469    135.4548     16.7096   7.5460232986e+01   4.9573043791e+01     0.286018    0.1539839  39.07  0.001178089    1.820    0.451
       355 -10.0835      9.7823     16.4737   1.2380634345e+02   7.0351761994e+01    0.2100282    0.1226989 -55.13 0.0005708547    1.280    0.219
       356  -9.5680    188.4435     16.5715   6.5951960006e+01   3.5587169805e+01    0.1481348    0.1391331  28.45 6.568831e-05    1.016    0.016
       357 -10.4174    109.7476    243.2037   1.3089312040e+02   1.5446472610e+01    0.2237257    0.1232925  61.09  0.001510694    1.853    0.460
       358  -9.4817    165.9747     14.7553   6.8778793123e+01   4.1793596938e+01    0.1939699    0.1238755  61.08 0.0003655116    1.520    0.342
       359  -9.8804    123.5952     14.5976   7.7343274395e+01   5.2763745410e+01    0.2674814    0.1280744  50.83 0.0008404613    1.943    0.485
       360 -10.2759     72.1765    243.9543   1.3691946483e+02   1.9864167909e+01     0.169119    0.1056833  46.32  0.001021721    1.202    0.168
       361 -11.1747    178.2971    243.5378   1.1975287812e+02   6.0408700853e+00    0.3388034   0.07608274  42.11  0.001457029    3.208    0.688
       362 -11.5903     34.8974    241.7297   1.4249264402e+02   2.4063083624e+01    0.3298774    0.1660295  38.63  0.002528693    1.737    0.424
       363 -11.9583    155.9843    241.5158   1.2317582994e+02   9.4220770178e+00    0.3009343    0.1584119  32.52  0.001206916    1.628    0.386
       364 -11.9313     19.2256    238.1628   1.4467442589e+02   2.6018779666e+01    0.3529713    0.1617085  42.65  0.002436421    1.671    0.401
       365 -10.7498     73.5462    232.9816   1.3601271777e+02   2.1235322300e+01    0.2308389    0.1145537  49.01 0.0009716395    1.471    0.320
       366  -9.0235     51.3264     11.2999   1.0065576754e+02   6.7388470234e+01    0.1344766   0.08729837  -9.88 0.0003753232    1.636    0.389
       367 -10.5669    174.0509    238.6694   1.1988468109e+02   7.1662101543e+00    0.2209169    0.1472531  31.36 0.0009812042    1.179    0.152
       368 -10.5688     54.2029     23.2740   1.0494809803e+02   6.4879550775e+01    0.2743763    0.2478686 -55.12 0.0004972528    1.407    0.289
       369 -10.8163    177.5426    234.9378   1.1886543433e+02   7.0661550009e+00     0.230894    0.1592685  22.28  0.001144253    1.374    0.272
       370 -10.6518     31.5968    237.2133   1.4280243007e+02   2.5017782190e+01    0.2232048    0.1022113  64.64 0.0009314933    1.731    0.422
       371 -10.3832     28.9365    232.8939   1.4303040512e+02   2.5891647137e+01    0.2523615   0.08589024  44.22  0.001680844    2.011    0.503
       372  -9.9964     88.6484    241.1608   1.3413458813e+02   1.8328172954e+01    0.1122575   0.08711432 -59.41 0.0009433924    1.757    0.431
       373 -10.9226    160.1093    235.8949   1.2188138627e+02   9.4826007676e+00    0.2389464    0.1176722  37.28 0.0009118528    1.528    0.346
       374  -9.3435     50.2807    240.3391   1.4010600398e+02   2.2725786600e+01   0.07236146   0.07112516  54.19 0.0007008567    1.624    0.384
       375 -10.4272    167.0020    233.8298   1.2049319516e+02   8.7247629327e+00    0.1657518    0.1435092  25.67 0.0008116761    1.214    0.176
       376 -11.1332    153.4185    233.7617   1.2276682450e+02   1.0692685413e+01    0.1928606    0.1396306  14.49 0.0008149439    1.686    0.407
       377  -9.5902     53.6603    234.7039   1.3929156585e+02   2.3174103242e+01   0.07797628   0.07120661  25.20 0.0007031515    1.658    0.397
       378  -9.9857     79.5173    231.2766   1.3492256371e+02   2.0784890899e+01    0.1788534    0.1038059  44.16 0.0006034296    1.326    0.246
