#   1 NUMBER                 Running object number                                     
#   2 MAG_AUTO               Kron-like elliptical aperture magnitude                    [mag]
#   3 X_IMAGE                Object position along x                                    [pixel]
#   4 Y_IMAGE                Object position along y                                    [pixel]
#   5 X_WORLD                Barycenter position along world x axis                     [deg]
#   6 Y_WORLD                Barycenter position along world y axis                     [deg]
#   7 A_WORLD                Profile RMS along major axis (world units)                 [deg]
#   8 B_WORLD                Profile RMS along minor axis (world units)                 [deg]
#   9 THETA_WORLD            Position angle (CCW/world-x)                               [deg]
#  10 FWHM_WORLD             FWHM assuming a gaussian core                              [deg]
#  11 ELONGATION             A_IMAGE/B_IMAGE                                           
#  12 ELLIPTICITY            1 - B_IMAGE/A_IMAGE                                       
         1 -14.6449    134.2029     94.0133   5.2321730661e+01   3.6778104617e+01      2.46829     1.483892 -47.57   0.01076601    1.649    0.393
         2 -13.3010     72.7335     42.9238   5.3634341036e+01   5.9556075500e+01    0.6946719    0.4530052 -40.75  0.003544786    1.629    0.386
         3 -12.4785     21.9851     16.8025   6.5374232293e+01   7.2121826089e+01    0.5480554    0.2765577 -18.65  0.002495898    2.811    0.644
         4 -12.8522     10.1577     15.8180   7.2489327030e+01   7.3662326152e+01    0.6150615    0.4699634 -26.13  0.004178032    1.161    0.138
         5 -13.7160     19.5744      5.8620   6.0786527818e+01   7.3995693027e+01     1.365713    0.5920404  34.92  0.007027269    2.111    0.526
         6 -13.4497    182.2131     10.4296   2.1745925946e+01   3.8149108931e+01     1.672841    0.6121343  76.80  0.007416906    2.547    0.607
         7 -12.7887    198.9996      4.6607   1.9074429784e+01   3.5052993570e+01    0.9143696    0.5044843  72.12  0.005338181    1.705    0.414
         8 -11.1963    189.6775      1.9543   1.9119791035e+01   3.7341406433e+01    0.6191632    0.1841753  70.01  0.002705085    2.875    0.652
         9 -12.0841     30.8894     14.5405   5.9055992834e+01   7.1186339563e+01    0.4259168    0.2237296 -18.08  0.002046149    2.499    0.600
        10 -12.8309    164.0257      4.9813   2.2023949633e+01   4.2853115904e+01     1.073729     0.637454  84.35  0.006009373    1.484    0.326
        11 -10.1883    214.3893     10.6232   1.9323869465e+01   3.1205102482e+01    0.1842815    0.1005294 -63.92  0.000685157    1.549    0.355
        12 -10.2168     84.8050      8.1653   3.5466076339e+01   6.1320890643e+01    0.1794731    0.1300588  40.06 0.0004259099    1.317    0.240
        13 -10.8002     88.3028      3.8886   3.2852063158e+01   6.0899760677e+01    0.2252127    0.1619109  74.95 0.0009206914    1.352    0.261
        14 -11.0037     53.8776      3.6708   4.2726906255e+01   6.8357523403e+01    0.2094612      0.16034   6.28  0.001278047    1.367    0.268
        15  -9.0228    230.2533    228.6609   6.0758373419e+01  -4.5541956943e+00   0.09543224   0.08500866 -34.89 0.0003133483    1.573    0.364
        16 -10.9983    186.5908    249.2871   7.1676461565e+01  -2.3883156334e+00    0.3490163    0.2144306  30.92  0.002156495    1.485    0.327
        17 -10.1063     65.3091    249.6467   9.7016918773e+01   1.3169011174e+01    0.3040881    0.1786692 -60.09  0.001732731    1.981    0.495
        18 -11.2257     66.5379    243.6097   9.6247615036e+01   1.4193809770e+01    0.4935506    0.1987483  51.62  0.002197717    2.431    0.589
        19  -9.9403     54.7069    250.7109   9.9372359268e+01   1.4230552135e+01    0.1843092     0.109344  29.15 0.0002307524    1.558    0.358
        20  -9.6588     57.3802    248.5158   9.8636272941e+01   1.4340701535e+01    0.1875476    0.1510462  46.63 0.0005007923    1.024    0.024
        21 -12.6740     38.6587    246.6093   1.0251075411e+02   1.6863654611e+01     1.299166     0.452068  26.85  0.004256452    2.868    0.651
        22 -12.5225      5.6543    248.3982   1.0941642122e+02   1.9877335837e+01     1.245325    0.4649318  31.81  0.006453757    2.240    0.553
        23 -13.8185     20.5764    213.3720   1.0444690056e+02   2.5850958735e+01     2.292934    0.9009662  62.50  0.006802639    2.615    0.618
        24 -12.3369     12.8015    212.4199   1.0620050377e+02   2.6815374351e+01    0.8543652    0.4733434 -76.64   0.00444649    1.730    0.422
        25 -12.2187      3.9919    221.1237   1.0862780242e+02   2.5686572829e+01    0.4721268    0.4006992  -5.51  0.002320179    1.669    0.401
        26 -14.1230      8.9262    227.3486   1.0783733793e+02   2.3893344452e+01      2.34333    0.9437831  17.05  0.002653247    3.587    0.721
        27 -13.1442     24.8665    231.1041   1.0454955963e+02   2.1527540270e+01    0.7970803    0.2895488  46.28  0.003760857    2.142    0.533
        28 -14.6945     24.5132    238.9474   1.0507366556e+02   1.9926032743e+01     1.121528    0.7998741  -5.86  0.002732926    2.259    0.557
        29 -14.5288     15.4387    236.6363   1.0688713169e+02   2.1315832134e+01     0.838242     0.623602 -18.29  0.003457481    2.179    0.541
        30 -11.5051    215.0339    226.7913   6.3071558718e+01  -2.5382933297e+00    0.2093552    0.1510475 -25.90  0.001395919    1.240    0.194
        31 -10.1319    125.2052    221.9382   8.0545885983e+01   1.0519602587e+01    0.2312925    0.1869331 -77.94 0.0007862098    1.586    0.370
        32 -10.9134    223.2205    220.3962   6.0624729651e+01  -2.5823418810e+00    0.2074859    0.1758721 -28.34 0.0008834517    1.328    0.247
        33 -12.1409     64.4962    218.8248   9.4442768614e+01   1.9619786166e+01    0.5944681    0.3292525  67.83            0    2.149    0.535
        34 -14.5243     93.9248    191.4810   8.3763801359e+01   2.1735923302e+01     2.278519     1.401272 -82.25  0.009999215    2.195    0.544
        35 -13.9880     52.5097    195.3785   9.5043055043e+01   2.6528803824e+01     1.430021    0.8660975  83.92  0.006863056    1.850    0.460
        36 -13.7869     87.5612    207.5643   8.7554781335e+01   1.9003758822e+01     1.404061    0.8532438 -63.60  0.006268795    1.776    0.437
        37 -12.7075     77.3078    211.3258   9.0534386099e+01   1.9592548335e+01    0.8289944    0.3500669  45.62  0.003082388    2.193    0.544
        38 -15.6886     67.9904    190.2610   9.0389258974e+01   2.5761744207e+01     2.887945     2.174559 -65.46   0.01551129    1.358    0.264
        39 -10.6867    148.3160    202.4703   7.2372296512e+01   1.0856399520e+01     0.295709    0.2148813  63.26   0.00148734    1.948    0.487
        40 -11.2795     26.5334    189.2934   1.0124358464e+02   3.0926272559e+01    0.4476939    0.2195963 -71.85  0.002113605    1.916    0.478
        41 -11.2660     15.1792    197.7737   1.0474675791e+02   2.9985133408e+01    0.7274571    0.1486517  36.99  0.002712012    3.294    0.696
        42 -11.0017     22.4826    196.8207   1.0286302588e+02   2.9512353398e+01    0.4386442    0.1842398  42.93  0.001476787    2.039    0.509
        43 -10.2420     26.3014    195.3463   1.0178767613e+02   2.9483012484e+01    0.2525667    0.1883434 -66.44  0.001245603    1.382    0.276
        44 -10.2333    124.3317    195.3793   7.6774387581e+01   1.6105435681e+01    0.2781447    0.2248366 -33.64  0.001508684    1.336    0.252
        45  -9.6156    189.3726    195.1879   6.2522331847e+01   5.9475501773e+00    0.1810129    0.1177934 -49.93 0.0005531401    1.728    0.421
        46 -11.4417     35.1055    192.2870   9.9269552254e+01   2.9296180531e+01    0.4535178    0.3480853 -49.52   0.00249223    1.517    0.341
        47 -10.3806     40.9742    190.9734   9.7613754674e+01   2.8963031949e+01    0.2529994    0.2342898  12.52   0.00110792    1.282    0.220
        48 -10.3240     10.0059    183.4933   1.0511265092e+02   3.3890994478e+01    0.4036694    0.2351573  51.32  0.002149397    1.550    0.355
        49 -11.5689     11.0460    189.2235   1.0522443513e+02   3.2406052211e+01    0.4983374    0.2426859  34.34  0.002485375    1.904    0.475
        50 -10.9140      6.1738    185.1436   1.0620703333e+02   3.3810360240e+01    0.2896462    0.2045599  60.98 0.0002908355    1.240    0.194
        51 -10.0623     36.6160    210.4868   1.0042150811e+02   2.4827967867e+01    0.3713482     0.282697 -33.12  0.002120938    1.807    0.447
        52 -10.2898    248.3486    185.8654   5.0745657580e+01  -5.2391565322e-01    0.1727306    0.1563072   9.80 0.0006833298    1.324    0.245
        53 -10.2505     29.3363    182.1505   9.9885973045e+01   3.2403091401e+01    0.2166773    0.1579225 -58.29   0.00119097    1.447    0.309
        54  -8.9145    123.7177    188.3130   7.5761622752e+01   1.7741473644e+01    0.1407401    0.1108051  70.23 0.0003988128    1.573    0.364
        55  -9.6406     24.3863    179.7851   1.0101380280e+02   3.3490789411e+01     0.197234     0.108111 -64.00 0.0009524507    1.752    0.429
        56 -11.7075     91.9462    168.9969   8.0769134972e+01   2.7433850694e+01    0.5704809     0.375384  77.14  0.002430915    2.098    0.523
        57 -11.0937     46.7036    170.9872   9.3884397129e+01   3.3298590430e+01    0.3763864     0.231958 -34.21  0.001390624    2.232    0.552
        58 -10.7842    152.4369    210.1977   7.2718360038e+01   8.7369012261e+00    0.2686562    0.2010128  -3.89  0.001066708    1.479    0.324
        59 -11.3686    105.9265    170.0505   7.7156555516e+01   2.4888628286e+01    0.4449962    0.2878699  47.34   0.00177732    1.561    0.360
        60  -9.7123      3.0796    170.1798   1.0606409103e+02   3.7746491340e+01    0.1849007    0.1567802 -62.25 0.0003484524    1.266    0.210
        61 -11.3226     32.5058    206.5981   1.0111697136e+02   2.6173715626e+01    0.2611366    0.2153096  83.80 0.0006132532    1.126    0.112
        62  -9.1613     10.3231    167.6631   1.0388778132e+02   3.7810185954e+01    0.1459944   0.08216648  61.70 0.0007050855    1.715    0.417
        63  -9.6262     26.9967    166.4845   9.9050521756e+01   3.6607160152e+01      0.20179   0.08451979  49.47  0.000807873    2.381    0.580
        64 -10.4233    223.7892    206.6171   5.8245310372e+01  -6.0972242989e-01     0.154503     0.106644  37.45 0.0009550831    1.711    0.416
        65 -10.3135     28.1332    160.4131   9.8091085869e+01   3.8062918328e+01    0.2502628    0.1830815 -87.80 0.0004739698    1.275    0.215
        66 -12.6463     21.7857    153.6236   9.9278349796e+01   4.0433702247e+01    0.8416349    0.6061429 -61.52  0.004162407    1.331    0.248
        67 -12.4732    102.3989    142.2362   7.2768526674e+01   3.2271369704e+01    0.9078219    0.5430728  31.51  0.002819401    1.789    0.441
        68 -11.8704    108.7708    147.8005   7.2130935714e+01   2.9762790242e+01    0.3559954     0.353796  18.18  0.001586379    1.034    0.033
        69 -12.8057    136.9204    130.5517   6.0901658508e+01   2.8372922488e+01    0.6753502    0.5220972 -82.35  0.002803591    1.658    0.397
        70  -9.9659     61.9940    238.9793   9.6861650416e+01   1.5677537408e+01     0.242036    0.1421603  41.10  0.001337432    1.397    0.284
        71 -13.8374    152.9189    130.3483   5.7067885457e+01   2.5183386644e+01     1.477175    0.8498052  54.52  0.006203278    1.994    0.499
        72  -9.3311     91.8341    108.1579   6.8033688623e+01   4.2518971965e+01    0.2030521    0.1794514 -17.64 0.0002652823    1.269    0.212
        73  -9.5574     30.3261    129.9805   9.3584411317e+01   4.5848681288e+01    0.2414833    0.1042572  83.96 0.0007050316    4.406    0.773
        74 -13.8284    153.2581    118.6258   5.4220833232e+01   2.7578929913e+01     2.910355    0.7098038  41.23  0.007335026    5.428    0.816
        75 -11.1242     20.5766     98.2776   9.2072011364e+01   5.4981147749e+01    0.5162059    0.2940376 -66.94  0.002484615    1.589    0.371
        76  -9.7661    237.8282     98.8183   3.5636445454e+01   1.4674623660e+01    0.1667729    0.1228644 -59.26 0.0003394418    1.295    0.228
        77 -11.1529     30.1840    112.8932   9.0917923014e+01   5.0346940875e+01    0.7068763    0.3107659 -75.70  0.002700531    2.517    0.603
        78 -10.3465     21.9646     80.9154   8.7956490095e+01   5.9161392942e+01    0.1993312    0.1796246 -48.95 0.0003107243    1.021    0.021
        79 -11.3786     34.6612    112.6972   8.9208676592e+01   4.9939011523e+01    0.4192837    0.2715407 -40.01   0.00201597    1.621    0.383
        80 -14.7295    148.6304    106.9084   5.2355119655e+01   3.0981278889e+01     1.905852     1.654861  18.05  0.009910258    1.378    0.274
        81 -11.2877    105.8503     75.0913   5.4269643545e+01   4.6840095847e+01    0.2349539    0.2086755 -86.01  0.001241874    1.238    0.192
        82 -13.2477     30.0109     67.1476   8.0696222659e+01   6.1577079720e+01     1.803871     0.809899  33.28  0.007944652    2.287    0.563
        83 -10.9196     53.6512    110.9057   8.1817265182e+01   4.8099427343e+01     0.304253      0.26586 -25.32 0.0009585659    1.228    0.186
        84 -11.8630     99.9023     70.1104   5.4433333469e+01   4.9092690929e+01     0.341648    0.3210332 -33.63  0.001554289    1.102    0.092
        85 -13.1331     46.6999     82.6939   7.7661478383e+01   5.5973962916e+01     1.021905      1.00678   1.36  0.006162263    1.070    0.065
        86  -9.7195    177.8355     64.8569   3.5997827630e+01   3.2060112479e+01    0.1951715    0.1898232 -32.39 0.0007467481    1.222    0.182
        87 -12.8126     54.1605     97.1285   7.8432030890e+01   5.1479945921e+01     2.662483    0.7828103 -46.42  0.008285294    3.462    0.711
        88  -9.7388    166.0045     58.6268   3.6217072864e+01   3.5731688467e+01    0.1897677     0.165167  80.09 0.0004285542    1.104    0.094
        89 -11.9042     51.0406     54.9890   6.6988380040e+01   6.1322034295e+01     1.020766    0.7278749 -81.49  0.004731432    2.513    0.602
        90 -12.5933     55.8842     42.2343   5.9953670884e+01   6.2842576887e+01     1.050369    0.5164484  22.42  0.003872081    3.380    0.704
        91  -9.9626      4.0193     59.4722   9.1670176922e+01   6.5493885802e+01    0.1808599    0.1200766   2.79  0.001026742    1.603    0.376
        92  -9.4607    194.3055     57.3384   3.1861632034e+01   2.9557703701e+01    0.1223725    0.1053492  18.46 0.0007040829    1.676    0.403
        93  -9.6252    245.0039     52.0063   2.5496776987e+01   2.0231997400e+01    0.1473965    0.1131414 -57.78 0.0007281735    1.010    0.009
        94 -11.7571     64.5609     52.2240   6.0318079923e+01   5.9535079556e+01    0.3309371    0.1605705  44.39  0.001421946    2.036    0.509
        95 -12.9056    143.0752    133.2720   6.0033939981e+01   2.6533443609e+01    0.6486878    0.5431917  17.83  0.002106671    1.378    0.274
        96 -12.7733     83.7104     47.8585   5.1768399765e+01   5.6499348951e+01     0.562698    0.5136904  66.76  0.003296588    1.174    0.148
        97 -11.9351      3.7412    209.5003   1.0813831407e+02   2.8291676274e+01      1.18891    0.4358273 -55.69  0.005074088    3.336    0.700
        98 -12.6814     67.4754     39.7789   5.4306707041e+01   6.1094969377e+01    0.3821617    0.3317263  32.62  0.002071605    1.067    0.063
        99 -10.8061      9.8686     45.4100   8.4586887060e+01   6.8156990757e+01    0.3502396    0.2694595 -46.82  0.002203406    1.173    0.147
       100 -10.3146    122.6840     41.5882   3.9167152917e+01   4.8548733071e+01    0.2642395    0.1215043  56.40 0.0007789073    1.979    0.495
       101 -10.0284    106.7994     31.1286   3.9114649226e+01   5.3716533784e+01    0.2218815    0.1889144 -17.21 0.0007553288    1.351    0.260
       102 -10.4858     78.0722     31.1581   4.7049883010e+01   6.0193307709e+01    0.2479016    0.1698221 -61.39 0.0008461453    2.088    0.521
       103  -9.8834     84.3189     24.3044   4.2321565284e+01   5.9713422990e+01     0.137622   0.09344079  29.76 0.0007028168    1.630    0.386
       104  -9.9780    179.7586    244.5712   7.2310658291e+01  -8.5394076097e-01    0.1612791   0.09782027  36.01 0.0004058836    1.619    0.382
       105 -10.7378    116.2597    240.2910   8.4915412750e+01   8.3034988265e+00    0.2142317    0.1805493  39.54 0.0002124547    1.096    0.087
       106 -10.5402     40.2538    239.4983   1.0170364986e+02   1.8120157969e+01    0.2428609    0.1446743  61.09  0.000799007    1.520    0.342
       107  -9.9501    201.6702    236.6533   6.7007831573e+01  -2.3718774590e+00    0.1260302   0.07655322  -6.27 0.0007049805    1.758    0.431
       108  -9.1377     91.3272    236.3089   9.0011084354e+01   1.2443504553e+01    0.1243067   0.09699689  -8.16 0.0007039016    1.658    0.397
       109 -12.4979     52.0629    224.3634   9.7889763534e+01   1.9946234881e+01    0.6075457    0.4232929  58.28   0.00334657    1.290    0.225
       110 -10.7113     59.2134    235.3315   9.7177526223e+01   1.6762075874e+01    0.3154751     0.205989  25.82  0.001486733    1.538    0.350
       111 -11.8126     52.9651    233.2241   9.8414603668e+01   1.7951892222e+01    0.2445222    0.2290646  83.10 0.0002393424    1.184    0.155
       112 -11.6936     63.5968    231.0315   9.5805855455e+01   1.7114964484e+01    0.7401118    0.2207674  28.74  0.002743881    3.212    0.689
       113 -10.6407     55.2849     10.5793   4.5728916839e+01   6.7376257264e+01    0.2391525     0.113213  55.72  0.001133685    2.081    0.520
       114 -11.1634     67.4125    228.8001   9.4720731089e+01   1.7103141591e+01    0.5017375    0.1600874  35.99  0.001411111    2.473    0.596
       115 -11.0175    220.0671    230.9242   6.2844451084e+01  -3.7176422816e+00    0.2099814    0.1729511 -22.50 0.0005950347    1.257    0.204
