#   1 NUMBER                 Running object number                                     
#   2 MAG_AUTO               Kron-like elliptical aperture magnitude                    [mag]
#   3 X_IMAGE                Object position along x                                    [pixel]
#   4 Y_IMAGE                Object position along y                                    [pixel]
#   5 X_WORLD                Barycenter position along world x axis                     [deg]
#   6 Y_WORLD                Barycenter position along world y axis                     [deg]
#   7 A_WORLD                Profile RMS along major axis (world units)                 [deg]
#   8 B_WORLD                Profile RMS along minor axis (world units)                 [deg]
#   9 THETA_WORLD            Position angle (CCW/world-x)                               [deg]
#  10 FWHM_WORLD             FWHM assuming a gaussian core                              [deg]
#  11 ELONGATION             A_IMAGE/B_IMAGE                                           
#  12 ELLIPTICITY            1 - B_IMAGE/A_IMAGE                                       
         1 -12.2916    161.0793     47.0292   7.9563210198e+01   3.9417968635e+01     1.262527     1.094336 -12.55  0.004543648    1.278    0.218
         2 -11.3925    173.0343     19.2855   6.8759683611e+01   3.9840366061e+01    0.9373293    0.7097152  83.59  0.004949386    1.287    0.223
         3 -11.2004    175.8931     12.3534   6.6245353986e+01   3.9827541572e+01    0.7346411    0.3864033  83.40  0.003163508    2.042    0.510
         4  -9.1077    119.9675      9.5645   7.4588087781e+01   5.4320990160e+01    0.3469855    0.2574799  16.39   0.00131043    1.449    0.310
         5  -9.0406    234.4705      6.8861   5.8840944106e+01   2.5687536619e+01    0.3000732    0.2068186 -42.24  0.001729765    1.351    0.260
         6  -8.2774    206.5998      2.2034   6.0026223910e+01   3.2950935619e+01    0.1628143    0.1307015  -6.56 0.0004316396    1.597    0.374
         7  -8.9531    164.8476    180.9790   1.1320981118e+02   1.3072184425e+01    0.3174118    0.2261432  89.17  0.001195809    2.237    0.553
         8  -9.5657    165.7686    249.3055   1.2349537290e+02   1.8498565562e+00    0.2286768     0.178816  50.52 0.0004131703    1.199    0.166
         9  -8.1528    152.8981    249.5779   1.2584215524e+02   3.8647054149e+00    0.1782106    0.1538368 -34.58  0.001286697    1.526    0.345
        10 -18.5372     71.4278    234.0884   1.3911288778e+02   1.8723598619e+01     4.640043     3.627395  73.32   0.01330413    1.100    0.091
        11  -9.0050    222.5374    178.7428   1.0140345247e+02   2.3717489509e+00    0.2381666     0.126787 -31.33 0.0008535407    1.936    0.483
        12  -9.0295    211.9527    177.5875   1.0313247483e+02   4.5227731035e+00     0.280006     0.182916 -48.11 0.0009928957    1.841    0.457
        13  -9.0744      1.6921    178.5623   1.4844893376e+02   3.7517740506e+01    0.1943912    0.1174447 -78.13 0.0008450467    1.375    0.273
        14 -10.0762    204.6332    176.5152   1.0431149761e+02   6.0923315742e+00    0.3472525    0.3374348 -85.86  0.001206621    1.266    0.210
        15  -9.3305    197.4857    177.3589   1.0586657604e+02   7.3330617640e+00    0.2891321    0.2359257  61.40  0.001588302    1.458    0.314
        16 -14.2044     57.7436    211.1643   1.3976431291e+02   2.4861708641e+01    0.4602149    0.3599593  70.95  0.001115478    1.029    0.028
        17 -10.2491    176.8624    201.4161   1.1436053267e+02   7.1994273004e+00    0.2326325    0.2185577  42.56 0.0001595736    1.108    0.098
        18  -9.3629    201.1712    168.5189   1.0336714207e+02   8.1120187258e+00    0.4174152    0.2559814  49.82  0.001979186    1.674    0.403
        19 -10.6938    192.8936    164.6786   1.0421251389e+02   1.0444872825e+01     0.950514     0.415814 -48.99  0.002366775    2.776    0.640
        20  -8.7684    154.8442    166.7219   1.1266724468e+02   1.7808510012e+01    0.2646913    0.1900839 -83.00 0.0008747994    1.999    0.500
        21  -9.3474    142.0059    165.9517   1.1539319054e+02   2.0520276425e+01    0.3021847    0.2322708 -78.56 0.0006558822    1.560    0.359
        22  -8.8525    203.9101    163.4274   1.0177692670e+02   8.4382112986e+00    0.3998418    0.2003037 -43.08  0.001571387    2.113    0.527
        23  -9.8400    149.3225    160.6697   1.1270768992e+02   2.0151034780e+01    0.4448191    0.2796401 -43.65  0.001660977    1.711    0.416
        24 -10.6062    146.6981    158.2996   1.1282958385e+02   2.1173517582e+01    0.7538473    0.5012363  71.26  0.002670709    2.043    0.511
        25  -9.3568     26.1072    160.9928   1.4196189729e+02   3.9148439812e+01    0.4777475    0.2388819 -44.90  0.002295732    3.025    0.669
        26  -9.9786     57.1421    157.6446   1.3428714913e+02   3.6457145849e+01    0.3505213    0.2681762  12.53  0.001073866    1.955    0.488
        27  -8.2530    159.1081    157.9280   1.0995594026e+02   1.8704708825e+01    0.2341028    0.1959229  77.99 0.0009593641    1.377    0.274
        28  -9.0575    154.0291    157.0163   1.1090449144e+02   1.9939714041e+01    0.2292936    0.1774929  83.91 0.0005800598    1.648    0.393
        29 -10.6336    134.4321    147.3217   1.1345354652e+02   2.5998799547e+01    0.9086397    0.4146406 -60.18  0.003200897    2.853    0.650
        30 -10.2469    133.5266    142.0389   1.1255214072e+02   2.7339580543e+01    0.6000782    0.3427271 -70.20  0.002232771    2.670    0.626
        31  -9.9279    147.5124    151.0171   1.1114417514e+02   2.2532426617e+01    0.4935155    0.3157204 -87.92   0.00183699    2.925    0.658
        32 -10.4971    142.2132    145.7745   1.1127017900e+02   2.4744550347e+01    0.6166584    0.3810427  46.06  0.002743764    1.567    0.362
        33  -8.7080     13.6685    150.9271   1.4392953672e+02   4.2520896600e+01     0.220837    0.1513661 -14.74  0.001293394    2.610    0.617
        34  -8.9032     27.9720    142.0272   1.3960479112e+02   4.3284771842e+01    0.2237834    0.1627616  48.52 0.0004227875    1.445    0.308
        35 -10.4025    156.2627    192.3390   1.1701305172e+02   1.2612667021e+01    0.6861305    0.4350778 -81.14  0.001662927    2.962    0.662
        36  -8.2868    171.7073    144.6227   1.0430429821e+02   1.8694110364e+01    0.2555085    0.1850557 -65.28 0.0005977528    1.741    0.426
        37  -8.9032     27.1854    146.5524   1.4028833529e+02   4.2317825263e+01    0.3613366    0.1846909 -76.28  0.001932372    1.631    0.387
        38  -7.5995     14.7185    143.7059   1.4303657823e+02   4.4061534060e+01    0.1118394   0.07701287 -56.11   0.00021393    1.535    0.349
        39  -8.7563    139.9199    141.5091   1.1089139519e+02   2.6141033114e+01    0.2260041    0.1457942  46.49 0.0004117972    1.511    0.338
        40  -9.1184     35.0835    139.8003   1.3754389040e+02   4.3109787614e+01     0.348915     0.226836   5.49  0.001617209    2.585    0.613
        41  -8.4414    187.9734    138.0742   9.9355560140e+01   1.6397610466e+01    0.2152337    0.2097286  -1.15 0.0002983918    1.016    0.016
        42 -10.1906    234.0288    130.7787   8.9065831553e+01   7.7996237503e+00    0.2615605    0.2375173  36.49 0.0004353692    1.157    0.136
        43 -10.4201    172.2171    196.8344   1.1450807890e+02   8.8305816144e+00    0.5036516    0.3535991 -73.48  0.001183235    2.234    0.552
        44  -8.5506    160.7968    128.2948   1.0292609021e+02   2.4421287669e+01    0.2206993    0.1973858 -54.95 0.0007137423    1.145    0.127
        45  -9.6881    152.8337    201.3424   1.1919374000e+02   1.1615306431e+01    0.4225466    0.2444944 -65.37  0.001340591    2.501    0.600
        46  -8.7357    128.9757    190.8008   1.2255275255e+02   1.7924656558e+01    0.2048105    0.1854733  82.39 0.0003215653    1.113    0.101
        47  -9.1536    110.7157    123.8122   1.1432832288e+02   3.5958924646e+01    0.2740696    0.2454473 -23.38 0.0005697118    1.303    0.233
        48  -9.2342    216.1124    187.0822   1.0420810308e+02   2.2710977762e+00    0.2097439    0.1651552   8.92 0.0006317954    1.252    0.201
        49  -8.6362    114.9068    118.1103   1.1186391253e+02   3.6451457956e+01    0.2313699    0.1996612  86.80 0.0004555711    1.249    0.199
        50  -7.6757    180.5177    115.6069   9.5424577427e+01   2.2421016202e+01    0.1521038    0.1490335  49.15 0.0001434081    1.023    0.023
        51  -8.7682    237.6898    112.2375   8.4149148072e+01   1.0059282247e+01     0.280166    0.1534141 -43.68  0.001245314    1.768    0.434
        52  -9.2689    177.0111    186.9550   1.1178788059e+02   9.6385881877e+00    0.2166317    0.1892673  40.36  0.001124245    1.045    0.043
        53  -7.5730    250.7915    111.9940   8.2108593136e+01   7.3933363949e+00    0.1775485    0.1005508 -33.49            0    1.583    0.368
        54 -11.5507     62.6641    108.4833   1.2471274635e+02   4.7350087905e+01    0.8228536    0.6256406  23.22  0.002762664    1.595    0.373
        55  -9.2745     55.1560    104.9121   1.2627827508e+02   4.9140093003e+01    0.2709546     0.193115  23.78  0.001479778    1.707    0.414
        56  -9.4070    195.3987    183.4423   1.0745598787e+02   6.7150511977e+00    0.2819696    0.2428981  12.91  0.001153957    1.138    0.121
        57 -10.8608    111.0170    107.7664   1.1035486926e+02   3.9556447563e+01    0.5685608    0.3559772  48.67  0.002527785    1.659    0.397
        58  -7.8186      1.7134    106.6840   1.4268730803e+02   5.3386283249e+01    0.1177685   0.06837299 -53.28 0.0002402298    1.587    0.370
        59  -8.8031     76.4548    104.4834   1.1963738802e+02   4.6339512846e+01    0.2691408    0.1411514  36.62 0.0008009134    2.078    0.519
        60  -8.4396     66.1185    100.8197   1.2198145541e+02   4.8683592584e+01    0.2106534    0.1822591  88.02 0.0009174068    1.232    0.188
        61  -9.3214     26.4495     98.8439   1.3413744692e+02   5.3477243578e+01    0.3542794    0.2894608 -11.28  0.001571219    1.564    0.360
        62  -7.9263     98.4262     97.2413   1.1120161727e+02   4.4314004648e+01    0.1960836    0.1380261 -59.99 0.0003215907    1.466    0.318
        63  -9.1210     34.1061     96.6461   1.3131018383e+02   5.3317575896e+01    0.2290877    0.1503429 -74.06 0.0009479009    1.395    0.283
        64  -9.0517    151.8548     71.1852   8.9178627743e+01   3.7838164825e+01    0.2361769    0.2108945 -76.55 0.0004824804    1.215    0.177
        65 -10.4398    136.4008    171.4595   1.1767972108e+02   2.0467085678e+01    0.5477742    0.3850318  47.34  0.002117579    1.318    0.241
        66  -8.4554    189.0338     68.1231   8.0787124784e+01   2.8907484739e+01    0.2135039    0.2098498 -55.39 0.0003106345    1.045    0.043
        67 -11.5097    149.7691     61.9969   8.6745034599e+01   3.9950629830e+01     1.064785    0.6868575 -21.80   0.00376201    1.829    0.453
        68  -9.9721    169.6104    240.9871   1.2171835803e+02   2.3837638238e+00    0.3105004    0.2352965  61.52  0.001264292    1.518    0.341
        69 -10.8048    165.2097     38.2653   7.5991149082e+01   3.9573393276e+01    0.4424863    0.4232015  36.09 0.0009081705    1.101    0.092
        70  -8.5051    129.9869     55.9875   8.9450438507e+01   4.5795277027e+01    0.2154397    0.2111258 -30.00  0.001196337    1.044    0.042
        71  -8.6656    248.4087     51.6797   6.8176139331e+01   1.6930923140e+01    0.2299888    0.1669203 -25.99 0.0009778753    1.454    0.312
        72  -9.7415    244.4844     55.6533   6.9561829921e+01   1.7260939713e+01    0.2396368    0.2286712  53.90 0.0001866025    1.216    0.178
        73 -10.3270    140.1423     32.5976   7.8917566189e+01   4.6768535284e+01    0.2466107    0.2293529   9.35 0.0001746659    1.124    0.110
        74  -8.7011    152.1054    238.6033   1.2463201091e+02   5.6000564632e+00    0.2816985    0.1675555  30.75 0.0008396407    1.719    0.418
        75  -9.9121    141.0711    181.7201   1.1844677030e+02   1.7500369366e+01    0.4251923     0.283963  66.26 0.0009080857    1.773    0.436
        76  -9.3998    190.0907     15.2487   6.5325667672e+01   3.5830587785e+01    0.2767916    0.1785281 -81.10  0.001338559    1.641    0.391
        77  -9.4557    137.7559    178.0043   1.1853430916e+02   1.8870325848e+01    0.2840288    0.2304965 -59.06 0.0006881536    1.326    0.246
        78 -10.0303    177.4256    221.9448   1.1754358909e+02   3.8498814676e+00    0.3042415    0.2310675  22.81   0.00116086    1.317    0.241
