#   1 NUMBER                 Running object number                                     
#   2 MAG_AUTO               Kron-like elliptical aperture magnitude                    [mag]
#   3 X_IMAGE                Object position along x                                    [pixel]
#   4 Y_IMAGE                Object position along y                                    [pixel]
#   5 X_WORLD                Barycenter position along world x axis                     [deg]
#   6 Y_WORLD                Barycenter position along world y axis                     [deg]
#   7 A_WORLD                Profile RMS along major axis (world units)                 [deg]
#   8 B_WORLD                Profile RMS along minor axis (world units)                 [deg]
#   9 THETA_WORLD            Position angle (CCW/world-x)                               [deg]
#  10 FWHM_WORLD             FWHM assuming a gaussian core                              [deg]
#  11 ELONGATION             A_IMAGE/B_IMAGE                                           
#  12 ELLIPTICITY            1 - B_IMAGE/A_IMAGE                                       
         1 -12.3478     56.4075     36.7750   4.6171383435e+01   6.2691971910e+01    0.9765651    0.3701781 -31.85  0.004024708    2.787    0.641
         2 -10.2130     16.0231     26.3524   6.0655842492e+01   6.9170500301e+01    0.8813241    0.2120651 -34.90  0.003039136    4.674    0.786
         3 -12.8761      3.4080     14.9265   6.2816374437e+01   7.1982317457e+01    0.8225014    0.4214412 -33.31  0.003796994    1.510    0.338
         4 -10.7631      6.8979     25.7342   6.5234425745e+01   6.9976337607e+01    0.4079143     0.201542 -58.67  0.001925426    2.622    0.619
         5 -11.1379     11.0373     24.2813   6.2453009442e+01   6.9917394705e+01     1.502116    0.4904838 -23.42  0.004163419    8.080    0.876
         6 -11.3847     11.8127     13.8440   5.7573544499e+01   7.1487797512e+01    0.5200104    0.1738217 -43.80  0.002122638    2.696    0.629
         7 -10.9808     14.5195     17.5555   5.7748744693e+01   7.0692135356e+01     0.298399    0.1944354 -54.14  0.001794017    2.263    0.558
         8 -11.0724    112.4112     26.7827   2.4217457729e+01   5.3105938456e+01    0.5108762    0.3066254  32.44  0.002499962    1.768    0.434
         9 -11.1139     68.3210     20.8963   3.4941861722e+01   6.2852710950e+01    0.8792875     0.454463  64.94  0.002866626    5.967    0.832
        10 -10.0885     50.0430     16.5334   4.0078979565e+01   6.6445946355e+01    0.2738401    0.1918452 -37.07  0.001672302    1.729    0.422
        11 -10.9050     56.0890     18.6366   3.8566356001e+01   6.5227516948e+01    0.3359711    0.2131533  -4.46  0.001190672    1.632    0.387
        12 -10.3809     54.1632     14.1540   3.7297214128e+01   6.6068101724e+01    0.3511258    0.2072183 -24.64  0.002020137    1.690    0.408
        13 -10.3346     60.8817     13.1427   3.4239851624e+01   6.5044869535e+01    0.3140306    0.2086278 -19.97  0.001483322    1.516    0.340
        14 -11.3991     65.1819     11.8964   3.2115099385e+01   6.4412259210e+01    0.2369398    0.1884654  13.06 0.0003510613    1.082    0.075
        15 -12.0045    132.8297     18.4088   1.7002997530e+01   4.9226294277e+01    0.6921385    0.3233412 -47.46  0.002974287    2.731    0.634
        16 -10.6095    155.9283     21.7615   1.4069002219e+01   4.3300753385e+01    0.2031302    0.1617328  52.26 0.0005628745    1.206    0.171
        17 -10.6650     82.1432     20.0185   2.9955201030e+01   6.0326801108e+01    0.5035752    0.1984066 -35.36   0.00218905    2.821    0.646
        18 -12.5421    238.7668     16.8539   3.6527098793e+00   2.4755222318e+01     0.464146     0.334753  17.39  0.002567476    2.842    0.648
        19 -11.8090    166.2097     12.9829   1.0121900390e+01   4.1706728610e+01    0.4356681    0.2546285  84.14  0.001509679    1.717    0.418
        20 -10.7319    161.9132     19.6324   1.2557281871e+01   4.2070978292e+01    0.3194485    0.2027952  26.71  0.001095044    2.244    0.554
        21 -10.5927    122.0932     20.4582   1.9821045301e+01   5.1555477889e+01    0.3754491      0.22488  25.16  0.001798431    2.080    0.519
        22 -10.1356    133.9474     11.1621   1.4476454294e+01   4.9648656724e+01    0.1985052    0.1655837 -87.62 0.0005279715    1.277    0.217
        23 -10.2031    138.4882     10.5274   1.3505795159e+01   4.8621500577e+01    0.2558704    0.1884552  89.91  0.001180327    1.450    0.311
        24 -10.8849    137.1446     14.9429   1.5116345354e+01   4.8533464590e+01    0.2595231     0.192402 -55.44 0.0004708864    1.567    0.362
        25 -10.7181     73.8024      2.2785   2.5004878967e+01   6.3672261638e+01    0.3187404    0.2018999 -19.56  0.001899427    1.713    0.416
        26 -11.5572     82.1451      6.9909   2.4561755176e+01   6.1607598683e+01    0.2275405    0.1848184  27.56 0.0003214221    1.060    0.056
        27 -12.1996     75.2763     11.8911   2.8716357230e+01   6.2519459203e+01    0.7170824    0.4199331  16.70  0.003370734    1.895    0.472
        28  -9.7849    125.3743     14.1354   1.7023277633e+01   5.1405968389e+01    0.3541435    0.1922803 -63.41  0.001469891    3.150    0.683
        29 -11.0319    232.8085     13.5043   3.4427895024e+00   2.6384203292e+01     0.311184     0.124088 -43.27  0.001107243    2.144    0.534
        30 -12.3392    235.3936      9.5711   2.4510768238e+00   2.6277122320e+01    0.3984634    0.2168677 -89.23  0.001864796    1.706    0.414
        31  -9.9582    177.7488     12.0006   8.4195492633e+00   3.9033936801e+01    0.1861894    0.1604793  62.25 0.0003279821    1.182    0.154
        32 -11.4378    174.3265     13.2705   9.1630665993e+00   3.9725555373e+01    0.3597922    0.2606175   2.29  0.001148765    2.009    0.502
        33 -10.3344    175.3158      8.3375   7.7606440311e+00   3.9971954453e+01    0.2138351    0.1611079  28.61 0.0004278876    1.763    0.433
        34 -10.6255    145.4876     11.4598   1.2664021808e+01   4.6855638489e+01    0.2980229    0.2146313  47.23 0.0007975058    1.338    0.253
        35 -11.0092    145.2563      8.0175   1.1667267070e+01   4.7221773607e+01    0.3376826    0.2370736  57.59  0.001202168    1.231    0.188
        36 -10.2828    119.9571     10.0246   1.6694569476e+01   5.3044947771e+01    0.2857604    0.1796492   1.03  0.001178986    2.060    0.515
        37 -10.0454     27.4112     10.3954   4.7599483648e+01   7.0339547866e+01    0.2072191    0.1211403 -30.02  0.001275965    1.586    0.370
        38 -11.4477    164.5778      4.6411   8.0682176201e+00   4.2878702136e+01    0.2724046    0.2049407  78.13 0.0002644096    1.133    0.117
        39 -11.4803    159.7675      8.8440   9.8381519674e+00   4.3653977698e+01    0.3710352    0.2355269  76.50  0.001211792    1.407    0.289
        40 -10.7698    154.1392      8.1343   1.0407969577e+01   4.5074343413e+01    0.2616722    0.2200618  80.56 0.0004296141    1.065    0.061
        41 -10.2567    100.9203     10.2190   2.0916275402e+01   5.7343304400e+01    0.2085554    0.1729944  41.48 0.0008697895    1.014    0.014
        42  -9.8277    102.3283      7.6714   1.9623794296e+01   5.7252834156e+01    0.2350297    0.1758233 -57.76 0.0009878391    1.819    0.450
        43 -10.0258     90.1062      8.3906   2.2937698259e+01   5.9835589643e+01    0.2666497    0.1600575  24.65  0.001353492    1.737    0.424
        44 -10.0802     16.4983      6.9351   5.1664265363e+01   7.2010439102e+01    0.2335793   0.08609459 -32.70    0.0011755    2.434    0.589
        45  -9.3968     14.4141      2.0150   5.0313808263e+01   7.2858486426e+01    0.1717088    0.1275612  17.00 3.887314e-05    1.336    0.251
        46 -10.8542     19.6066      6.4334   4.9712466116e+01   7.1745321041e+01    0.4600557    0.2335452 -43.31  0.002041466    2.481    0.597
        47 -10.3814     22.2329      1.5892   4.5801001348e+01   7.2037414200e+01    0.2405616    0.1352828  21.23  0.001016111    1.549    0.354
        48 -10.2165     23.8404      4.6425   4.6547384443e+01   7.1483485891e+01    0.1571555    0.1274483   7.33 0.0001460653    1.238    0.192
        49 -10.7196     27.0167      2.6504   4.3878293727e+01   7.1325759665e+01     0.254686    0.2060797  41.10  0.001444851    1.842    0.457
        50  -8.9429    114.2792      8.6792   1.7374317226e+01   5.4472315412e+01    0.1206272   0.09625994 -71.14 0.0004315777    1.582    0.368
        51 -10.4132     36.4130      7.6285   4.1844271643e+01   6.9504255191e+01    0.2723512    0.1921092  31.73  0.001810003    1.391    0.281
        52 -12.2191    243.0101      3.5549   7.4091865292e-01   2.5358587633e+01     0.609367    0.2731029 -89.35  0.003184717    2.197    0.545
        53 -10.6216    223.2242      5.0130   2.4426075497e+00   2.9350399128e+01    0.2541855    0.1802142 -27.32  0.001209728    1.756    0.430
        54 -11.5824    179.3262      3.7405   6.1420845763e+00   3.9450673318e+01    0.3224271    0.1945343  61.43 0.0001977414    1.491    0.329
        55  -9.7743     68.4918      5.2627   2.8008346542e+01   6.4438145523e+01    0.1945544    0.1182291  42.31   0.00095358    1.364    0.267
        56  -9.7876     59.2233      5.3607   3.1267999544e+01   6.6121632375e+01    0.2172542   0.09538023  45.20 0.0006734926    1.946    0.486
        57 -10.4694    126.2406      3.0043   1.3177239217e+01   5.2159138544e+01    0.2252783    0.2019613 -85.90 0.0007320319    1.218    0.179
        58 -10.0242     97.9266      3.3107   1.8993212109e+01   5.8575447705e+01     0.204494    0.1675326  14.87 0.0004577271    1.256    0.204
        59 -10.5668     91.0709      2.2241   2.0224019069e+01   6.0139144389e+01    0.1899285    0.1699487   2.24 0.0002183661    1.227    0.185
        60 -10.0768      9.5003      2.4578   5.3379061046e+01   7.3286573635e+01    0.1950039    0.1697097  51.83  0.001368136    2.487    0.598
        61 -10.7050    230.3276      1.6691   1.2368971365e+00   2.8180158102e+01    0.2127753     0.138032  79.55  0.000702068    1.366    0.268
        62  -9.3170    168.6907      2.3110   6.9573869129e+00   4.2101751606e+01    0.1298989   0.08389984 -70.47 0.0004400171    1.623    0.384
        63  -9.9515     34.5287      1.6678   3.9696872772e+01   7.0424984571e+01    0.2144279    0.1145002  34.00 0.0007386014    1.640    0.390
        64  -9.5460    173.9578      1.5121   6.1581009986e+00   4.0920789119e+01    0.1903565    0.1054167  72.42 0.0004888444    1.517    0.341
        65 -10.0616    121.4361      1.5479   1.3539883756e+01   5.3393599433e+01    0.2669357    0.1050978  64.01   0.00118346    2.093    0.522
        66 -11.9571     15.8915    182.1932   9.0463829152e+01   3.4070806971e+01    0.4567826    0.2495962  74.29  0.001904872    1.790    0.441
        67 -12.1897    247.8513    247.9816   4.9243413450e+01  -1.2360755992e+01      0.61703    0.3749413  -5.00  0.003799388    1.505    0.336
        68 -12.3816    226.1818    245.8025   5.2804398857e+01  -9.3089760033e+00    0.6806567    0.3533006 -13.86  0.003391431    2.381    0.580
        69  -9.7495    109.8789    250.1715   7.6801717747e+01   7.4182685032e+00    0.1949563    0.1466781  54.81 0.0005937715    1.207    0.172
        70 -10.5318     91.2603    249.5909   8.0530078014e+01   1.0259568097e+01    0.2108844    0.1896676  78.06 0.0007128602    1.163    0.140
        71  -9.2948     38.3242    250.6462   9.0899886027e+01   1.6980011956e+01    0.1276003   0.06400787  63.80 0.0006292884    1.762    0.433
        72 -11.5869     21.7268    248.6916   9.3798514700e+01   1.9210765363e+01    0.4566205    0.1863111  48.98  0.002212946    1.885    0.470
        73 -10.5841      5.2080    244.3287   9.6489740560e+01   2.1734700425e+01    0.2659103    0.1466962  68.62  0.000836226    1.412    0.292
        74  -9.6275     13.3118    249.6846   9.5337477032e+01   1.9900981130e+01     0.181706    0.1118083  62.01 0.0005995551    1.228    0.186
        75 -10.2349      6.7296    249.3514   9.6460350448e+01   2.0624856437e+01    0.2133549    0.1093395  82.65 0.0006996965    1.651    0.394
        76 -10.5200     10.0011    248.2558   9.5843457220e+01   2.0508509771e+01    0.2206747    0.1639333  48.33  0.001001926    1.316    0.240
        77 -10.0027    249.5151    180.5204   3.6659950616e+01  -2.8243796200e+00    0.1309361    0.1080124 -18.07 0.0003296188    1.019    0.019
        78 -11.2274      2.9136    179.6995   9.3204420699e+01   3.5733420859e+01    0.3295586    0.2098509  -7.94  0.001819182    2.724    0.633
        79 -10.9580     22.8654    179.9993   8.8654616956e+01   3.3947017004e+01    0.4033486    0.1671818  61.92  0.001409993    2.840    0.648
        80 -10.6140     54.0722    175.6442   8.0522456022e+01   3.1607208795e+01    0.2594966     0.178848 -62.06 0.0007127265    1.368    0.269
        81  -9.4172    172.2967    175.3323   5.0843140911e+01   1.1604755310e+01    0.1541158    0.1147737  -6.15 0.0007028591    1.642    0.391
        82 -11.4799      8.1054    172.7871   9.1493032237e+01   3.6938160658e+01    0.3078648    0.1666734 -57.01   0.00138086    1.807    0.447
        83 -10.5875     17.9837    172.9959   8.9173424637e+01   3.6060495804e+01    0.2067591    0.1238012  67.88 0.0008044912    1.648    0.393
        84 -10.8893      1.5574    165.2163   9.2428791290e+01   3.9216480244e+01    0.4460023    0.1226085 -77.97  0.001732885    3.079    0.675
        85 -10.2489    186.1279    165.8389   4.5779314130e+01   1.0873980292e+01    0.2770313    0.1796285  48.47  0.001253101    1.683    0.406
        86  -9.1373     93.3170    166.7450   6.8867027138e+01   2.8188193363e+01    0.1486792    0.1095193  66.42 0.0002164968    1.533    0.348
        87 -10.3407     67.7136    165.6756   7.5558078570e+01   3.2298485374e+01    0.2886138    0.1865483 -77.56 0.0008509092    1.602    0.376
        88 -10.5468      7.8073    163.5775   9.0791339016e+01   3.9145601111e+01    0.2813822    0.1965124 -25.53  0.001650265    2.044    0.511
        89 -10.0237     54.9786    159.9637   7.8143072963e+01   3.5384734174e+01    0.1720442    0.1515471 -78.63 0.0005558103    1.020    0.020
        90  -9.5876     19.9176    157.6046   8.7176630067e+01   3.9613097301e+01    0.1637574    0.1277716  21.16 0.0009972044    1.585    0.369
        91 -10.6588      2.6844    157.1709   9.1494664736e+01   4.1045440343e+01    0.1917049    0.1800652 -27.27  0.000807602    1.379    0.275
        92 -10.7170    248.1962    155.8746   3.1907030958e+01   1.4678615952e+00    0.3062235    0.1904865  32.49  0.001148732    1.863    0.463
        93  -9.8419    215.4310    154.3655   3.7339765480e+01   7.4946503857e+00    0.3444529    0.1373639  49.31  0.001260588    2.990    0.666
        94 -10.3272    158.9182    153.6639   4.9279227423e+01   1.8918225217e+01    0.3727784     0.268211  30.86  0.001164369    1.468    0.319
        95 -10.2660     11.1959    153.1019   8.8968178338e+01   4.1409793766e+01     0.340924    0.1728499  50.34  0.001736751    2.111    0.526
        96 -10.0121     40.8812    152.2350   8.0911357143e+01   3.8940014400e+01    0.2345263    0.1697061 -69.55 0.0005158656    1.211    0.174
        97  -9.2604    176.7039    150.2948   4.4405119590e+01   1.5977911557e+01    0.1479534    0.1240291 -86.74 0.0002072986    1.564    0.360
        98  -9.8556    144.0174    148.7029   5.1814308330e+01   2.3093872736e+01    0.3525226    0.2031293 -54.68  0.001398303    1.883    0.469
        99 -11.4583     17.4514    143.5872   8.6277456574e+01   4.3252291756e+01    0.3608437    0.2071359  78.91  0.001564618    1.931    0.482
       100 -10.7085     13.9941    140.0180   8.6819136126e+01   4.4391346788e+01    0.2514514    0.1539586 -66.46 0.0003046132    1.330    0.248
       101  -9.5611     41.6173    146.3265   7.9869098007e+01   4.0343749551e+01    0.1479637   0.09380685  67.12 0.0001110075    1.854    0.461
       102 -10.5342      6.5019    145.3656   8.9425067486e+01   4.3620540329e+01    0.4382821    0.1369633  29.55  0.001905331    3.305    0.697
       103 -11.5607     13.8686    147.5518   8.7692386964e+01   4.2557930354e+01    0.3403363    0.1920391 -81.01 0.0002617483    1.548    0.354
       104 -13.4405     37.4179    134.9988   7.9391889674e+01   4.3617966421e+01     0.553472     0.359349 -69.11 0.0009198891    1.357    0.263
       105 -11.6658     37.6813    126.5554   7.7955698089e+01   4.5701589580e+01    0.3819146    0.2458378  15.84  0.001699973    1.903    0.474
       106  -9.8660    188.9886    139.6917   3.9296802971e+01   1.5619111906e+01    0.2081819    0.1980505  35.27 0.0004612039    1.096    0.088
       107 -10.8579    217.6101    145.0457   3.4887203889e+01   8.8283660398e+00     0.390212    0.1996474  33.54  0.001589358    2.438    0.590
       108 -10.0708    236.1521    138.1258   3.0136837697e+01   6.6285997415e+00    0.1858043    0.1564462 -56.74  0.000536213    1.305    0.234
       109  -9.6481    144.1530    136.8387   4.9008671402e+01   2.5775883333e+01    0.2196853    0.1881808  -4.41 0.0003490467    1.334    0.251
       110  -9.0976      9.4481    136.4549   8.7678732515e+01   4.5583680793e+01    0.1273773    0.1031133 -76.45 1.580119e-05    1.014    0.014
       111 -10.2048      2.7670    135.5946   8.9437839304e+01   4.6222496270e+01    0.2911168   0.09818199 -63.50  0.001299793    2.178    0.541
       112 -11.1296     20.5483    134.9772   8.4344178180e+01   4.5129110593e+01    0.2502578    0.1470354 -78.15  0.001165386    1.532    0.347
       113 -11.2720     17.0123    131.0316   8.4859824717e+01   4.6372713063e+01     0.353615    0.2492021  19.66  0.001465556    1.728    0.421
       114 -12.0309     53.6239    132.8140   7.4136789266e+01   4.2392476960e+01     0.494817    0.4274825  22.90 0.0005111315    1.307    0.235
       115 -10.3329     59.3591    131.3060   7.2102719925e+01   4.2062732248e+01    0.2326391    0.1861117   8.19  0.001231179    1.495    0.331
       116 -12.6630     81.6963    124.9887   6.3886274539e+01   4.0451865386e+01     0.940579    0.5599701 -51.97  0.002798094    1.569    0.362
       117 -11.7284     74.1604    128.6262   6.7005692213e+01   4.0700527237e+01    0.4203433    0.3506292 -28.62  0.001277991    1.294    0.227
       118  -9.2667     64.3074    131.6416   7.0648772219e+01   4.1331664945e+01    0.1505227    0.1091936  76.91 0.0007041062    1.730    0.422
       119 -11.0381      4.7027    130.2271   8.8317088185e+01   4.7400770311e+01    0.2157327    0.1890053 -62.91 0.0002762907    1.136    0.120
       120 -10.6319      4.3128    126.3451   8.7987259403e+01   4.8361913002e+01    0.2158814    0.1160556 -56.54  0.001125326    1.543    0.352
       121  -9.6309    225.5569    129.4939   3.0016932069e+01   1.0171556418e+01    0.1428104    0.1268617 -38.63 0.0002182319    1.026    0.026
       122  -9.5717    217.2941    129.3328   3.1418450774e+01   1.1828211009e+01    0.1452446    0.1106967  -5.50 0.0003167152    1.638    0.389
       123 -11.2849     24.4490    127.5077   8.2161496664e+01   4.6659331582e+01    0.3169374    0.2449162 -80.81  0.001312902    1.198    0.165
       124 -10.2199    229.5201    125.0396   2.8361169608e+01   1.0209680909e+01    0.2777013    0.1214534 -42.82  0.001131476    2.041    0.510
       125  -9.4256    225.9825    123.4227   2.8585298397e+01   1.1190806874e+01    0.2512274    0.1445052  57.70   0.00102618    2.113    0.527
       126 -10.5135    117.4214    124.2221   5.3084390296e+01   3.4213024506e+01    0.3078915    0.1471979 -44.04  0.001124089    2.086    0.521
       127 -11.2573     46.8911    124.2918   7.4675471600e+01   4.5303465427e+01    0.3104651    0.2387957  31.43 0.0005084171    1.449    0.310
       128 -10.6376     30.4237    124.0689   7.9803740687e+01   4.6999232338e+01    0.2476998    0.1720425 -41.72 0.0008858154    1.441    0.306
       129  -9.8795     20.0047    122.7442   8.2825147918e+01   4.8182963792e+01     0.254522    0.1525395 -61.55 0.0004506973    1.358    0.263
       130 -10.1340     22.3364    119.6787   8.1643875351e+01   4.8755296070e+01    0.2391173    0.1763927  54.63  0.001020875    1.577    0.366
       131 -10.3536     25.0399    118.4995   8.0606529501e+01   4.8829318797e+01    0.2681543    0.1986182  59.89  0.001498141    1.584    0.369
       132 -11.3002      2.3121    118.0731   8.7596935437e+01   5.0464909545e+01     0.382514    0.2151675 -50.54   0.00118311    1.560    0.359
       133 -11.4276     10.8746    121.8621   8.5488980025e+01   4.9040203828e+01    0.4168032    0.2112893 -65.99  0.002145229    1.553    0.356
       134 -10.7153      7.3962    118.7887   8.6144451236e+01   5.0001554703e+01    0.2756196     0.195577 -20.67  0.001331831    1.711    0.416
       135 -10.2153     75.5706    112.3628   6.2887787816e+01   4.4482257189e+01    0.2581224    0.2026714  30.89 0.0006173691    1.354    0.261
       136 -11.5824     68.4756    121.5233   6.7264256882e+01   4.3283343326e+01    0.4556747    0.2824774  20.93  0.002056647    1.927    0.481
       137 -10.3864     65.7634    119.4150   6.7672965130e+01   4.4180533371e+01    0.2864414    0.2139326  -2.34 0.0006948397    1.680    0.405
       138 -10.5703     61.1882    121.8043   6.9644914046e+01   4.4201216504e+01    0.2053127    0.1556479 -38.01 0.0005718675    1.331    0.248
       139 -10.6713     71.5085    115.3153   6.4901236303e+01   4.4372801710e+01    0.4012291    0.3086601 -68.06  0.002029042    1.369    0.270
       140 -10.5107     56.5439    121.0240   7.0970417734e+01   4.4985372449e+01    0.2226869    0.1300946 -61.19 0.0004448372    1.571    0.364
       141 -11.4564     19.7911    108.6964   8.0714201569e+01   5.1617538689e+01    0.4760459     0.269229  -3.89  0.002351538    2.411    0.585
       142 -12.0783     16.4666    115.6837   8.2891077222e+01   5.0163816228e+01    0.3636207    0.2946855  86.24 0.0009639678    1.289    0.224
       143 -12.1814     13.4571    110.3131   8.3047220902e+01   5.1664811329e+01    0.5825311    0.4121942 -72.85  0.003318909    1.233    0.189
       144 -10.3438    249.5952    117.2605   2.3588097502e+01   7.8042463114e+00    0.1930986    0.1138188 -31.62 0.0009205936    1.617    0.382
       145  -9.8773     85.9535    116.1637   6.0492064557e+01   4.1914369456e+01    0.2140924     0.200959  79.50  0.001154999    1.177    0.150
       146 -11.0155    182.3194    114.6975   3.4644561518e+01   2.2114909561e+01    0.4801196    0.2666382  40.34  0.001433862    1.993    0.498
       147  -9.9450     40.9130    114.9409   7.4849659327e+01   4.8253749296e+01    0.2143972    0.1570946  71.22 0.0006315559    1.713    0.416
       148 -11.6665     55.3510    109.7317   6.8968259053e+01   4.7904468997e+01    0.2960193    0.2714779 -14.09 0.0005979023    1.145    0.127
       149 -10.7930     62.9657    106.8812   6.5749190038e+01   4.7610084813e+01    0.2448996     0.195445 -57.60 -0.001320134    1.193    0.162
       150 -10.6450     58.9768    105.9945   6.6891448884e+01   4.8348573166e+01    0.2645056    0.2071106  42.33 0.0003494635    1.435    0.303
       151 -11.7065     61.8436     99.6332   6.4367559148e+01   4.9478216895e+01    0.5776196    0.2725615 -43.54  0.002393838    1.997    0.499
       152 -11.4505     31.2027    107.4133   7.6662353497e+01   5.1010951877e+01    0.4225948    0.3110296 -87.15  0.001886807    1.539    0.350
       153 -12.0864     50.9298    103.7059   6.9123262787e+01   4.9886025855e+01    0.3554264    0.2691546 -39.12  0.000631928    1.232    0.189
       154  -9.8591     74.9959    103.9961   6.0999682073e+01   4.6560163171e+01     0.212822    0.1653313 -26.34 0.0003535555    1.351    0.260
       155 -11.3414     76.0695     98.5793   5.9222323249e+01   4.7651262638e+01    0.6665852    0.4147559  -8.33  0.002655852    2.573    0.611
       156  -9.5320     80.9008    102.4865   5.8649835225e+01   4.5978908075e+01     0.368243    0.1504758 -38.86  0.001253099    2.809    0.644
       157  -9.9337     38.3669    102.8484   7.3295685603e+01   5.1442776778e+01    0.2112312    0.1009532 -51.55 0.0009515125    1.742    0.426
       158 -10.9546     41.0922     97.5261   7.1181743516e+01   5.2433498700e+01    0.4625087    0.1625043 -56.02  0.001113556    2.337    0.572
       159 -10.5492      3.0118    106.8637   8.5924485853e+01   5.3099412596e+01    0.3949185    0.1721272 -71.63  0.001019431    1.882    0.469
       160 -10.5560     27.0033     94.0048   7.5486853147e+01   5.4557716443e+01    0.1913204    0.1627703 -50.82            0    1.025    0.025
       161 -11.4073     23.3586     90.3117   7.6051294956e+01   5.5704885957e+01    0.4075426    0.2369232 -32.23  0.002121458    1.743    0.426
       162 -11.9737     16.0708     97.6823   8.0087262922e+01   5.4501990174e+01    0.5219535    0.3248805 -62.61  0.002285557    1.319    0.242
       163 -10.2492     34.1052     99.4883   7.4087591785e+01   5.2648998008e+01    0.4641548    0.2135805 -78.87  0.001628383    3.738    0.732
       164 -10.1200    107.9588     99.2658   4.9214394150e+01   4.1790319201e+01    0.3097676    0.1997447 -71.91  0.001169397    2.585    0.613
       165 -10.1152     23.5625     99.1297   7.7728923409e+01   5.3623464337e+01     0.424963    0.2048917  21.92   0.00139558    2.384    0.581
       166  -9.2243    245.6979     98.6753   2.0152270447e+01   1.1642420795e+01    0.1271245    0.1027604  -5.46 0.0007030194    1.637    0.389
       167  -9.9474    225.9874     98.0576   2.2827967841e+01   1.5682856550e+01    0.2047097    0.1847887 -55.19 0.0003402586    1.026    0.025
       168  -9.5242     81.9758     97.6087   5.6981653442e+01   4.6920839146e+01    0.1942574    0.1801992   7.29  0.001068108    1.091    0.083
       169  -9.4496    109.4589    105.5887   5.0524888415e+01   4.0088935173e+01    0.1532263    0.1481263  -7.29 7.998734e-05    1.018    0.018
       170 -10.6219    102.0633     95.5459   4.9949297170e+01   4.3761276880e+01    0.3167151    0.2548665  70.97  0.001516244    1.622    0.383
       171 -10.5683    226.2495     93.1572   2.1668930722e+01   1.6465725634e+01    0.2459189    0.2067175 -80.81 0.0004270564    1.267    0.210
       172 -10.2385     52.0607     93.6238   6.6320134376e+01   5.2122753878e+01    0.1827499    0.1679586  -2.85 0.0002444844    1.135    0.119
       173  -9.7984     66.9916     97.7831   6.2112772488e+01   4.9194712506e+01     0.198989    0.1358112  14.75 0.0004062977    1.714    0.417
       174 -10.0387     31.7873     92.6963   7.3469688073e+01   5.4455498494e+01    0.2072415    0.1639588 -59.39 0.0002744455    1.152    0.132
       175 -11.5323     57.3528     90.2987   6.3554658435e+01   5.2222728357e+01    0.4103226    0.2856512 -14.92 0.0006561516    1.671    0.402
       176 -10.5916     36.3614     91.0149   7.1414392475e+01   5.4423177170e+01    0.3886558    0.2415819  62.30  0.001777998    2.641    0.621
       177 -11.8756     10.5972     90.9936   8.0832539469e+01   5.6405372250e+01    0.2333889    0.2107335 -45.32 0.0003924788    1.131    0.116
       178 -10.0766    231.5345     91.1037   2.0439903102e+01   1.5715279313e+01    0.2103108    0.1218331 -40.32 0.0006054089    1.538    0.350
       179 -10.6470     97.3572     89.3038   4.9599741428e+01   4.6005698846e+01     0.430012    0.2026403 -29.10  0.001406601    3.223    0.690
       180  -9.0448     94.4980     88.5187   5.0278831214e+01   4.6711109466e+01    0.2226043    0.1418418  48.83 0.0008528593    1.751    0.429
       181  -9.5592    160.3372     90.6620   3.3050808817e+01   3.1900701447e+01    0.1617966    0.1211402 -78.46 0.0007051295    1.755    0.430
       182 -10.1740    177.9010     89.0027   2.8919003320e+01   2.8056328461e+01     0.215692    0.2104817 -54.83 0.0002995982    1.032    0.031
       183 -10.4045     85.0214     88.4987   5.3379927678e+01   4.8422101429e+01    0.5273731    0.2460207  40.27  0.002092905    2.217    0.549
       184 -11.1894     64.9312     84.6187   5.9246932143e+01   5.2453273751e+01    0.5899773    0.3133079 -64.87  0.002289061    2.805    0.644
       185 -11.7524    107.4186     84.8175   4.5137240879e+01   4.4950091622e+01    0.3297022    0.2687506  61.52 0.0003566273    1.445    0.308
       186  -9.0144     39.2760     86.2996   6.9204034544e+01   5.5216046240e+01    0.1381528   0.08780998 -32.54            0    1.536    0.349
       187 -10.2137     29.6698     85.3236   7.2599186947e+01   5.6337425456e+01    0.2399932    0.1912864  63.74   0.00095027    1.687    0.407
       188 -10.7627     30.4235     81.5308   7.1413228292e+01   5.7127938111e+01    0.3007102    0.2033672 -49.11  0.000810842    1.231    0.188
       189  -9.5628     21.6122     86.2991   7.5857129836e+01   5.6759189117e+01    0.1245053   0.09443542  64.72 0.0005970006    1.786    0.440
       190  -9.9924     69.0035     82.5012   5.7164428899e+01   5.2312513633e+01    0.2873457     0.203987 -67.51 0.0009980459    1.878    0.468
       191  -9.2843     34.2979     84.6548   7.0684386667e+01   5.6073342416e+01    0.1258406     0.101898  79.86 0.0007034991    1.674    0.403
       192 -10.1521    117.0168     83.3535   4.1873508568e+01   4.3228109956e+01    0.2186966    0.1954013  41.80 0.0006422836    1.114    0.102
       193  -9.7749     88.0180     83.0471   5.0748746323e+01   4.9048718927e+01     0.312378    0.2009841  47.69 0.0009285354    1.740    0.425
       194 -12.8135     88.3009     77.3635   4.8890517152e+01   5.0158459747e+01    0.3593085    0.3058178   2.36 0.0004213582    1.187    0.157
       195 -10.7754     43.0542     82.9878   6.6933482016e+01   5.5565881436e+01    0.2271715    0.1857518  14.27 0.0004925503    1.315    0.239
       196 -10.9053     76.9525     82.0309   5.4210412573e+01   5.1162632376e+01    0.4690467    0.2011411  40.10  0.001830261    2.442    0.590
       197 -10.0207     21.1683     82.0752   7.5108274246e+01   5.7751180952e+01    0.2124661    0.1415284 -41.10   0.00111365    1.276    0.216
       198 -10.2432      7.5417     80.9743   8.0094294746e+01   5.8863252657e+01    0.3101282    0.1211011 -47.56  0.001030556    1.958    0.489
       199 -10.9754     49.2250     78.2797   6.3293987058e+01   5.5898904420e+01    0.4443014    0.3619018  77.60  0.002439505    1.822    0.451
       200  -9.7535     40.1868     79.3641   6.7080379179e+01   5.6672791168e+01    0.1957639    0.1481642 -40.23 0.0007672218    1.130    0.115
       201  -9.9966     26.0899     76.3475   7.1844675595e+01   5.8646493379e+01    0.3320139    0.1639242 -32.96  0.001267733    2.037    0.509
       202 -10.5076     18.6937     78.0673   7.5172152839e+01   5.8826480529e+01    0.2789849    0.1655969 -41.51 0.0006440223    1.415    0.293
       203 -10.4388     21.8398     75.0947   7.3232774226e+01   5.9255480673e+01    0.3022124    0.2116721 -66.71  0.001069037    1.468    0.319
       204  -9.7081    203.3820     77.9656   2.1565040122e+01   2.4038688083e+01    0.1972295    0.1658074 -45.82 0.0003751052    1.136    0.120
       205  -9.6427    112.5267     78.2080   4.1583666573e+01   4.5189593393e+01    0.2100662    0.1422011 -24.58 0.0007367287    1.680    0.405
       206 -11.6249    167.8206     73.4822   2.6711708166e+01   3.3202767491e+01    0.3633046    0.2503414 -49.95 0.0003241521    1.501    0.334
       207  -9.1932    149.4402     77.5454   3.1794580475e+01   3.6911025284e+01    0.1501566    0.1450432  30.53 0.0001264331    1.054    0.051
       208 -10.2251     99.8316     76.1543   4.4775937513e+01   4.8198288141e+01    0.2175802    0.2084145 -74.87  0.000754384    1.228    0.186
       209 -10.1870     76.5148     74.4833   5.2026424874e+01   5.2791761892e+01    0.3029762    0.2245815 -44.98  0.001570701    1.345    0.257
       210 -10.5672     38.0705     75.5146   6.6874844901e+01   5.7731045086e+01    0.3207682     0.185868 -20.40  0.001159333    2.021    0.505
       211 -10.3679     11.9827     73.7565   7.6866736328e+01   6.0216300354e+01    0.3891111    0.1523008 -60.90   0.00181119    2.073    0.518
       212 -10.5688    107.5610     73.3828   4.1524023687e+01   4.7151033719e+01     0.356349    0.2911228 -77.06  0.001758596    1.686    0.407
       213 -10.4164     54.9420     75.1289   6.0187388173e+01   5.5858208581e+01    0.2606177    0.1552068  28.50  0.001280525    1.770    0.435
       214  -9.7823     61.6628     72.8035   5.6925413966e+01   5.5425681071e+01    0.3842354    0.1162437 -47.33  0.001340012    3.018    0.669
       215 -10.5479      6.3628     73.5615   7.9065341367e+01   6.0574281309e+01    0.2995169    0.1406669  11.54  0.001520029    2.503    0.600
       216  -9.4015    206.8064     73.2395   1.9876837117e+01   2.4031240030e+01    0.1730537    0.1623936  -6.16 0.0003692962    1.280    0.219
       217 -10.1164    246.4429     72.4722   1.4449167873e+01   1.5673248960e+01    0.1309581    0.1088794 -57.26 4.588309e-05    1.011    0.011
       218 -10.6931    109.9861     64.3696   3.7876723178e+01   4.8260974567e+01    0.4303615     0.368114 -86.64  0.002246581    1.549    0.354
       219 -10.6713    102.9874     69.6277   4.1691965344e+01   4.8793741025e+01    0.4196387    0.2129253 -38.24 0.0009045885    1.999    0.500
       220  -9.7318    105.3164     66.3209   3.9898704225e+01   4.8908686776e+01    0.2195125    0.1860835 -27.50 0.0004664737    1.188    0.158
       221  -9.9800     25.3220     71.0706   7.0820584973e+01   5.9857941100e+01    0.3057782    0.2214144 -78.41  0.001720547    1.815    0.449
       222 -13.7725     16.5898     67.3361   7.3474252152e+01   6.1312072575e+01    0.4516283    0.3011728 -41.14 0.0007991517    1.207    0.172
       223 -11.2021     93.4863     67.6120   4.4018905719e+01   5.1059807853e+01    0.5820838    0.2544101 -37.25  0.002265131    2.340    0.573
       224 -11.4343     46.0114     60.7339   5.9242038118e+01   5.9907434541e+01    0.4201819    0.2548786   3.55 0.0003729968    1.978    0.495
       225 -11.9251     50.3810     68.3708   5.9907376220e+01   5.7842637868e+01    0.3442805    0.2584342 -44.29  0.001030903    1.244    0.196
       226 -11.0822     52.1723     62.6812   5.7377851459e+01   5.8751783965e+01    0.3810298    0.2673999  -4.04  0.002053906    1.524    0.344
       227  -9.4033     51.3904     57.5003   5.5958450612e+01   5.9850880976e+01    0.1989886    0.1581079   0.39 0.0001525945    1.188    0.159
       228  -9.8318     45.0387     70.6786   6.2731061198e+01   5.8006783200e+01    0.1756982    0.1532263 -11.89 0.0002321891    1.088    0.081
       229  -9.8219     43.2614     67.2067   6.2403970309e+01   5.8929104175e+01     0.242882    0.1958264 -80.50  0.001118159    1.827    0.453
       230 -11.1444    122.7157     67.4534   3.5334944074e+01   4.4919076656e+01    0.2785676    0.2521894 -42.11 0.0004615952    1.166    0.143
       231  99.0000     20.2917     45.0165   6.5371667191e+01   6.5527673631e+01    0.4923037    0.3713842  37.82  0.002053848    1.785    0.440
       232 -10.6740     23.7406     41.6559   6.2590752036e+01   6.5850181990e+01    0.2880312     0.195265 -50.05 0.0006214168    1.515    0.340
       233 -12.8321     27.0897     37.2515   5.9388624807e+01   6.6313178975e+01    0.4318755    0.3076093  35.65  0.001755067    1.785    0.440
       234 -11.0133      6.5073     67.9234   7.7794095738e+01   6.1793686159e+01    0.2186643    0.2013939 -79.66 0.0003652444    1.324    0.245
       235 -11.5041      2.9268     63.9132   7.8388379763e+01   6.2830826938e+01    0.4599479    0.2689967 -68.11  0.002129594    1.647    0.393
       236 -11.9797     10.3909     57.3744   7.3577609636e+01   6.3796023851e+01    0.7788487    0.4364362 -35.68  0.003531094    1.483    0.326
       237 -11.0305      2.6452     52.8761   7.5868371646e+01   6.5137066174e+01    0.3351796    0.1954375 -34.46  0.001249953    1.405    0.288
       238 -11.2888      7.8341     51.7214   7.3202891861e+01   6.5093139327e+01    0.3045505    0.2599976 -65.99  0.001057513    1.396    0.284
       239 -11.2953      2.9749     48.0621   7.4442984556e+01   6.6085326686e+01    0.3967396    0.2303398 -36.98  0.002440645    1.346    0.257
       240 -13.2298     12.4429     47.7156   6.9913965595e+01   6.5596658364e+01    0.3779954     0.348634  28.85 0.0006552859    1.454    0.312
       241 -11.1991      7.4475     40.6194   7.0113454024e+01   6.7273787030e+01    0.3160157    0.1775293 -28.35 0.0008700793    1.508    0.337
       242  -9.7092     76.7939     67.8313   4.9767228281e+01   5.4053309207e+01    0.1792776    0.1716704  83.15 0.0005269555    1.350    0.259
       243  -9.4898     35.0056     67.9903   6.6007407988e+01   5.9640692602e+01    0.1576124    0.1268633 -36.68 0.0003587261    1.049    0.047
       244 -12.0268    147.0553     65.6198   2.8815052156e+01   3.9532051367e+01    0.2878026    0.2557069 -65.64 0.0009052798    1.215    0.177
       245 -11.1308    154.9380     63.0071   2.6345564253e+01   3.8051581963e+01    0.3440881    0.3326402   6.22  0.001195563    1.116    0.104
       246 -10.5229    151.5353     60.2553   2.6246708021e+01   3.9312547986e+01    0.4039498    0.2164579  42.65   0.00167438    1.990    0.497
       247 -10.0869    132.0971     66.1550   3.2504633606e+01   4.2987729959e+01    0.3567604    0.2437925 -58.07  0.001610918    1.837    0.456
       248 -12.6589     30.2657     63.2360   6.6605390883e+01   6.1078876697e+01    0.4433037    0.3840815 -33.31  0.001233089    1.093    0.085
       249 -11.5843    202.1111     62.5703   1.7960982272e+01   2.6789854512e+01    0.3322948    0.2215239 -30.38 0.0001294862    1.643    0.391
       250 -10.1433     81.5179     65.0093   4.7160278959e+01   5.3766090509e+01    0.2190085    0.1792337  28.23 0.0005113637    1.193    0.161
       251  -9.9678     61.9505     64.1459   5.4027830513e+01   5.7110433813e+01    0.2708715    0.1565392 -22.13 0.0009083257    2.071    0.517
       252  -9.3104    179.6289     63.8256   2.1877936678e+01   3.1927336724e+01    0.1980134    0.1271856 -47.32 0.0005033067    1.562    0.360
       253  -9.5094    159.8151     64.3998   2.5750651901e+01   3.6643963777e+01    0.1950222    0.1743956 -62.45  0.001054186    1.154    0.134
       254 -10.5670    209.9875     63.0756   1.6957887880e+01   2.4902783142e+01    0.2034324    0.1816172 -70.26 0.0003602001    1.006    0.006
       255  -9.4006     75.3782     63.1530   4.8698449519e+01   5.5175810314e+01    0.1901934    0.1284264 -49.97 0.0009188883    1.679    0.404
       256  -9.3471    193.5276     62.5111   1.9244837897e+01   2.8809986488e+01    0.1413079    0.1302359 -78.46 0.0001587739    1.002    0.002
       257  -9.2829    168.3449     61.2767   2.3211556946e+01   3.5062129516e+01    0.1469239    0.1097271  31.47 0.0002053098    1.628    0.386
       258 -10.8471    119.3758     60.9360   3.4126680143e+01   4.6774477225e+01    0.2748869    0.2507552  -9.70 0.0001836705    1.124    0.111
       259 -11.9705    114.7961     55.5824   3.3593455631e+01   4.8663556159e+01    0.5479375    0.2638281  44.23  0.001263726    1.968    0.492
       260 -10.2646     90.0674     61.0548   4.2914765435e+01   5.2899452437e+01    0.2116161    0.1981932   2.55 0.0004182757    1.060    0.057
       261 -10.7078    135.8983     58.7857   2.9279271668e+01   4.3297372932e+01    0.4241706    0.2756355  78.28  0.001799838    2.188    0.543
       262  -9.3746    114.7952     60.3133   3.5171267780e+01   4.7898816194e+01    0.2016783    0.1235904  41.53 0.0002158106    1.570    0.363
       263 -10.5114     58.9448     59.2524   5.3538927118e+01   5.8479490521e+01    0.3085968    0.2207355 -40.39  0.001699937    1.340    0.254
       264 -11.2015    132.7055     50.4836   2.7397239416e+01   4.5315265104e+01    0.5943139    0.3649363 -59.13  0.002018583    2.291    0.564
       265  -9.9947    130.6295     56.9165   2.9948576958e+01   4.4832084368e+01    0.4307139     0.179026 -26.52 0.0009570387    3.208    0.688
       266  -9.7353    127.1103     58.5359   3.1337752589e+01   4.5396738484e+01    0.2568618    0.1713559  44.89 0.0006587242    1.422    0.297
       267  -9.8309     69.7595     58.9560   4.9302205881e+01   5.6877804067e+01    0.1916014    0.1601121 -24.40 0.0003752326    1.116    0.104
       268 -10.2606    170.8073     57.3012   2.1656020639e+01   3.5071468879e+01    0.2733443    0.2035784 -86.87  0.001357867    1.531    0.347
       269  -9.6074    163.7991     57.6635   2.3046617165e+01   3.6726085976e+01    0.2211363    0.1714444  41.77  0.000752665    1.368    0.269
       270 -10.1896     93.3473     57.8914   4.0752020377e+01   5.2806385978e+01    0.2990813    0.2358803 -88.15  0.001160471    2.094    0.523
       271 -10.5807     88.5999     56.0304   4.1645167539e+01   5.4045453451e+01    0.4051455     0.243608   7.38  0.001633831    2.649    0.622
       272 -10.8565     89.0063     52.0011   4.0074188066e+01   5.4631692418e+01     0.361063    0.2402246  -9.72  0.001727406    1.824    0.452
       273 -10.6116     79.4591     57.0558   4.5124998006e+01   5.5563471435e+01    0.2582602    0.2233416  -2.36 0.0004778375    1.061    0.058
       274 -10.8116     81.6857     52.5309   4.2727913478e+01   5.5929397855e+01    0.3656974    0.1794538 -39.05  0.001608664    2.067    0.516
       275 -10.3910     74.4429     56.7603   4.6809452911e+01   5.6490943085e+01    0.2287935    0.1773096  26.84 0.0005875834    1.241    0.194
       276  -9.4999    176.8896     56.1504   2.0281018557e+01   3.3764735794e+01    0.1922854    0.1625564  41.34 0.0004612636    1.306    0.234
       277 -11.2680    104.6402     53.3506   3.5704314562e+01   5.1228061633e+01    0.4173248    0.3622521 -43.30  0.001531963    1.289    0.224
       278 -10.1361     83.7165    248.4473   8.1937568552e+01   1.1546603343e+01    0.2359398   0.09359682  42.15 0.0006473852    2.025    0.506
       279 -12.1299     54.6521     48.8876   5.1565761098e+01   6.0968243828e+01    0.8101991    0.2793622  32.13  0.002829892    3.014    0.668
       280 -10.8559     50.4150     43.3316   5.1231921876e+01   6.2510458010e+01    0.4954525    0.2765983 -22.85  0.002446439    1.913    0.477
       281 -10.8257     44.9545     38.3377   5.1630288502e+01   6.4070747737e+01    0.2912747    0.1849205 -36.85  0.001653191    1.487    0.327
       282 -12.1397     39.0885     50.5420   5.8737346683e+01   6.2660145907e+01    0.7095985    0.4987372   5.88  0.004175342    1.411    0.291
       283  -9.8155    187.8049     54.2292   1.8003957284e+01   3.1415325567e+01     0.189569    0.1613963  41.30 0.0009153777    1.346    0.257
       284 -10.1505    144.6033     54.0516   2.5853719590e+01   4.1940607742e+01    0.3753018    0.2058758  73.68  0.001447919    2.540    0.606
       285 -10.1564    149.2051     51.7670   2.4194053752e+01   4.1163032245e+01    0.3777533    0.2214285  38.41  0.001124108    1.942    0.485
       286 -10.7248    126.6926     51.5538   2.9177957307e+01   4.6569666618e+01    0.3398817    0.2463198 -26.39  0.001715566    1.497    0.332
       287  -9.9018     73.5553     50.0001   4.4682275949e+01   5.7798459050e+01      0.27863    0.1670873 -36.01  0.001194286    1.650    0.394
       288 -10.2795    182.7290     49.6502   1.7592391698e+01   3.3294380195e+01    0.3643703     0.160871  61.68   0.00150256    2.136    0.532
       289 -10.2964    141.2736     48.8419   2.4963981573e+01   4.3504923681e+01    0.2406534     0.233528 -15.69 0.0005458673    1.107    0.097
       290 -10.9228    142.2222     45.3844   2.3688839615e+01   4.3760846980e+01     0.407803    0.2153743  62.94  0.001757513    1.884    0.469
       291  -9.5861    164.0075     48.4734   2.0393776473e+01   3.8019079083e+01    0.2151252    0.1329758  63.66 0.0003845238    1.536    0.349
       292  -9.3003    157.1884     48.0514   2.1522738710e+01   3.9747171353e+01    0.1792003    0.1116552 -31.83 0.0004610825    1.734    0.423
       293  -9.4421     78.6888     47.6808   4.1988118257e+01   5.7265005884e+01     0.142421   0.09845946   5.65 0.0002718577    1.645    0.392
       294  -9.9306    104.1679     46.0179   3.3268201971e+01   5.2442966332e+01    0.2010765     0.190877  89.70 0.0004407504    1.284    0.221
       295 -10.6441    152.3234     44.9975   2.1546138910e+01   4.1359038942e+01    0.3481554    0.1770326  54.00 0.0009579124    1.789    0.441
       296  -9.9901    112.4148     45.2060   3.0697571696e+01   5.0753177901e+01    0.2364002    0.1806343  45.31 0.0006358393    1.202    0.168
       297 -10.5089    115.7296     42.6218   2.8935456610e+01   5.0369256740e+01    0.2945396    0.1411026  42.50 0.0008081467    2.005    0.501
       298 -11.2651     96.6257     42.0955   3.4069800717e+01   5.4602173268e+01    0.3970202    0.2639786  19.22 0.0009218488    1.720    0.419
       299 -10.0839    130.9908     42.0138   2.5055846895e+01   4.6908435714e+01    0.2809359     0.195792 -28.86  0.001366858    1.564    0.361
       300 -11.1287     72.5258     42.6686   4.2290794699e+01   5.9148355089e+01    0.2668501    0.2481144 -34.15  0.000467519    1.311    0.237
       301 -10.9509     62.3451     41.4385   4.5654951525e+01   6.1042891560e+01    0.3789256    0.1651935 -40.83  0.001678766    2.351    0.575
       302 -11.6605     65.2113     36.7431   4.2688559311e+01   6.1291163645e+01    0.2793191    0.2127689  37.52 0.0002500659    1.343    0.255
       303 -10.8213     44.3114     43.6571   5.3963951221e+01   6.3263119271e+01    0.3082474    0.2757018  56.44  0.001202425    1.710    0.415
       304 -10.7448     89.1602     41.0915   3.6010361513e+01   5.6264791103e+01    0.2867526    0.2379346 -41.28 0.0009153747    1.405    0.288
       305 -10.1164     92.5911     35.7613   3.2931007535e+01   5.6306434747e+01    0.3141876    0.1965286  12.01  0.001229437    2.053    0.513
       306 -11.0694    226.3421     40.0793   9.6721179947e+00   2.4526838698e+01    0.2925981    0.1856481 -59.37  0.001176756    1.445    0.308
       307 -10.5258    163.5676     44.1515   1.9241302374e+01   3.8722774777e+01    0.2314084       0.1838  80.97 0.0004247546    1.257    0.204
       308 -10.8856    108.5635     40.7904   3.0187323087e+01   5.2223090215e+01    0.3568338    0.2427077  68.53  0.001731369    1.841    0.457
       309 -11.9060     83.9435     36.4553   3.5930178160e+01   5.7941781117e+01    0.6582924    0.3919592  -9.03  0.002767072    2.157    0.536
       310 -11.9188     74.7988     35.7986   3.8788279206e+01   5.9754271076e+01    0.4536842    0.4126111 -79.59 0.0008101737    1.663    0.399
       311  -9.8539     73.5464     31.4808   3.7499242164e+01   6.0574865550e+01    0.2397879    0.1634352  24.02 0.0006604004    1.381    0.276
       312 -10.1120    234.5567     39.6739   8.7465505416e+00   2.2816013889e+01    0.3784609    0.1785237  79.17  0.001773245    2.354    0.575
       313  -9.2740    170.5045     40.4551   1.7042897573e+01   3.7517727725e+01    0.1384673    0.1259665  66.64 3.637738e-05    1.068    0.064
       314 -10.6752    202.1860     37.2597   1.1764175582e+01   3.0346082896e+01    0.2257952    0.2053693 -74.75 0.0004134801    1.077    0.071
       315  -9.5459    154.8467     37.5292   1.8863317581e+01   4.1725325926e+01    0.2598319    0.1411873 -53.42  0.001124583    2.234    0.552
       316 -11.0960    248.0270     36.2927   6.7908291494e+00   2.0473696495e+01    0.2107057     0.165548 -60.95 0.0003052952    1.050    0.048
       317 -11.5629     97.3412     36.0500   3.1623284613e+01   5.5279988558e+01     0.319959    0.2304148 -38.98 0.0004539931    1.571    0.364
       318 -10.3438      1.3846     36.9113   7.1960189389e+01   6.8312407816e+01    0.2059799   0.09397501 -57.08  0.001110492    1.964    0.491
       319 -10.7694    193.9323     35.1530   1.2282552257e+01   3.2553015117e+01    0.3993904    0.1630501 -40.40   0.00137454    2.333    0.571
       320 -10.2762    129.3059     35.9051   2.3433755256e+01   4.8099098887e+01     0.244043    0.1761832  48.97 0.0002685758    1.250    0.200
       321 -11.0112    240.8850     34.3888   7.0402306503e+00   2.2178752701e+01      0.21758    0.1867469 -75.97 0.0003961772    1.096    0.088
       322  -9.5593    134.9718     35.1436   2.1971147467e+01   4.6844367488e+01    0.2315065    0.1549062 -85.98  0.000942544    2.115    0.527
       323 -10.6237    110.9135     34.8632   2.7463905703e+01   5.2477708328e+01    0.3089847    0.1928217  47.99 0.0009160931    1.426    0.299
       324  -9.7808     33.8439     33.3040   5.4650359848e+01   6.6254074910e+01    0.1989832    0.1830691 -48.33  0.001109668    1.575    0.365
       325 -10.0783    182.3078    246.6896   6.1457788354e+01  -3.1481741799e+00    0.1170478   0.09527674  54.60 0.0002977988    1.618    0.382
       326 -10.4098      9.2561     33.7009   6.6909045667e+01   6.8427271393e+01    0.3046988     0.235861 -79.37  0.001912654    2.230    0.551
       327 -10.5168      1.3463     23.5134   6.7408430608e+01   7.0708808056e+01    0.3064286   0.08461311 -51.82 0.0009899262    2.946    0.661
       328 -12.4270     74.6445    239.9669   8.2957838520e+01   1.4454363013e+01    0.7216988    0.4043609 -55.81  0.003902668    2.071    0.517
       329  -9.1919    102.3046    243.6413   7.7625974616e+01   9.7620889898e+00    0.1339977   0.08562335  64.80  0.000703945    1.723    0.420
       330 -10.4342     88.9802    241.0011   8.0106593923e+01   1.2228471997e+01    0.1820855    0.1549619 -17.13  0.001128104    1.686    0.407
       331 -10.3262     59.3815    241.1027   8.6143424522e+01   1.6261891980e+01    0.2049695    0.1549264  35.77 0.0009910883    1.396    0.284
       332  -9.3160    141.0199     33.5074   2.0230010258e+01   4.5588981890e+01    0.1984172    0.1249987  60.00  2.93898e-05    1.428    0.300
       333  -9.5963    122.7315     33.4273   2.4087146916e+01   4.9950339096e+01     0.197935    0.1148144  47.83 0.0009409789    1.540    0.351
       334  -9.7452    118.0594     33.1547   2.5090196283e+01   5.1065958560e+01    0.3858029    0.1260295  43.16  0.001327267    3.140    0.681
       335  -9.5572    115.7193    240.3539   7.4420345604e+01   8.3428139642e+00    0.1313075   0.09091043  66.17 0.0004406746    1.656    0.396
       336 -10.3428     15.7388     31.9512   6.2976692008e+01   6.8251478216e+01    0.2319941    0.1350768 -31.53 0.0006719086    1.388    0.280
       337 -10.5909     19.5544     31.0088   6.0689708650e+01   6.8087579832e+01    0.2231816    0.1733515  -7.70 0.0007232332    1.109    0.099
       338 -10.0424    178.0192     30.6887   1.3269812655e+01   3.6915215977e+01    0.1904257    0.1592537  77.20 0.0004346304    1.072    0.067
       339 -10.9219    176.4780     26.5451   1.2384996897e+01   3.7775797048e+01    0.3434767    0.2239354 -73.02 0.0005613518    1.698    0.411
       340 -10.6451    171.3706     27.0233   1.3229931320e+01   3.8958369679e+01    0.2264753         0.17  86.63  0.001264092    1.284    0.221
       341 -10.0531    163.2518     29.1868   1.5046354948e+01   4.0685093489e+01       0.3776    0.1724933 -20.25  0.001512213    3.057    0.673
       342  -9.0235     49.2947     29.9278   4.6310855421e+01   6.4770465147e+01    0.1835601   0.09617423 -53.99 0.0007029228    4.285    0.767
       343 -11.3825    196.9408     27.8824   1.0123801792e+01   3.2738437069e+01    0.4839587    0.2234128  79.95  0.001590133    2.370    0.578
       344  -9.9587    101.7877     28.6524   2.7619134540e+01   5.5251433882e+01     0.245074     0.168915 -57.59  0.001221077    2.140    0.533
       345 -10.6178     79.9484     27.8713   3.3851943263e+01   5.9838762324e+01    0.3332557    0.1882297 -26.45  0.001693476    1.853    0.460
       346  -9.8488     12.1811     29.3248   6.3811123712e+01   6.8982534598e+01    0.1524141    0.1162917  -9.19 0.0006271634    1.141    0.124
       347 -12.0304    232.7362     26.8517   6.2087797888e+00   2.4834708760e+01     0.428713    0.2097802  81.87 0.0008318229    2.100    0.524
       348  -9.0884     45.2877    240.3006   8.8853563179e+01   1.8179624136e+01    0.1004698   0.09158898 -46.18 0.0002147289    1.559    0.358
       349  -9.7143    122.8073     26.0050   2.1553434062e+01   5.0796659065e+01    0.1773219    0.1660118   2.75 0.0004434873    1.160    0.138
       350 -10.3796    195.7005    238.3531   5.7454770234e+01  -3.8866570568e+00    0.2401812    0.2218062  10.17  0.001028455    1.228    0.186
       351 -10.9305     35.1091    237.8809   9.0646050597e+01   1.9859574892e+01     0.232738     0.123478  55.47  0.001172265    1.560    0.359
       352 -10.9836     60.1149     26.8108   4.0551743154e+01   6.3529500874e+01    0.3477165    0.2824351  69.05   0.00200286    2.152    0.535
       353 -10.1848     54.3788     23.9550   4.1612687665e+01   6.4830885646e+01    0.3216313    0.2554795 -61.76  0.001399892    2.351    0.575
       354 -10.2860     59.0654     21.9200   3.8848114262e+01   6.4333719129e+01    0.2833326    0.1458211  32.75  0.001447324    1.782    0.439
       355 -11.0342     30.9436    234.8149   9.1237207435e+01   2.0949656189e+01    0.2871628    0.1964845 -89.35 0.0009995651    1.298    0.230
       356  -9.1581      3.5554    237.5046   9.6457467371e+01   2.3225186747e+01    0.1111282   0.08130752  73.28 0.0001492827    1.014    0.014
       357  -9.8850    191.3415    235.9957   5.7943832732e+01  -2.8554823833e+00    0.1761517    0.1481677  -6.99 0.0006747679    1.144    0.126
       358 -11.1810    160.8106    234.5797   6.4031314887e+01   2.2045232571e+00    0.3568184    0.2715819 -22.52  0.002056311    1.502    0.334
       359 -11.8646    216.1022     25.5957   7.5110086620e+00   2.8618225080e+01    0.3521848    0.2360053  73.66 0.0007412789    1.386    0.278
       360  -9.4231    144.7780     27.6997   1.7721892260e+01   4.5359441587e+01    0.2084769    0.0952699 -39.70 0.0007071907    2.357    0.576
       361 -10.2289    159.9917     24.4757   1.4216734959e+01   4.2016079548e+01    0.2466164    0.1757801 -54.02 0.0007671462    1.515    0.340
       362 -10.1043     67.4260    236.0404   8.4066027774e+01   1.6221768556e+01    0.2312701    0.1708972  24.42  0.001378505    1.662    0.398
       363 -11.6345    128.7842     23.7953   1.9552489186e+01   4.9630182077e+01    0.2801551    0.2524582  19.26 0.0004467383    1.189    0.159
       364  -9.7921    127.4367     19.4532   1.8387248983e+01   5.0401928200e+01    0.2433233    0.1580242  71.27 0.0005680539    1.546    0.353
       365  -9.8778     89.9594     25.4074   2.9734947877e+01   5.8136417802e+01    0.2791522    0.1169824  52.18  0.001164199    2.203    0.546
       366 -10.4429     21.6949     24.0044   5.6758055720e+01   6.9025744078e+01    0.2514266    0.1530938  20.12  0.001195495    1.594    0.373
       367 -12.0678     34.2378     22.6356   4.9950725093e+01   6.7842657808e+01    0.2493931    0.1800074  -2.60 0.0001948968    1.161    0.138
       368 -10.4499     24.3247     19.9927   5.3668105487e+01   6.9366213737e+01    0.2320114     0.155087 -27.08 0.0006283035    1.270    0.213
       369 -11.8569     28.9220     19.7337   5.1237531478e+01   6.8893600850e+01    0.3096442    0.1841836   7.73 0.0003795436    1.649    0.394
       370 -10.8070     32.9194     15.0631   4.7117650937e+01   6.9051861000e+01    0.3688319    0.1752404  23.82  0.001828981    2.066    0.516
       371 -11.5557    249.0508     20.7916   3.6394330269e+00   2.2194926740e+01    0.2662849    0.1748236 -64.01 0.0003697699    1.251    0.200
       372 -10.5734    224.4730     21.6395   5.8484842074e+00   2.7239262686e+01     0.205965    0.1786659 -83.33 0.0003442302    1.110    0.099
       373 -10.9749    182.8366    234.0918   5.9363908883e+01  -1.2279176324e+00    0.3251044    0.2328608  27.11  0.001315702    1.209    0.173
       374 -11.8537    185.1253    227.8250   5.7858946685e+01  -5.5358410463e-01    0.7758037    0.4162836  19.61  0.003494359    2.202    0.546
       375  -9.9672     46.5396     20.8190   4.3524731643e+01   6.6433718226e+01    0.2347793     0.197117 -86.11  0.001331674    2.759    0.638
       376  -9.2975    242.6870     21.6989   4.3127206862e+00   2.3377627413e+01     0.104518   0.09101907  47.58 0.0003936586    1.610    0.379
       377 -10.5469    193.2748     20.9073   8.8492922824e+00   3.4407338066e+01    0.2245604    0.1647321  70.91 0.0002569947    1.234    0.190
       378 -10.8977    119.1437     27.0980   2.2745561797e+01   5.1527038735e+01    0.3872072    0.2956576  81.32  0.001562657    1.559    0.358
       379  -9.9807     58.4644    229.1442   8.5281822108e+01   1.8819381719e+01    0.3643315    0.1065156  45.54  0.001482423    2.788    0.641
       380 -10.7474    169.4185     17.2794   1.0860734388e+01   4.0497962509e+01    0.2048417    0.1799828 -11.03 0.0008114125    1.415    0.293
       381 -10.8952     39.6326    229.4292   8.9146057647e+01   2.1069764964e+01    0.2661985    0.1591942  67.23  0.001106758    1.488    0.328
       382  -9.3362    168.6712    250.6754   6.4805181176e+01  -1.6952303843e+00    0.1296478   0.08889883   5.22 0.0006453515    1.698    0.411
       383  -9.2208     41.4013     19.4680   4.5191538795e+01   6.7344155894e+01    0.1224942   0.09507274  -0.08 0.0001775239    1.025    0.025
       384  -9.8997     91.7957    235.4300   7.8911789302e+01   1.2916593764e+01    0.1797451    0.1162319  27.34 0.0009488791    1.713    0.416
       385 -10.2013      3.9819    225.8252   9.5798221802e+01   2.5537698964e+01    0.1674293    0.1633731 -34.78  0.001178105    1.567    0.362
       386  -9.3531    109.6589    222.6888   7.3463474231e+01   1.2769591832e+01    0.1314902    0.1057166  -4.72 0.0007045667    1.696    0.410
       387  -9.8248     45.7421    244.5410   8.9080369094e+01   1.7284232201e+01    0.1739156   0.08352211  48.70 0.0009494096    1.682    0.405
       388  -9.8176    187.9235     16.0949   8.2741715429e+00   3.6194431524e+01    0.2671017    0.1531961  39.23    0.0012786    2.438    0.590
       389  -9.2176     94.9910     17.2090   2.5108353853e+01   5.7968569524e+01     0.266315   0.08916419  49.93 0.0007523075    2.404    0.584
       390  -9.6344     98.9816     15.3591   2.3349882030e+01   5.7290982329e+01    0.2415863    0.1387956   9.43 0.0009837457    2.331    0.571
       391  -9.7332     16.4778    222.1043   9.3210745216e+01   2.5111713990e+01    0.1682039     0.096402 -82.12 0.0006030465    1.522    0.343
       392  -9.3754    123.6336    221.7417   7.0210372647e+01   1.0709269028e+01    0.1343058    0.1035767   7.49 0.0005019541    1.638    0.389
       393  -9.6067    211.8132    218.8591   5.0915241776e+01  -3.2733204385e+00    0.1634982    0.1543467  17.27 0.0008224375    1.311    0.237
       394  -9.9113     76.5435     15.6059   2.9892238916e+01   6.1898063485e+01    0.1738832    0.1502332  -3.55  -1.2627e-05    1.189    0.159
       395  -9.9924    216.7315     16.2176   5.3765712117e+00   2.9564065509e+01    0.4090683   0.09066562  63.05  0.001517824    3.675    0.728
       396  -9.8273    193.3210     16.4837   7.7691180864e+00   3.4882818360e+01    0.2310122    0.1135674  78.01 0.0008508572    1.927    0.481
       397  -9.9764    108.7532     16.3662   2.1341237458e+01   5.5027952969e+01    0.1860513    0.1401717  61.93 0.0003446374    1.269    0.212
       398 -10.3091     54.5303    231.9811   8.6342463399e+01   1.8731475429e+01    0.2262304    0.1065739 -66.27  0.001029412    2.137    0.532
       399 -10.6553     70.0271    217.7085   8.1676370335e+01   1.9722737724e+01    0.1891174    0.1544657  54.43 0.0009157508    1.094    0.086
       400  -9.6617    136.1158    216.8398   6.6676042300e+01   9.6171888145e+00     0.218904    0.1826712  58.75  0.001233783    1.267    0.211
       401 -11.7435     48.6467    218.5148   8.6384665239e+01   2.2318380053e+01    0.5176197    0.2805769  24.62  0.002508976    2.385    0.581
       402 -10.2444     14.6952    215.4271   9.3139652661e+01   2.6707096511e+01    0.2073217    0.1141151  49.32 0.0006558672    1.589    0.371
       403 -11.7142     11.5594    210.0083   9.3420716336e+01   2.8177174318e+01    0.3750697    0.2283399  74.08  0.001280509    1.383    0.277
       404 -11.5151      7.6687    215.9447   9.4553670254e+01   2.7262401646e+01    0.2648495    0.2212528  78.12   0.00196052    1.141    0.124
       405 -11.8363      5.3850    211.0626   9.4715650091e+01   2.8514644676e+01    0.4482126    0.2060507 -79.99  0.002436011    1.835    0.455
       406 -11.4240      3.5330    205.4126   9.4750412449e+01   2.9901622348e+01    0.3194357    0.2351809  44.92   0.00221141    1.403    0.287
       407 -10.9397     29.5686    215.1201   9.0102284623e+01   2.5250185465e+01    0.2499537    0.2134768  24.41  0.001279785    1.533    0.348
       408  -9.5915     23.9697    216.0379   9.1316750718e+01   2.5643434117e+01    0.1462918    0.1133694  79.47 0.0003986441    1.037    0.035
       409  -9.8987     66.4840    214.9531   8.2164362356e+01   2.0807494365e+01    0.1868509   0.09873905  79.98 0.0008088878    2.484    0.597
       410  -9.7451    110.3836    211.8169   7.1794753616e+01   1.4935670503e+01    0.1903208    0.1257355 -46.21 0.0009438613    1.722    0.419
       411  -9.1466    107.6522     10.2891   1.9378896660e+01   5.5838660130e+01    0.1236359   0.09741836 -81.32 0.0004086038    1.661    0.398
       412  -9.7769     63.2582    212.6396   8.2635185354e+01   2.1750106594e+01    0.1361856   0.08603141  71.65 0.0006971773    1.625    0.384
       413  -9.8501    216.9788    209.4752   4.8192227686e+01  -2.5534825853e+00    0.2124184    0.1593607 -27.71 0.0008438522    1.265    0.210
       414 -10.2430     72.9463    208.7354   8.0016851742e+01   2.1302210424e+01    0.2963873    0.1690193  18.00  0.001284872    2.715    0.632
       415 -11.4522     19.2349    203.2695   9.1374635189e+01   2.8929164140e+01    0.5498142    0.1065416 -67.85  0.002023603    3.836    0.739
       416  -9.9222    148.0665    205.7993   6.2162117795e+01   9.7850164793e+00    0.2795368    0.1972394  17.13    0.0013598    1.622    0.383
       417  -8.9914    124.0113    206.0242   6.7757593695e+01   1.3910684761e+01    0.1653487    0.1489426  42.68 0.0009396673    1.025    0.025
       418 -11.0476     27.9533    205.5193   8.9694160130e+01   2.7542872958e+01    0.2307409    0.1515165  89.01 0.0004697943    1.327    0.247
       419  -9.8519     67.5670    203.1268   8.0601394237e+01   2.3316372707e+01    0.2331085    0.1586402  49.54 0.0005434576    1.356    0.262
       420 -10.5639    175.3066    202.0553   5.5405081158e+01   5.7133871324e+00    0.2614926    0.1963035  31.78 0.0004260695    1.245    0.197
       421  -9.3860    113.0214    202.0467   6.9725125236e+01   1.6628278852e+01    0.1692343    0.1597721  59.53 0.0004397672    1.025    0.024
       422  -9.9160    185.6619    200.7029   5.2920147528e+01   4.1546238681e+00    0.2306836    0.1596854  -2.83  0.001107752    1.760    0.432
       423  -9.0623    120.3153    200.3313   6.7721930337e+01   1.5774509366e+01    0.1433474    0.1128432 -11.45 0.0007045993    1.682    0.405
       424  -9.6479     95.0020    200.5029   7.3790578055e+01   1.9893371971e+01    0.1898302    0.1261375   6.20 0.0008103243    2.526    0.604
       425 -10.2297     40.8977    197.9843   8.6179480436e+01   2.7842177853e+01    0.3509549    0.1496939 -86.21  0.001437291    2.782    0.641
       426 -10.0454    134.9568    196.4626   6.3598344166e+01   1.4062561448e+01    0.2137875    0.1912245 -50.49 0.0005439389    1.187    0.158
       427  -9.2080     56.4807    197.4810   8.2539000125e+01   2.6080489130e+01     0.131698    0.1165362  81.36 0.0008097439    1.040    0.038
       428 -10.6493    140.5073     17.5254   1.5338555987e+01   4.7473990510e+01    0.4984011    0.1517379  53.48  0.001905873    2.644    0.622
       429  -9.3432    215.4557    194.4794   4.5631542251e+01   2.1237615328e-01    0.1375968    0.1186046  -5.51 5.875168e-05    1.003    0.003
       430 -12.0236     15.6186    192.0086   9.1307139050e+01   3.1821457451e+01    0.3753834     0.333865 -69.71   0.00185994    1.281    0.220
       431 -10.7837    187.3154    190.3167   5.0567381845e+01   5.8220017039e+00    0.3125536     0.192026 -19.26 0.0009455069    2.088    0.521
       432  -9.9462    145.1840    190.1055   6.0038375221e+01   1.3585713495e+01    0.2224153    0.1950831  -2.42 0.0005597423    1.237    0.192
       433 -10.3099    244.6899    188.0691   3.8970688765e+01  -3.3169587665e+00    0.1877549    0.1453128 -20.09 0.0005174644    1.086    0.079
       434 -10.4434    226.1696    188.3325   4.2372531144e+01  -4.7914401623e-01    0.1939398    0.1504217 -15.64 0.0005389011    1.167    0.143
       435  -9.3709      2.3166    187.3012   9.3861015174e+01   3.4038514708e+01    0.1124565   0.07973447 -54.32 0.0004299327    1.618    0.382
       436  -9.7421     61.9879    184.5521   7.9674690378e+01   2.8432531139e+01     0.217291    0.1709546 -74.75   0.00122499    1.189    0.159
