#   1 NUMBER                 Running object number                                     
#   2 MAG_AUTO               Kron-like elliptical aperture magnitude                    [mag]
#   3 X_IMAGE                Object position along x                                    [pixel]
#   4 Y_IMAGE                Object position along y                                    [pixel]
#   5 X_WORLD                Barycenter position along world x axis                     [deg]
#   6 Y_WORLD                Barycenter position along world y axis                     [deg]
#   7 A_WORLD                Profile RMS along major axis (world units)                 [deg]
#   8 B_WORLD                Profile RMS along minor axis (world units)                 [deg]
#   9 THETA_WORLD            Position angle (CCW/world-x)                               [deg]
#  10 FWHM_WORLD             FWHM assuming a gaussian core                              [deg]
#  11 ELONGATION             A_IMAGE/B_IMAGE                                           
#  12 ELLIPTICITY            1 - B_IMAGE/A_IMAGE                                       
         1 -12.4603     23.4677     40.9368   5.9259178056e+01   6.8975541858e+01    0.8406097    0.3056372 -67.06  0.002646705    4.819    0.792
         2 -11.5981    132.0350     17.9655   9.4849356385e+00   5.0242092144e+01     0.408751    0.1618506 -37.17  0.001639996    2.427    0.588
         3 -12.4790     66.8102     16.2159   2.5024432846e+01   6.6261666696e+01    0.2649575    0.2176507 -16.17 0.0004380876    1.256    0.204
         4 -11.7618     84.6415      9.8483   1.6016417546e+01   6.2957915322e+01    0.3152795    0.1973927 -55.82  0.001279315    2.063    0.515
         5 -11.4770     92.1236      8.3108   1.3369800465e+01   6.1316120092e+01    0.1879257    0.1659921  66.33 0.0006762733    1.064    0.060
         6 -10.6372     88.0130      4.2311   1.2411095405e+01   6.2687988801e+01    0.1817883    0.1006788  64.18 0.0005606498    1.627    0.385
         7 -12.4351    215.2089      2.6433   3.5671062241e+02   3.1533339222e+01    0.2187688    0.1732965 -59.35 0.0003178833    1.063    0.059
         8 -10.6140     66.3771      1.2130   1.6862208963e+01   6.7969498928e+01    0.1353435   0.07892679  40.60 0.0002697789    1.589    0.371
         9 -11.4403    142.6782    242.4297   6.1147395121e+01   4.5787658568e+00     0.247608   0.09220394  37.69  0.001140971    2.185    0.542
        10 -13.8165    246.3888    249.7077   4.3503981279e+01  -8.9255301548e+00    0.2658531    0.1686371  12.09  0.001064149    1.240    0.194
        11 -11.7999    237.0231    250.5349   4.5100402945e+01  -8.0619988156e+00    0.1547519   0.09140975  15.25  0.000354781    1.377    0.274
        12 -11.4947    198.7912    249.5145   5.1413788524e+01  -3.6710258581e+00    0.2710617    0.1356457  45.10  0.001413474    2.840    0.648
        13 -12.3819    139.7676    248.5064   6.2456517941e+01   4.0220262655e+00    0.3401729    0.2134223 -58.86  0.001625345    2.143    0.533
        14 -11.2408    124.9158    249.6104   6.5561070537e+01   5.8372433303e+00    0.1774029    0.1564866 -20.77 0.0007225509    1.362    0.266
        15 -11.2881    106.4759    250.7033   6.9417335849e+01   8.1128292073e+00    0.1950469   0.08816957  33.46 0.0009951167    1.775    0.437
        16 -11.8622     84.6577    250.6273   7.3871537182e+01   1.0965705992e+01    0.2288546   0.09317162  33.27  0.000648049    1.993    0.498
        17 -11.1067     77.2684    250.3352   7.5360142532e+01   1.1954198203e+01    0.1706879     0.105308  53.90  0.001035775    1.398    0.285
        18 -14.9624     36.1098    198.3492   8.0578535242e+01   2.7635338639e+01     1.683161     1.025426  68.65  0.006484647    1.472    0.321
        19 -14.9094     50.3489    203.6588   7.7559793727e+01   2.4758894316e+01      3.13969     0.619054  52.39  0.007988405    6.675    0.850
        20 -15.7524     16.6863    168.4348   8.3434960470e+01   3.6851378640e+01       2.2132     1.258414 -70.59   0.01148113    1.639    0.390
        21 -14.1070     73.1448    231.7161   7.4714913433e+01   1.5949242444e+01     1.116354    0.5053897 -86.31  0.004860544    3.288    0.696
        22 -15.7316     45.5629    223.0783   8.0116752872e+01   2.1109591046e+01     1.920634     1.287132  60.75  0.007022995    1.241    0.194
        23 -14.7688     35.9116    248.5700   8.3622079926e+01   1.7172382304e+01     1.033053    0.4272352  51.99  0.005629594    1.816    0.449
        24 -15.8049     12.7516    187.1646   8.5571800680e+01   3.2632316902e+01      1.65151     1.030735  43.55  0.009545083    1.419    0.295
        25 -15.6183      2.4255    217.1155   8.9190875393e+01   2.6836241211e+01     1.252444    0.4654224 -83.99  0.006178259    2.479    0.597
        26 -16.1570     14.9511    227.3021   8.6933505698e+01   2.3533373337e+01     1.493294    0.5381916  65.77  0.007051442    2.485    0.598
        27 -15.5894      5.2780    249.0764   8.9593614831e+01   2.0212830987e+01     1.807785    0.3437916  27.09  0.006224646    5.923    0.831
        28 -16.2490     11.2922    240.4610   8.8164975677e+01   2.1270516017e+01     1.206239    0.5022879  37.52  0.006795619    1.837    0.456
        29 -15.7944      4.7400    237.1900   8.9351198129e+01   2.2532788400e+01    0.9728869    0.4086078 -63.91  0.005149621    2.926    0.658
        30 -11.2325    126.2226    241.8068   6.4427433234e+01   6.9346905875e+00    0.1825765     0.142054  45.74 0.0006325523    1.206    0.171
        31 -11.5391    198.5631    240.9177   5.0247874119e+01  -2.5309037454e+00    0.2110916    0.1532789  43.98 0.0008312273    1.805    0.446
        32 -11.0896    187.0752    241.4571   5.2418761432e+01  -1.1654743564e+00    0.1680726   0.09469833  29.18 0.0003447077    1.492    0.330
        33 -12.3237    108.3990    240.0594   6.7948247557e+01   9.6780968008e+00    0.3307661    0.1863366  25.62  0.001080179    1.744    0.427
        34 -11.3953    149.5192    239.0023   5.9342474786e+01   4.1832874483e+00    0.2167381    0.1862787 -22.64  0.001254501    1.299    0.230
        35 -10.7472    148.2459    235.6652   5.9169389366e+01   4.8905481952e+00    0.1756409    0.1382571  25.10  0.000304102    1.064    0.060
        36 -12.1469    103.5811    237.0049   6.8649611447e+01   1.0881049687e+01     0.228707     0.215972  66.95 0.0005108314    1.184    0.156
        37 -11.0908     80.0566    237.1022   7.3686542193e+01   1.4016224649e+01    0.2358849    0.1489838   8.86  0.001183593    2.501    0.600
        38 -11.1150    210.5707    235.7430   4.7363277492e+01  -3.3186661860e+00    0.1357136    0.1024682 -35.79 0.0009414502    1.559    0.359
        39 -11.4170    223.0027    232.0744   4.4674637138e+01  -4.3282248663e+00     0.171813    0.1316606  -1.71 0.0004589735    1.032    0.031
        40 -11.4900    182.2457    232.0043   5.1976569966e+01   8.0217719302e-01    0.2052542    0.1886914  27.74  0.001366255    1.318    0.241
        41 -10.7155    162.4804    232.4377   5.5878209707e+01   3.4251623146e+00    0.1222491    0.1010522  21.83 6.681126e-05    1.025    0.024
        42 -11.6059    194.7123    229.4402   4.9266837424e+01  -4.7207498040e-01    0.2309606    0.1784389 -15.52 0.0005151487    1.222    0.181
        43 -11.5704    178.4523    228.5123   5.2192604869e+01   1.8315909049e+00    0.2347207     0.142833 -11.25 0.0009124259    2.084    0.520
        44 -11.8488    182.3128    225.4090   5.0991057057e+01   1.7722753083e+00    0.2147944    0.1767623   9.50 0.0005297572    1.017    0.017
        45 -11.1119    150.3326    229.6889   5.7952362291e+01   5.5698329102e+00    0.1218536   0.08968887  55.46 0.0007043559    1.676    0.403
        46 -12.7672    232.4030    226.1117   4.2188009244e+01  -4.6691809108e+00    0.4099329    0.1967635 -20.53  0.002245758    2.183    0.542
        47 -11.3787     97.3216    228.0253   6.9064974224e+01   1.3413615564e+01    0.1702468    0.1510729  57.77  0.000408278    1.105    0.095
        48 -12.0073     78.3296    227.7043   7.3222792577e+01   1.6059520549e+01    0.2413775    0.1415151  44.65  0.001326631    1.388    0.280
        49 -12.5797     77.1708    218.9642   7.2661405827e+01   1.7982048326e+01    0.2825536    0.2037588  58.05 0.0009966764    1.243    0.196
        50 -11.9280     81.5155    225.4877   7.2308536277e+01   1.6074006828e+01     0.256271    0.1977574 -47.44 0.0009027072    1.641    0.391
        51 -13.2206     81.6160    221.5723   7.1906796820e+01   1.6847147695e+01    0.4863944     0.303984  58.99  0.002653041    1.551    0.355
        52 -11.5621    121.0195    227.0145   6.3780769044e+01   1.0240847438e+01    0.1918644     0.165405  27.34 0.0004121129    1.085    0.079
        53 -12.4656    116.4955    225.4717   6.4575500502e+01   1.1175792743e+01    0.2280374    0.1978804  83.77 0.0007932654    1.349    0.259
        54 -10.8734    222.4843    225.5001   4.3746216491e+01  -3.4211146773e+00    0.1136546   0.08959648   0.29 -3.996249e-05    1.046    0.044
        55 -11.7072     91.8001    224.7372   6.9942468381e+01   1.4817365472e+01    0.1957796    0.1690392 -57.33 0.0005930105    1.375    0.273
        56 -11.8388    212.0500    223.6584   4.5258478905e+01  -1.8899026338e+00      0.20235    0.1520545 -23.50 0.0003207248    1.267    0.210
        57 -12.0957    160.3468    222.7648   5.4938704587e+01   5.2776316000e+00    0.3385958    0.2044523  35.76  0.001228376    1.462    0.316
        58 -12.1230    245.5340    221.9145   3.9419560495e+01  -5.6350709542e+00    0.2829014    0.1476347 -10.38  0.001617996    2.066    0.516
        59 -11.8055    193.2684    220.7377   4.8203960536e+01   9.8012010246e-01    0.3457104    0.1296865 -41.62  0.001591438    2.790    0.642
        60 -13.6046    123.6690    220.8298   6.2431483645e+01   1.0992373382e+01    0.5306199     0.362429  82.35  0.002733643    2.261    0.558
        61 -12.6370    118.9116    213.3851   6.2519910457e+01   1.3118395235e+01    0.4601463    0.1701955  44.92  0.001546284    2.565    0.610
        62 -11.8219    128.9463    226.1095   6.1963441599e+01   9.2587162066e+00    0.2674787    0.1582613 -28.16  0.001293899    2.521    0.603
        63 -13.4747    174.2443    220.1490   5.1766401224e+01   3.7113329307e+00     0.280453    0.2504132 -37.86 0.0007125152    1.325    0.245
        64 -12.0781     96.2225    221.4553   6.8603324970e+01   1.4845324691e+01     0.274455    0.1826416 -33.52  0.001430753    2.177    0.541
        65 -10.8725     94.6568    218.2771   6.8607236170e+01   1.5701257134e+01    0.1866554    0.1476703  55.82 0.0007699782    1.160    0.138
        66 -10.5527    166.4715    228.4379   5.4524208429e+01   3.4965382272e+00    0.1232526    0.1020551  17.66 5.829979e-05    1.009    0.009
        67 -10.2969     87.3386    220.3023   7.0484515203e+01   1.6319225938e+01     0.122095   0.09980923  -6.31 0.0007037857    1.669    0.401
        68 -12.9551    146.1529    216.3018   5.6956413534e+01   8.4707338789e+00    0.3940782     0.315092  56.93  0.001812538    1.468    0.319
        69 -13.1486    140.4178    212.0908   5.7580726691e+01   1.0100141030e+01    0.6550907    0.2889238 -54.58  0.002884523    2.682    0.627
        70 -12.3205    145.7743    201.7571   5.4853612843e+01   1.1201505548e+01     0.306455    0.2702306  77.76  0.001005004    1.413    0.292
        71 -12.5061    129.9753    216.5348   6.0483486615e+01   1.0855181867e+01    0.1824795    0.1794306 -35.46  0.000493324    1.163    0.140
        72 -11.7076    115.6201    217.2444   6.3755305328e+01   1.2860417308e+01    0.1667657    0.1215289 -45.43 0.0007180292    1.601    0.375
        73 -12.9687    108.1452    215.1788   6.5181166777e+01   1.4368783766e+01    0.3918839    0.2571271  79.00  0.001964188    2.130    0.530
        74 -11.3243    226.0057    216.3201   4.1687411328e+01  -2.6337703753e+00    0.1566895    0.1214026   7.75 0.0002728084    1.101    0.092
        75 -10.6641    161.8414    215.8390   5.3609701995e+01   6.2158127863e+00    0.1573885    0.1427775  46.81 0.0002396299    1.281    0.219
        76 -12.0161    156.4078    213.2353   5.4341713108e+01   7.4721986304e+00    0.4004992    0.2683939 -80.13  0.001849024    3.089    0.676
        77 -12.2272    142.3742    205.1293   5.6120415779e+01   1.1098092329e+01    0.3327259    0.2131903  49.01 0.0005761869    1.645    0.392
        78 -12.6147     83.6150    214.7471   7.0757699327e+01   1.7976518400e+01    0.5977535    0.1512212  40.56  0.002173036    2.988    0.665
        79 -12.2020    248.0566    212.5987   3.7520271969e+01  -4.7602464500e+00    0.3195204    0.1752646   7.90  0.001869133    2.007    0.502
        80 -11.7295    187.2060    211.5477   4.7894179973e+01   3.2269727585e+00    0.2006027    0.1608914 -26.03 0.0003173884    1.239    0.193
        81 -13.1744    123.5570    209.9783   6.1015608612e+01   1.3079332808e+01    0.2855238    0.2471195  86.78  0.000513411    1.362    0.266
        82 -11.0764    209.5045    211.5254   4.3759940198e+01   1.5051086329e-01    0.1202425   0.09898029   0.09 0.0002292772    1.027    0.026
        83 -12.6287    180.3616    208.3439   4.8706277135e+01   4.7328126870e+00    0.4597544    0.3063745   7.98   0.00252566    1.655    0.396
        84 -13.2731    160.2380    207.2833   5.2622978464e+01   7.9360366092e+00    0.5164246    0.4210689  72.54  0.002510734    1.771    0.435
        85 -10.0588     77.2854    214.3244   7.2179685007e+01   1.8935111387e+01     0.119095    0.1015181 -21.72 0.0002268281    1.602    0.376
        86 -14.8434      2.2028    226.1208   8.9523552193e+01   2.4981995563e+01    0.6902497    0.2638553 -84.66  0.003542704    2.446    0.591
        87 -10.6942    170.3728    210.1358   5.0988436483e+01   5.9133180149e+00    0.1551666    0.1214693 -56.19 0.0003823944    1.637    0.389
        88 -13.2926    228.6913    206.0322   3.9534362165e+01  -1.5657169235e+00    0.4330083    0.3583874 -24.99  0.002132155    1.276    0.216
        89 -11.8750    103.9570    206.7904   6.5097818924e+01   1.6696660489e+01    0.3604699    0.2833284  60.11  0.002074815    1.264    0.209
        90 -10.6980     72.6433    207.7574   7.2610377330e+01   2.0974592922e+01    0.1746378    0.1160342  88.28 0.0006818407    1.642    0.391
        91 -11.9248    116.8259    205.8258   6.1980693159e+01   1.4938700646e+01    0.1923477     0.150901  60.45  0.001081783    1.345    0.256
        92 -11.7565    238.9553    204.6401   3.7625091833e+01  -2.6523275766e+00    0.1566933     0.123281   5.79 0.0004561731    1.137    0.121
        93 -12.4746    111.5268    203.9088   6.2950081117e+01   1.6146066177e+01    0.2664414    0.2201333  54.16 0.0006268013    1.160    0.138
        94 -12.1161     62.5397    177.1392   7.1838534564e+01   2.9481037774e+01    0.4759007    0.1894547  33.28   0.00188836    2.358    0.576
        95 -10.9397     81.2009    200.0336   6.9719672296e+01   2.1491854812e+01    0.1817342     0.160077  63.53            0    1.040    0.038
        96 -12.1871     84.9282    199.7170   6.8774502174e+01   2.1027711195e+01    0.9807132    0.4180365  65.36  0.002962868    4.933    0.797
        97  99.0000     74.5656    186.6277   6.9807208799e+01   2.5518948013e+01     1.028462    0.8095189 -85.55  0.005728561    1.275    0.216
        98 -10.9062     65.2205    183.6834   7.1883755811e+01   2.7521145383e+01     0.452989    0.3115334 -64.08   0.00195587    1.500    0.333
        99 -11.4161     91.1633    189.1698   6.5906868171e+01   2.2483900433e+01     0.253927    0.2020637 -59.21 0.0007200289    1.354    0.261
       100 -13.0041     92.6036    196.0631   6.6449108180e+01   2.0710470579e+01     1.005644    0.6462129 -41.29  0.004909687    1.991    0.498
       101 -11.0305    166.9955    202.3030   5.0416936991e+01   7.7751479256e+00    0.1853805     0.151309  27.03 0.0004015438    1.121    0.108
       102 -12.2709    135.9796    199.5223   5.6686852174e+01   1.3192451598e+01    0.4352785    0.2833264  88.40  0.001859833    2.956    0.662
       103 -11.4071    138.3062    197.2964   5.5815344155e+01   1.3258725357e+01    0.1923212    0.1073092  35.74 0.0002133023    1.641    0.390
       104 -12.0160    121.1371    201.1791   6.0331710680e+01   1.5214228581e+01    0.1934491    0.1514477  58.19 0.0007589291    1.341    0.254
       105 -11.7339    212.4163    199.9932   4.1297010916e+01   1.4614537595e+00     0.201673    0.1677684  42.26 0.0006561297    1.544    0.352
       106 -12.3532    182.2565    198.5339   4.6697539428e+01   6.0830758576e+00    0.3939356    0.2424902  -2.31  0.001574571    2.268    0.559
       107 -11.9978    176.6167    198.8170   4.7871391112e+01   6.8981875288e+00    0.2415945    0.2081185 -61.87  0.000996623    1.530    0.347
       108 -12.7470    172.9616    195.4295   4.8036112593e+01   8.0592203441e+00    0.3031018    0.2295379  44.34 0.0007500838    1.423    0.297
       109 -12.8647    110.4357    196.2015   6.2142868929e+01   1.7939275505e+01    0.2943573    0.2617315 -18.66 0.0003934021    1.333    0.250
       110 -12.9295    201.9370    196.1744   4.2527023607e+01   3.5375713749e+00    0.2994806    0.2245957 -17.28 0.0006998947    1.237    0.192
       111 -12.5114    122.1554    196.4262   5.9398185962e+01   1.6032563918e+01    0.2631044    0.2401263  87.78  0.001159989    1.209    0.173
       112 -12.8299    191.6340    194.4500   4.4163078652e+01   5.3451332058e+00    0.4049684    0.3146663  25.65  0.002466689    1.221    0.181
       113 -11.2265    153.5033    195.5113   5.2158391399e+01   1.1150147585e+01    0.1344331    0.1234714  24.45 0.0008103008    1.037    0.036
       114 -12.0819    144.8546    196.1317   5.4162396338e+01   1.2429369855e+01    0.1858329    0.1552284  -3.42 0.0003889165    1.306    0.235
       115 -11.3017    212.5055    193.5345   4.0151329435e+01   2.4323552822e+00    0.1243809    0.1045495  -6.39 0.0001141544    1.019    0.019
       116 -11.9107    162.2590    192.8025   4.9819120571e+01   1.0243497383e+01    0.3474737     0.142736  41.71  0.001424229    2.376    0.579
       117 -12.6454    133.4639    190.6358   5.5861794786e+01   1.5392411956e+01    0.3409441    0.2443338 -14.47  0.001667585    1.903    0.474
       118 -12.3889     50.6887    189.9205   7.6270014583e+01   2.7905290632e+01    0.3219689    0.2151519  28.47 0.0008605854    1.585    0.369
       119 -10.6954    167.9655    189.4816   4.8038626381e+01   9.9329872030e+00     0.200622    0.1251274  36.51 0.0006511936    1.532    0.347
       120 -13.5362    109.4949    186.5194   6.0957908374e+01   2.0205295291e+01    0.4788497    0.3324443 -89.51  0.002296087    1.880    0.468
       121 -11.2442     97.0880    188.5414   6.4335420713e+01   2.1717612954e+01    0.2061985    0.1772896 -70.25   0.00082854    1.227    0.185
       122 -11.0279    220.8757    188.1449   3.7730624566e+01   2.0761068106e+00    0.1715795    0.1506467 -20.51 0.0003627475    1.187    0.157
       123 -11.7055    115.6833    196.9479   6.0999743613e+01   1.6953190342e+01    0.2899231    0.1280443 -56.96 0.0008883879    2.477    0.596
       124 -12.7039    127.5097    186.4689   5.6584242279e+01   1.7252154374e+01    0.2723423    0.2403878 -19.46  0.001309567    1.272    0.214
       125 -13.4090    123.2201    186.1794   5.7561891981e+01   1.8028011433e+01    0.4393393    0.2482391  26.20  0.001816454    1.981    0.495
       126 -10.9454     43.4802    186.8546   7.7830281396e+01   2.9506287245e+01    0.2078265    0.1425975  74.28 0.0007376007    1.332    0.249
       127 -11.6386     28.9289    173.4947   8.0519638983e+01   3.4397798201e+01    0.2356081    0.1841233  65.95 0.0005666228    1.088    0.081
       128 -10.7930     40.2240    184.9708   7.8503251896e+01   3.0338766612e+01    0.2446015    0.1636817  87.46 0.0004574105    1.392    0.282
       129 -11.6220     30.8022    176.6385   8.0272663313e+01   3.3419531829e+01    0.3361385    0.1436778  46.37  0.001108079    2.023    0.506
       130 -11.5141     36.5122    186.0243   7.9541528841e+01   3.0502965506e+01    0.2044726    0.1771569  36.68 0.0003223457    1.271    0.213
       131 -12.4046     33.4933    184.4642   8.0190068483e+01   3.1212224569e+01     0.338724    0.2011951 -78.30  0.001591575    1.584    0.369
       132 -12.1490     39.2283    181.4056   7.8455206702e+01   3.1321170704e+01    0.3179172     0.206868  33.25   0.00168793    1.535    0.349
       133 -12.7839     37.5139    177.9935   7.8609540562e+01   3.2354911690e+01    0.4542998    0.3201532  15.76  0.002120095    1.807    0.446
       134 -12.2168    248.0801    185.4252   3.2858851904e+01  -1.1589947489e+00    0.3029303    0.1745364  -0.12  0.001642355    2.169    0.539
       135 -12.7096    157.5651    184.9474   4.9463731933e+01   1.2509639496e+01    0.4154373    0.2515611 -21.62  0.001817639    2.339    0.572
       136 -12.4680    132.3213    185.8189   5.5340883031e+01   1.6584462371e+01    0.2339565     0.178455  46.14 0.0004320391    1.271    0.213
       137 -11.1247    164.0059    185.0025   4.8082718441e+01   1.1422377757e+01    0.2009638    0.1898188  52.23 0.0004316887    1.206    0.171
       138 -11.5372    167.1768    183.0294   4.7053197061e+01   1.1267313588e+01    0.2214714    0.1802481  -2.33  0.001240276    1.293    0.227
       139 -12.3366     94.3851    182.3598   6.4148201650e+01   2.3561597293e+01    0.5745402    0.2627532 -68.66   0.00224403    2.603    0.616
       140 -12.2189    142.0725    181.6190   5.2354908924e+01   1.5806539497e+01    0.2893561    0.1883107 -41.16 0.0008276671    1.639    0.390
       141 -11.7120     88.8891    181.1114   6.5388388819e+01   2.4706904824e+01     0.427476    0.2565475  74.18   0.00182939    2.201    0.546
       142 -11.8590     48.9056    183.0167   7.6075422339e+01   2.9787100082e+01    0.3510594    0.1864103  31.11  0.001230717    1.868    0.465
       143 -10.9540    233.0212    181.3408   3.4474050773e+01   1.4117315697e+00    0.1609783    0.1357077  -2.89 0.0003975249    1.098    0.089
       144 -14.0332    117.4475    179.3120   5.7856656248e+01   2.0502389703e+01    0.6142683    0.3838632  55.06  0.002264983    1.753    0.430
       145 -11.5714    221.5123    180.4408   3.6212702429e+01   3.1698877690e+00    0.1245513    0.1053486 -13.20  0.000127415    1.037    0.036
       146 -11.0577    198.0649    180.2695   4.0370330247e+01   6.7373822872e+00    0.1746052    0.1556761   1.19 0.0002350757    1.052    0.049
       147 -12.2703    247.6225    176.2202   3.1261768461e+01   1.9660615378e-01    0.4108909     0.189223 -23.31  0.001435705    2.313    0.568
       148 -12.4206    242.5394    175.4147   3.1884409643e+01   9.8887686816e-01    0.2212147    0.2095812   7.36   0.00110789    1.364    0.267
       149 -12.8101    122.3126    167.8115   5.4661631361e+01   2.2264922995e+01    0.4074866    0.2272791  30.11  0.001347612    1.953    0.488
       150 -14.5596    126.6863    172.7192   5.4451273223e+01   2.0387541461e+01    0.7714383    0.5722889 -38.69  0.002067045    1.487    0.328
       151 -13.1156    149.6690    176.0721   4.9622271137e+01   1.5635528654e+01    0.3905675     0.260786  50.36 0.0009364937    1.622    0.383
       152 -13.1763    144.3848    172.3129   5.0142782691e+01   1.7349235490e+01    0.4636802    0.3048263  67.64  0.001676413    2.328    0.570
       153 -12.9562    137.2045    176.5082   5.2589588793e+01   1.7721820856e+01    0.3961698    0.2955351 -82.61  0.001444544    1.835    0.455
       154 -11.0596     53.7229    177.4389   7.4235501351e+01   3.0559030644e+01    0.2709195     0.110713  38.06  0.001117599    2.152    0.535
       155 -11.8364    224.4784    175.8632   3.4858854383e+01   3.4520686627e+00    0.2886827    0.1653369  30.04   0.00155328    1.877    0.467
       156 -12.6576    106.3919    175.8873   6.0087274922e+01   2.3133890382e+01    0.3184484     0.224825  39.50 0.0008757226    1.335    0.251
       157 -11.9935    173.1409    173.5957   4.4041465793e+01   1.2046046318e+01    0.2450935    0.1884312 -33.64 0.0003440758    1.280    0.219
       158 -12.7756    100.0613    171.2117   6.0981771046e+01   2.5282823541e+01    0.3174021    0.2616803  22.31 0.0003841115    1.349    0.259
       159 -13.2513     90.4775    171.9294   6.3635673154e+01   2.6659280188e+01    0.4355884    0.2840774 -49.30  0.001102417    1.682    0.406
       160 -12.0044     95.0516    171.9950   6.2428815815e+01   2.5912212534e+01    0.3103898    0.2145539  38.58 0.0007215436    1.379    0.275
       161 -12.7456     79.2765    173.0488   6.6806587390e+01   2.8110990397e+01    0.3829901    0.2544216  60.46  0.001800344    1.528    0.346
       162 -11.5198    191.1929    171.8173   4.0070931752e+01   9.3206338858e+00     0.187279    0.1481029  -5.70 0.0005242939    1.299    0.230
       163 -11.0780     43.5837    172.5600   7.6473449074e+01   3.3016544428e+01    0.2444877   0.09863634  41.89 0.0005980029    2.162    0.538
       164 -16.6376     21.1826    214.8839   8.5035649393e+01   2.5523707622e+01     3.717821     1.053168  64.76   0.01339782    3.977    0.749
       165 -12.2613    164.0393    170.8391   4.5447021833e+01   1.4166450247e+01    0.2573146    0.1896591  30.96   0.00133321    1.354    0.262
       166 -12.7639    156.9396    165.6287   4.5997081343e+01   1.6489154754e+01    0.2629313    0.2465007  -6.69  0.001505561    1.054    0.051
       167 -12.8082    152.4015    165.8135   4.7058270498e+01   1.7274875881e+01    0.3320143    0.2536495 -29.13  0.001090568    1.417    0.294
       168 -12.3263     57.3820    164.4684   7.1734155961e+01   3.3358971901e+01    0.3880635    0.2054277  72.87  0.001566973    2.318    0.569
       169 -11.6795     61.4443    170.8960   7.1390359435e+01   3.1184917825e+01    0.3899209    0.1907743  34.62  0.001683849    1.947    0.486
       170 -13.3173     53.0643    167.7533   7.3341812128e+01   3.3076973385e+01    0.6473962    0.3098331  47.07  0.002641998    1.932    0.483
       171 -11.2054      2.1643    171.1237   8.7422974652e+01   3.7400379837e+01    0.1809269    0.1490577 -86.63  0.000403553    1.171    0.146
       172 -11.7717    236.7713    170.6030   3.1879324716e+01   2.4976198959e+00    0.1487685    0.1170074  45.38 0.0006560846    1.659    0.397
       173 -11.2991    197.7772    170.2120   3.8504308187e+01   8.5184056002e+00    0.1864295     0.144887  -4.68 0.0004770363    1.329    0.248
       174 -13.3445    152.8535    170.3534   4.7831093842e+01   1.6250351173e+01    0.3490397    0.2972338 -33.77  0.001033925    1.194    0.162
       175 -11.9882     40.3908    168.2710   7.6927481169e+01   3.4472096800e+01    0.3471889    0.2622215 -76.75  0.001927704    1.250    0.200
       176 -12.8426     41.2155    161.9249   7.6046826250e+01   3.6006512455e+01    0.5782561    0.2153041  55.64   0.00207416    2.975    0.664
       177 -13.1133     83.8917    166.8738   6.4654456762e+01   2.8934476188e+01    0.4257308    0.2194227 -70.14  0.001096347    2.114    0.527
       178 -12.1238     31.1955    167.4689   7.9398966374e+01   3.5682011137e+01    0.2550905    0.1968989  67.93 0.0002349412    1.120    0.108
       179 -12.5887     72.2780    166.7325   6.7846008491e+01   3.0717585388e+01    0.2843164    0.2495646  19.81  0.001122837    1.331    0.248
       180 -12.4165    200.6585    165.8240   3.7105367665e+01   8.8118969663e+00    0.3550521    0.2328421  59.46   0.00171087    2.344    0.573
       181 -13.2000    111.3523    164.0823   5.6806955588e+01   2.5063105300e+01    0.4661382     0.299568 -31.88  0.001704386    2.123    0.529
       182 -12.6537    103.1125    165.0599   5.9154876857e+01   2.6249102540e+01    0.3446775    0.2021704  40.85 0.0008674442    1.620    0.383
       183 -13.3667     91.5173    162.0051   6.1787018329e+01   2.8929954807e+01    0.3437517    0.2689315  67.55  0.001728911    1.312    0.238
       184 -12.5344     95.5158    159.0895   6.0192710302e+01   2.8992632400e+01    0.3048895    0.2642012   0.00 0.0002960593    1.438    0.304
       185 -12.9119      4.2426    160.2381   8.6306498674e+01   3.9948454324e+01    0.3833007    0.2756492  71.33   0.00131827    1.148    0.129
       186 -11.5613    212.1695    163.9310   3.4660348582e+01   7.2633522549e+00      0.18407     0.163223 -35.03  0.000291651    1.177    0.150
       187 -12.1083     63.9965    164.0780   6.9810560716e+01   3.2566912675e+01    0.2701663    0.2041073 -74.99  0.001032682    1.278    0.218
       188 -13.2050     67.4297    159.8643   6.8253740429e+01   3.3166927408e+01    0.4686516    0.2827797   9.38  0.001874764    2.701    0.630
       189 -11.4281    229.7861    161.9871   3.1330495909e+01   4.8449592613e+00    0.1828579    0.1546782 -41.35 0.0005760052    1.290    0.225
       190 -12.2696     47.5115    161.6487   7.4212866738e+01   3.5334745446e+01    0.2719695    0.1618616  36.61 0.0009265934    1.632    0.387
       191 -12.5187    170.1055    160.1644   4.2028089755e+01   1.5197925039e+01     0.251684    0.2394641  -6.74  0.001146848    1.011    0.011
       192 -14.1053    120.3035    157.9274   5.3336352804e+01   2.4917356453e+01    0.6045058    0.4453409  40.58  0.002933316    1.327    0.246
       193 -14.9589     68.8935    245.7548   7.6735328979e+01   1.3827520670e+01     1.363407    0.8926298  44.13  0.008632603    1.179    0.152
       194 -12.7109     90.8425    145.6025   5.9100145421e+01   3.3185938183e+01    0.4046215    0.2161007  36.71  0.001643009    1.873    0.466
       195 -12.2168     85.8884    143.8570   6.0233618221e+01   3.4467853492e+01    0.2599895     0.239504   9.80 0.0003639423    1.275    0.216
       196 -14.3240     77.2021    154.0144   6.4542154599e+01   3.3229117079e+01    0.6312764    0.4732693 -52.04  0.003134539    1.410    0.291
       197 -13.7594     84.2671    150.0045   6.1812952224e+01   3.3147291601e+01    0.5759174    0.3810741 -65.89 0.0005278398    1.501    0.334
       198 -13.7916     83.6180    159.6406   6.3606335305e+01   3.0791477874e+01    0.5730985    0.3313252  75.20  0.002222332    2.460    0.594
       199 -12.0366    145.9616    157.6133   4.6919757181e+01   2.0214851945e+01    0.2681418     0.213608 -49.80  0.000284795    1.269    0.212
       200 -13.3821     31.7443    156.6572   7.8244491330e+01   3.8410577136e+01    0.4795144    0.3341918  84.14  0.002551794    1.295    0.228
       201 -12.0321    190.5173    155.3454   3.6896316124e+01   1.2441490274e+01    0.2606071    0.2086388 -49.84  0.000702398    1.322    0.244
       202 -11.0470    141.7917    155.7928   4.7542754230e+01   2.1400240143e+01    0.2042796    0.1762714  77.62  0.000496804    1.341    0.254
       203 -13.8664     63.3874    153.3399   6.8498909918e+01   3.5431661510e+01    0.6068609    0.3107507 -66.54  0.002567907    1.868    0.465
       204 -12.1456     25.2510    153.8515   7.9878342866e+01   3.9792105214e+01    0.2533614     0.193663  67.31 0.0004969808    1.163    0.140
       205 -11.6540      1.6231    152.0368   8.6574259831e+01   4.2219593739e+01    0.4787233    0.1790669  78.47  0.001925787    2.606    0.616
       206 -11.9597      5.2807    150.1684   8.5415477821e+01   4.2436484692e+01    0.2663871    0.1874411  78.87  0.001012138    1.184    0.155
       207 -11.7327    212.4916    154.0013   3.2606814240e+01   8.8963149149e+00    0.2071652    0.1179911 -37.87 0.0007746273    1.564    0.361
       208 -11.6528     11.6646    152.3187   8.3714845864e+01   4.1390922737e+01    0.3972915    0.2461925  62.92  0.002110619    1.450    0.310
       209 -11.5032     12.8236    149.3670   8.3159744520e+01   4.2062576755e+01    0.2887346     0.158504  38.80  0.001452152    1.763    0.433
       210 -11.7966    105.3823    158.6921   5.7427424168e+01   2.7401709568e+01    0.3251149    0.2295689  71.27 0.0008386002    1.708    0.414
       211 -13.6772     52.2143    151.3677   7.1563414449e+01   3.7440690599e+01    0.5821625    0.3336983 -42.25  0.001068417    2.249    0.555
       212 -12.8967     57.6722    143.8623   6.8834675884e+01   3.8720087810e+01    0.2948104    0.2488959 -52.73 0.0003338164    1.273    0.214
       213 -12.4430    172.2511    150.9806   3.9660069819e+01   1.6633388030e+01    0.3690929     0.193202 -46.03  0.001571165    1.869    0.465
       214 -12.0379     44.0155    152.0689   7.4115750400e+01   3.8258269400e+01    0.2162343    0.1858936  81.27  0.001220148    1.019    0.019
       215 -12.8035     69.3256    150.4271   6.6294045213e+01   3.5345218005e+01    0.2944781    0.1802285 -71.32 0.0009165513    1.615    0.381
       216 -11.8663    167.8021    149.8601   4.0367433091e+01   1.7703547776e+01     0.198741    0.1761493 -78.10 0.0004426395    1.340    0.254
       217 -12.4192    108.9772    149.0946   5.4638617820e+01   2.9107990034e+01    0.3451472    0.3260184  82.28 0.0009823348    1.030    0.029
       218 -12.7919     27.3991    148.4263   7.8724847865e+01   4.1009067949e+01    0.4455198    0.3020204 -72.66  0.001437302    1.335    0.251
       219 -12.0406     32.4417    147.9016   7.7140707471e+01   4.0641034851e+01    0.2476279    0.2251669  89.87 0.0005843019    1.094    0.086
       220 -11.4457    146.8914    148.7221   4.4849508714e+01   2.1982046084e+01    0.2472663    0.2008581 -33.89 0.0003199432    1.282    0.220
       221 -12.1609     95.8987    149.1042   5.8296883169e+01   3.1428832570e+01    0.2403536     0.202573  79.26 0.0007922098    1.222    0.182
       222 -12.6930     40.6364    146.8111   7.4507753217e+01   4.0042630038e+01     0.264116    0.1974295 -81.91  0.001311022    1.210    0.174
       223 -11.8099      8.7487    146.6978   8.4168044632e+01   4.3076042822e+01    0.2379675    0.1633061  89.88  0.001324535    1.223    0.182
       224 -13.1668    120.2932    144.5308   5.0650509793e+01   2.8101690575e+01      0.42429    0.3348012  38.08 0.0004664435    1.285    0.222
       225 -11.3740    229.0233    145.0993   2.8070108584e+01   7.6773866199e+00    0.1926114    0.1635656 -25.30 0.0003490229    1.019    0.019
       226 -12.8279    133.3266    150.8984   4.8614112268e+01   2.4112858695e+01    0.3815508    0.2398896 -64.33   0.00161375    1.896    0.473
       227 -13.0542     95.1594    140.4207   5.6837827105e+01   3.3763503381e+01    0.5301372    0.3817226  -3.19  0.002222765    2.209    0.547
       228 -12.3182    103.5200    144.8627   5.5318827306e+01   3.1146866233e+01    0.4774989    0.2878827  53.94  0.001097253    1.798    0.444
       229 -12.0983    100.9926    141.4787   5.5358949288e+01   3.2453114112e+01    0.3430271    0.2478991  51.98 0.0009687901    1.399    0.285
       230 -11.1684    194.9868    143.6926   3.3577822780e+01   1.3799145043e+01    0.1869743    0.1768149  22.58 0.0004206378    1.132    0.116
       231 -12.4697    187.3398    143.2506   3.4936676383e+01   1.5303342700e+01    0.2557338     0.235631 -19.67 0.0002544671    1.035    0.034
       232 -11.0208    156.8735    144.2598   4.1565835447e+01   2.0993380251e+01    0.2629481    0.1742163  85.87 0.0009709304    2.987    0.665
       233 -12.4604     70.3586    143.2652   6.4820991495e+01   3.7076776406e+01    0.2513384    0.2317675  81.74 0.0002205048    1.013    0.013
       234 -13.3683     19.8354    141.9483   8.0417506656e+01   4.3422055878e+01    0.5117455    0.2514227  33.01  0.001197554    2.035    0.509
       235 -12.5842     12.2263    142.1168   8.2775037181e+01   4.4006108220e+01    0.3793091     0.228212  68.15  0.001936554    1.540    0.351
       236 -12.7469     51.5577    142.3988   7.0528927109e+01   3.9910121387e+01    0.4234129    0.2112264  39.36 0.0008812461    1.939    0.484
       237 -10.7198    224.0199    142.5131   2.8322426518e+01   8.9215699885e+00    0.1680817    0.1309964  39.07 0.0003345002    1.467    0.318
       238 -11.9738    177.9267    142.1030   3.6556949241e+01   1.7320271184e+01    0.2498359    0.2125797  52.09 0.0004498182    1.292    0.226
       239 -10.9117    166.5452    142.4521   3.9023913677e+01   1.9468018823e+01     0.146296    0.1405345 -33.88 7.717339e-05    1.014    0.013
       240 -12.2204     41.0125    140.0341   7.3538728240e+01   4.1812877134e+01    0.2776254    0.1813881 -28.76  0.001250034    2.202    0.546
       241 -10.6896    208.6716    139.2833   3.0174368981e+01   1.2119851278e+01      0.12987    0.1063426 -71.07 0.0002170779    1.606    0.377
       242 -11.1991     57.6108    139.7228   6.8220163098e+01   3.9834681611e+01    0.1484864    0.1129844 -28.01 0.0002061324    1.732    0.423
       243 -11.1477    212.4724    137.9561   2.9243429740e+01   1.1678282192e+01    0.2046096    0.1198716 -38.32 0.0004178771    1.499    0.333
       244 -12.9306    118.2849    136.3321   4.9424996438e+01   3.0466667284e+01    0.3492026    0.3219876  62.15 0.0003482034    1.082    0.075
       245 -10.9348    109.4955    137.5237   5.2118067269e+01   3.1867395420e+01    0.1539188    0.1515467 -57.79 0.0002972338    1.072    0.067
       246 -11.4362     90.0116    135.9791   5.7478098413e+01   3.5806013226e+01     0.238563    0.2155449  75.38 0.0004012866    1.081    0.075
       247 -12.7321     85.1843    135.9846   5.8944660377e+01   3.6630904572e+01    0.4603496    0.3012435   3.72  0.001393954    2.696    0.629
       248 -13.6322     59.6621    135.6646   6.6913644054e+01   4.0643173498e+01    0.6592461     0.299601  21.74  0.002357423    2.966    0.663
       249 -14.0318     57.0450    133.7280   6.7440894731e+01   4.1521304456e+01     0.916186     0.228692  34.37  0.001261035    3.584    0.721
       250 -12.8382     44.3763    134.5155   7.1699165095e+01   4.2910781348e+01    0.5482481    0.2454998  59.54  0.001981842    2.822    0.646
       251 -11.0472     27.0096    136.0056   7.7540614437e+01   4.4355000548e+01    0.2430716    0.1410529  62.77  0.001130073    1.747    0.427
       252 -12.9717     13.0472    134.5630   8.1882326262e+01   4.5937592537e+01     0.394538    0.2485666  58.17  0.002055648    1.521    0.343
       253 -10.9353    197.4055    135.1393   3.1257647960e+01   1.4935641416e+01    0.1997913    0.1223712 -48.74 0.0005285784    1.626    0.385
       254 -10.9532    131.2906    135.6748   4.5831618835e+01   2.8037612939e+01    0.1574905     0.122657  87.65 0.0002241117    1.614    0.380
       255 -13.1790    102.9980    134.1159   5.3242693502e+01   3.3940668054e+01    0.6156897    0.2695223  29.60  0.001994905    3.060    0.673
       256 -10.9147     36.0000    122.9976   7.2856491293e+01   4.6969440343e+01    0.3654242    0.1353868 -77.52  0.001223641    2.878    0.653
       257 -10.8155     36.0088    119.2530   7.2294721874e+01   4.7984572393e+01    0.2248348    0.1776709  70.32 0.0005363278    1.258    0.205
       258 -12.2386     35.5970    127.8276   7.3680657853e+01   4.5702294999e+01    0.3665133    0.2123071 -86.25 0.0009264636    1.718    0.418
       259 -11.9645     34.4766    131.9996   7.4614700289e+01   4.4690856831e+01    0.2814787    0.1914664 -46.12  0.001085449    1.635    0.388
       260 -11.6508     37.6616    130.7273   7.3385633174e+01   4.4695948672e+01    0.2476831    0.2307002 -58.41 0.0002256825    1.174    0.148
       261 -11.0908    209.9582    134.0354   2.8816644580e+01   1.2817109212e+01     0.164693    0.1499381 -27.74 0.0005481559    1.042    0.041
       262 -11.8866     77.9769    132.7872   6.0555179953e+01   3.8661096400e+01    0.2254972    0.1634831 -39.46  0.000533986    1.605    0.377
       263 -12.5660     19.5430    131.3316   7.9468143912e+01   4.6276892343e+01    0.3403305    0.2253751 -34.27  0.001701939    1.933    0.483
       264 -11.5339    230.1284    130.6394   2.4886064586e+01   9.8654723969e+00    0.2141791    0.1522298 -42.13 0.0004065073    1.242    0.195
       265 -11.6860      7.9505    131.2768   8.3237096241e+01   4.7180714575e+01     0.177175    0.1614368  80.90 0.0003407219    1.119    0.106
       266 -11.8696     36.9543    134.9979   7.4190272742e+01   4.3618344300e+01    0.2026395     0.182073  88.79 0.0005396731    1.037    0.036
       267 -11.6100     94.3202    129.1528   5.4745278466e+01   3.6800467745e+01    0.3313033    0.1258741 -49.78  0.001094328    2.608    0.617
       268 -13.0006     47.5615    129.9639   6.9966049132e+01   4.3759285955e+01    0.5289698    0.2307132  36.52  0.002111277    2.245    0.555
       269 -14.0584     64.0020    121.4065   6.2901527467e+01   4.3856074096e+01     0.943842    0.2439892 -63.20  0.002671622    3.769    0.735
       270 -13.3545     58.8184    125.5265   6.5436244842e+01   4.3489136080e+01    0.4521674    0.3397684  -3.39  0.001084197    1.850    0.460
       271 -11.6443    121.6395    128.1303   4.6642028594e+01   3.1777374413e+01    0.3288535    0.1473815 -58.33  0.001101295    2.581    0.613
       272 -12.4655     83.6783    127.3086   5.7647760508e+01   3.9153566496e+01    0.3061026    0.2246271 -55.16 0.0006498281    1.329    0.248
       273 -12.7365     80.5230    127.5294   5.8695185810e+01   3.9628244155e+01    0.3139876     0.235405  62.21 0.0008758595    1.419    0.295
       274 -12.7234     26.6197    124.9384   7.6361882218e+01   4.7373358020e+01    0.3978402     0.240062  78.88  0.001865716    1.703    0.413
       275 -11.5143    169.2193    126.0671   3.4682571294e+01   2.2307116325e+01    0.2308603    0.2032345  -3.78 0.0006078601    1.287    0.223
       276 -13.3952     75.1110    125.1003   5.9941180611e+01   4.1157267729e+01    0.4646808    0.3158599 -59.48  0.001280915    1.401    0.286
       277 -14.5863     76.6973    119.6641   5.8273258692e+01   4.2335669317e+01    0.9041033    0.4727679  41.03 0.0005426314    1.927    0.481
       278 -12.1696    186.3017    124.2021   3.0823274794e+01   1.9171797442e+01    0.3426503    0.2291071 -33.02  0.001043858    1.471    0.320
       279 -11.1363    189.4413    121.5088   2.9601820861e+01   1.9053611880e+01    0.1892079    0.1450264  64.47 1.704858e-07    1.559    0.359
       280 -13.3916     14.5688    120.9131   8.0053493019e+01   4.9465104227e+01    0.5178652    0.2088628 -76.40  0.002133445    2.122    0.529
       281 -13.0801     20.8707    122.9405   7.8099016313e+01   4.8419899084e+01    0.2838792    0.2745377  67.45 0.0005909182    1.165    0.142
       282 -12.5549     18.3156    114.3466   7.7974508727e+01   5.0941437272e+01    0.3931536    0.3149082  87.90  0.001633474    1.121    0.108
       283 -11.9223     22.4843    117.9941   7.6932510631e+01   4.9616982639e+01    0.2806669    0.1725369  64.92 0.0007852858    1.704    0.413
       284 -11.7549     24.2713    115.0032   7.5898983478e+01   5.0269932392e+01    0.3350351    0.1819396 -67.07 0.0003164858    1.580    0.367
       285 -11.9823      5.1503    123.3155   8.3496244407e+01   4.9473357332e+01    0.2974553    0.1588452  87.86   0.00142594    1.673    0.402
       286 -12.6264    195.0078    122.6272   2.8848577417e+01   1.7728175846e+01    0.2568689    0.2422131 -35.13 0.0002884825    1.045    0.044
       287 -12.0689    130.4626    128.5943   4.4405154807e+01   2.9861535799e+01    0.2646074    0.2545003 -42.66 0.0003343791    1.066    0.062
       288 -13.1802    105.7347    121.4267   4.9558487492e+01   3.6599883080e+01    0.6348275    0.3165297  47.85  0.002373205    2.089    0.521
       289 -10.5963    126.3053    123.7030   4.4327042032e+01   3.1872890751e+01    0.1593203    0.1240698  85.48 0.0002802334    1.586    0.369
       290 -11.4672    224.1007    120.4831   2.3593259316e+01   1.2605392027e+01    0.1719346    0.1362526  50.55 0.0004732438    1.494    0.331
       291 -11.4230     94.6350    117.4637   5.1984298738e+01   3.9733085162e+01    0.3263313    0.1960018 -52.10  0.001352115    1.615    0.381
       292 -12.5780      9.0661    117.6411   8.1636303951e+01   5.0727896789e+01    0.2442623    0.2244005 -67.95 0.0007553083    1.155    0.134
       293 -11.9094    241.5272    115.9805   2.0170557154e+01   1.0309321671e+01    0.1953371    0.1920718  69.18 0.0001267516    1.261    0.207
       294 -10.4589     29.5336    116.5048   7.4204820180e+01   4.9381683347e+01    0.1439186    0.1256965 -80.16 4.831242e-05    1.012    0.012
       295 -10.8496    196.5384    115.5038   2.6908135212e+01   1.8746338315e+01    0.1451021    0.1297902 -40.88 0.0004433467    1.003    0.003
       296 -13.2090     83.0847    112.0447   5.4410386209e+01   4.3233628836e+01    0.6681322      0.25625 -53.18  0.002272304    2.450    0.592
       297 -12.2351    104.3757    113.7185   4.8070963279e+01   3.8784105607e+01    0.3054284    0.2342215  64.13 0.0006830926    1.440    0.305
       298 -13.2034    108.6564    111.4019   4.6200330627e+01   3.8486680412e+01    0.3600885    0.3134502 -79.60 0.0005663204    1.193    0.161
       299 -13.1409     63.1355    104.5679   5.9610620298e+01   4.8468772430e+01    0.4908793    0.2015496 -55.85   0.00150636    2.206    0.547
       300 -12.8982     53.7523    126.8173   6.7372774058e+01   4.3825268047e+01     0.375697     0.238329 -28.93 0.0009452151    2.283    0.562
       301 -12.6303     58.5248    114.1264   6.3350526325e+01   4.6598356726e+01    0.2515073    0.2140348  37.40 0.0001666341    1.250    0.200
       302 -11.1757    121.0009    113.0460   4.3093524778e+01   3.5510159510e+01    0.2540552    0.1934973  88.51 0.0005881958    1.657    0.396
       303 -12.2346    116.5636    112.8211   4.4277333612e+01   3.6501807217e+01    0.2834565      0.22406  46.11  0.000545993    1.291    0.225
       304 -10.4395    229.9760    112.4793   2.0983386389e+01   1.2882449515e+01    0.1726535    0.1155661 -87.38 0.0008102814    2.585    0.613
       305 -12.8903     12.2722    111.4536   7.9834068103e+01   5.2163211234e+01    0.3257421    0.1819633 -57.81  0.001590997    1.620    0.383
       306 -11.4363    218.0642    110.0443   2.2159364445e+01   1.5491165872e+01    0.2122873    0.1534464 -64.92 0.0004396313    1.644    0.392
       307 -11.7985     53.0640    110.3048   6.4545542998e+01   4.8372394872e+01    0.2759961    0.2072055  19.66  0.000802756    1.561    0.359
       308 -11.3639    210.1734    108.8268   2.3084631605e+01   1.7227974637e+01    0.2079624     0.173388 -54.09 0.0003765118    1.162    0.140
       309 -10.7607      9.6526    126.3005   8.2251367894e+01   4.8381942859e+01    0.1455956   0.08491363  61.14 0.0001135294    1.686    0.407
       310 -10.9640    237.0760    108.2789   1.9101851014e+01   1.2301733581e+01    0.1717734    0.1546768 -41.17 0.0005265586    1.104    0.094
       311 -13.2927      2.9660    106.9747   8.2790066569e+01   5.3927824042e+01    0.5413889    0.2824592 -62.27  0.001450671    1.637    0.389
       312 -13.1439     10.7159    104.7742   7.9638875413e+01   5.4049690580e+01    0.4392893    0.3546975  76.99  0.002409267    1.190    0.160
       313 -10.6983    139.6594    107.3160   3.6692859043e+01   3.2737579079e+01    0.1649435    0.1243129 -86.27  0.000704831    1.707    0.414
       314 -11.1871    159.0157    106.4818   3.1976765765e+01   2.8567103717e+01      0.22952    0.1545326  52.00  0.000715273    1.561    0.360
       315 -11.1603     93.0126    105.6594   4.9546942814e+01   4.3023222983e+01     0.225147    0.2019295  49.33 0.0007988783    1.141    0.123
       316 -12.6127    162.5091     99.5127   2.9385832382e+01   2.9199754076e+01     0.335169    0.2180446 -74.83 0.0009981692    2.265    0.558
       317 -11.5262    105.3307    102.6291   4.4862930984e+01   4.1299657885e+01    0.2486719    0.1880911  87.29  0.000633357    1.672    0.402
       318 -11.6273    154.0753    100.7130   3.1528948571e+01   3.0883175219e+01    0.3828664     0.203385 -44.82  0.001518334    1.791    0.442
       319 -13.6881     78.0420     92.3077   5.1028687750e+01   4.9149306259e+01    0.5763338    0.3483866  56.77  0.002246948    2.017    0.504
       320 -12.5326     76.9391     97.2560   5.2781242266e+01   4.8104928581e+01    0.3101515     0.278223 -54.70 0.0007585848    1.075    0.070
       321 -12.4049     55.4383    101.4655   6.1769098665e+01   5.0404517377e+01    0.2669271    0.2324297 -49.00 0.0002992364    1.143    0.125
       322 -11.3166     57.1205     97.4786   6.0197565802e+01   5.1214769329e+01    0.4400252    0.2582145  47.80  0.001105514    1.867    0.464
       323 -11.0197    210.5755    101.4840   2.1299091220e+01   1.8426681434e+01    0.1419806      0.12119 -44.59 5.898243e-05    1.016    0.015
       324 -11.0776     84.8679    100.8883   5.0989009464e+01   4.5758705308e+01    0.2307956    0.2108015 -26.80 0.0003829358    1.213    0.176
       325 -11.5256    168.5356     99.4746   2.8140676747e+01   2.7836916394e+01    0.1533669    0.1423912 -55.05 0.0001681485    1.002    0.002
       326 -11.8874     93.9303     98.6058   4.7346129374e+01   4.4589773162e+01    0.3715363    0.2523404  67.55  0.001538995    1.895    0.472
       327 -11.6054     32.6348     98.3090   7.0040701423e+01   5.3978620687e+01    0.3006943    0.2252482 -30.98   0.00155636    1.527    0.345
       328 -11.3931     25.6746     98.4995   7.2870124672e+01   5.4583636888e+01    0.2971077    0.1871846  71.60  0.001074957    1.823    0.451
       329 -12.3553      9.5262     97.8336   7.9247967530e+01   5.5966878863e+01     0.304795      0.21991  50.27  0.001256785    1.490    0.329
       330 -10.3326    118.2791     95.2906   3.8989862868e+01   4.0226943198e+01    0.1521571    0.1283645  -5.72 0.0003027593    1.525    0.344
       331 -11.5655     66.2399     94.6014   5.6001988924e+01   5.0576440019e+01    0.2043045    0.1507071  19.81 0.0009466941    1.616    0.381
       332 -10.6835     89.9706     94.0000   4.7359234774e+01   4.6492334484e+01     0.253325   0.09024317  40.59 0.0007958765    2.897    0.655
       333 -11.0881    243.7982     90.7870   1.4461953798e+01   1.3850730430e+01     0.185406    0.1511476 -33.67 0.0005294127    1.140    0.123
       334 -11.9796    189.2898     90.8075   2.2062014329e+01   2.4813281596e+01    0.3599983    0.1965219  43.77  0.001519163    2.226    0.551
       335 -10.8245     41.4617     91.5723   6.5065229241e+01   5.4803339368e+01    0.1443397    0.1323035 -77.27 0.0001935189    1.051    0.048
       336 -11.2771    105.0411     97.3535   4.3477479101e+01   4.2620612106e+01     0.262923    0.2099325 -41.46  0.001234616    1.283    0.221
       337 -11.7621    126.1122     86.4251   3.4223013609e+01   4.0394450855e+01    0.5140975    0.2688746 -37.67  0.001941359    2.040    0.510
       338 -11.5314      3.1782     88.0310   8.0613495762e+01   5.8889468203e+01    0.2523094    0.1561215 -79.57  0.001056277    1.387    0.279
       339 -10.7999    171.3465     88.2864   2.4594289809e+01   2.9352783373e+01    0.1479985    0.1208908  15.35 0.0003397167    1.652    0.395
       340 -12.2819    149.3089     87.6938   2.8959390776e+01   3.4655910966e+01    0.2655039    0.2249179  81.60   0.00120921    1.257    0.205
       341 -12.4591    149.9450     83.4894   2.7600764380e+01   3.5339654368e+01    0.4380255    0.2258311 -41.72  0.000604353    1.858    0.462
       342 -10.2773     39.0053     88.2102   6.5330450095e+01   5.5964206461e+01    0.1623955    0.1181621  25.42            0    1.521    0.342
       343 -11.2134     11.8467     86.8908   7.6747356939e+01   5.8699770788e+01     0.220439    0.1882578  43.07 0.0008815876    1.314    0.239
       344 -12.1794     79.0342    101.8207   5.3243239076e+01   4.6576718718e+01    0.3335586    0.2719314  64.04 0.0006586394    1.325    0.245
       345 -12.5245     54.7431     85.7519   5.8167222715e+01   5.4576920730e+01    0.5101531    0.4168607  -1.83  0.002621305    1.469    0.319
       346 -10.6402    141.4036     85.7659   3.0208341402e+01   3.6925357973e+01    0.2095223    0.1495771 -33.35 0.0005027145    1.504    0.335
       347 -10.4579    100.5203     86.4524   4.1665217162e+01   4.6121862798e+01    0.1561465    0.1522209 -67.03 7.114049e-05    1.020    0.020
       348 -12.6938     62.9937     82.8501   5.4023139428e+01   5.4052306096e+01    0.7395074    0.3696569 -29.75   0.00235317    3.695    0.729
       349 -12.2444     66.6861     81.6624   5.2210981702e+01   5.3740710647e+01    0.2941014    0.1378925 -49.20 0.0004740727    2.012    0.503
       350 -10.9228    133.9667     84.3950   3.1597243390e+01   3.8974236724e+01    0.2364974      0.15247  53.29   0.00100683    1.583    0.368
       351 -10.4434    232.2107     82.9572   1.4074013562e+01   1.7212862429e+01    0.1753984   0.08958855 -38.36 0.0003268176    1.603    0.376
       352 -11.9008    162.1674     83.6051   2.5080622157e+01   3.2396657180e+01    0.2054329    0.1431227  45.88 0.0003380353    1.587    0.370
       353 -12.1271     78.6605     82.0979   4.7791252210e+01   5.1518791197e+01    0.2578533    0.2124938  55.19 0.0005333644    1.292    0.226
       354 -11.3387    215.8848     80.3262   1.5495169093e+01   2.0891335816e+01    0.2393528    0.1564981 -45.60  0.000293792    1.295    0.228
       355 -11.2167     10.2010     71.3469   7.4845325794e+01   6.2795598474e+01    0.3270542    0.1808176   9.34  0.001614958    2.140    0.533
       356 -14.2696      6.7961     77.6931   7.7553353430e+01   6.1373843930e+01    0.4761654    0.4074681 -31.10  0.002290905    1.250    0.200
       357 -12.2559      3.0111     71.9633   7.8417248033e+01   6.3019181285e+01    0.2516457    0.1625514 -58.95 0.0006657002    1.284    0.221
       358 -11.6838    208.2380     78.8481   1.6160671329e+01   2.2741844865e+01    0.3067015    0.2153913  -0.55 0.0009942172    2.410    0.585
       359 -12.5732    114.1286     76.6038   3.4439045753e+01   4.5257769811e+01    0.5839953    0.4167447 -11.27  0.002400497    2.162    0.537
       360 -11.4161     88.6639     79.0069   4.3247380867e+01   5.0290723459e+01    0.2242738    0.1982197 -50.99 0.0007484577    1.103    0.093
       361 -10.7884     52.1661     79.3774   5.7481784153e+01   5.6543872986e+01     0.197142    0.1336599  43.29 0.0005821714    1.592    0.372
       362 -11.8419    161.3318     77.1900   2.3414353380e+01   3.3798925636e+01    0.2379196    0.1942019 -22.70  0.001170095    1.421    0.296
       363 -11.3600     75.2298     75.9785   4.7132914135e+01   5.3592774482e+01    0.2072199     0.122603 -51.03   0.00087518    1.634    0.388
       364 -11.1010     85.7932     75.4119   4.3075359301e+01   5.1684433870e+01    0.2160344    0.1850916 -19.28 0.0005165847    1.329    0.247
       365 -11.1799     86.1908     72.1388   4.1835931071e+01   5.2332841307e+01     0.208284    0.1805116 -85.37 0.0004153535    1.310    0.237
       366 -12.5851    105.9573     72.9982   3.5651576303e+01   4.7883866307e+01    0.4397753    0.3141272  74.22  0.001430936    1.778    0.438
       367 -11.4808     52.7866     73.5376   5.5497701691e+01   5.7887075084e+01    0.4523523    0.1953597  42.29  0.001732614    2.524    0.604
       368 -11.5131     70.9918     69.7081   4.6686775330e+01   5.5805967978e+01    0.3081892    0.2157798  -1.38  0.001090972    2.176    0.540
       369 -11.0405    189.2285     70.4169   1.6731014540e+01   2.8371307194e+01    0.1864175     0.136377  83.31 0.0003609162    1.509    0.338
       370 -10.5058    178.6787     69.2859   1.8075886589e+01   3.1035276131e+01    0.1531119    0.1056058 -69.36 0.0003081494    1.596    0.374
       371 -12.1944     54.6258     68.2732   5.3031137090e+01   5.8867715191e+01    0.2667322    0.2286931  -6.24 0.0003782986    1.288    0.224
       372 -11.2036    154.7646     68.2097   2.2053336695e+01   3.7033666483e+01    0.3156436     0.205001  74.84  0.001155811    1.764    0.433
       373 -10.3095     42.2979     68.2437   5.8607119921e+01   6.0592662870e+01    0.1370926    0.1025523 -24.34 0.0001759289    1.482    0.325
       374 -11.7313    224.8474     80.0176   1.4285397709e+01   1.9117324388e+01    0.1994635    0.1780362 -64.89 0.0003168155    1.123    0.109
       375 -11.0531     60.1564     66.8388   5.0157316274e+01   5.8328426678e+01     0.199148    0.1654757 -25.59 0.0004526579    1.272    0.214
       376 -11.7172    100.2541     64.6397   3.4523126344e+01   5.0887478674e+01    0.3416322    0.2090937 -24.31 0.0001075553    2.257    0.557
       377 -13.0054    100.5806     57.9605   3.1997308050e+01   5.2116195638e+01    0.4171368    0.2584486 -37.30 0.0006597033    1.657    0.397
       378 -11.0765    164.9761     64.0471   1.8903815624e+01   3.5240763589e+01    0.1822455    0.1611904 -56.35 0.0003271016    1.051    0.049
       379 -11.8600     92.0624     63.8287   3.6890978581e+01   5.2863611466e+01    0.2439584    0.2128652 -49.74 0.0003303464    1.142    0.124
       380 -11.6849     10.0092     63.0203   7.3268215087e+01   6.4883951914e+01    0.2668885    0.1937586   8.76 0.0003409589    1.570    0.363
       381 -11.5542     12.6958     59.9275   7.1160916116e+01   6.5472219782e+01    0.2826571    0.2400078  58.24  0.001266367    1.383    0.277
       382 -12.2787    116.1876     54.3688   2.6244096507e+01   4.9062607131e+01    0.3109955    0.2089787  88.48 0.0003198954    2.081    0.519
       383 -12.0806    109.5067     59.5227   2.9924665762e+01   4.9736873932e+01    0.3104934    0.2754128  52.25  0.001619026    1.125    0.111
       384 -11.9466    109.6084     55.8213   2.8554831634e+01   5.0394645011e+01     0.247414     0.208255 -70.60 0.0004918157    1.292    0.226
       385 -12.3449    112.7998     52.5972   2.6497198885e+01   5.0198299998e+01    0.4303714    0.2830746   0.08  0.001646121    2.768    0.639
       386 -12.3654     41.7199     58.8343   5.5858942769e+01   6.2880792581e+01     0.436073    0.2405063 -50.95  0.002020233    1.647    0.393
       387 -12.5070     36.5130     55.0871   5.7182455913e+01   6.4392634619e+01    0.5092652    0.2372487 -43.91  0.001927784    2.018    0.504
       388 -12.3763     24.0124     55.6700   6.3950369758e+01   6.5596190624e+01     0.424216    0.2641951 -67.01  0.001813396    1.597    0.374
       389 -12.2871     19.8928     53.0233   6.5404738299e+01   6.6581425925e+01    0.2628419    0.2211488 -78.84 0.0003537633    1.302    0.232
       390 -11.4656     18.9932     49.0346   6.4689338134e+01   6.7581575069e+01    0.2035392    0.1707502 -44.24 0.0003765406    1.031    0.030
       391 -11.9566    193.4390     56.6140   1.2452596611e+01   2.9602425004e+01    0.3096123    0.2153328  23.03  0.001401917    2.459    0.593
       392 -10.7276     54.3122     57.2128   4.9314068368e+01   6.1423997541e+01    0.2175345    0.1052315  44.85 0.0008757836    2.317    0.568
       393 -11.7425    198.8740     57.3918   1.1952684461e+01   2.8229323037e+01    0.2527162    0.2068655  36.23  0.001238163    1.624    0.384
       394 -11.8508    205.1052     54.5513   1.0455258779e+01   2.7244460321e+01    0.2372892    0.1790075 -37.36 0.0003350182    1.263    0.208
       395 -12.2957    120.8523     52.6137   2.4426012144e+01   4.8218406896e+01     0.357449    0.2378163 -45.71 0.0006652144    1.509    0.337
       396 -12.6678    162.2281     50.3523   1.5274162162e+01   3.8147325506e+01    0.3137948    0.2625629 -19.41  0.001135443    1.420    0.296
       397 -11.5371    130.9366     51.0254   2.1497869659e+01   4.5961210736e+01    0.2464618     0.183956  27.85  0.000906874    1.748    0.428
       398 -12.9314     30.4100     50.2465   5.8715755421e+01   6.6194048183e+01    0.2827535    0.2731603 -75.80 0.0008706514    1.183    0.154
       399 -12.1538    174.0700     49.2676   1.3109042489e+01   3.5367314543e+01    0.3074555    0.1912771 -44.78  0.001459292    1.472    0.321
       400 -11.0614    151.9993     49.9997   1.6929416107e+01   4.0783581099e+01    0.1803697    0.1650996 -70.42 0.0004632382    1.018    0.017
       401 -11.5197    132.9699     70.4123   2.7491198036e+01   4.1999853297e+01    0.2221023    0.2014649 -52.32 0.0002848423    1.078    0.072
       402 -11.5688     41.8579     47.1018   5.1458521031e+01   6.5451005491e+01    0.2399503    0.2257705  55.77 0.0007762659    1.252    0.202
       403 -11.7102    106.6332     51.1620   2.7663620275e+01   5.1935178803e+01    0.2424909    0.2012196  72.30 0.0004429421    1.266    0.210
       404 -11.5710     95.8245     44.8097   2.8380533521e+01   5.5573245255e+01    0.2220365    0.1990236  17.30 0.0006791348    1.215    0.177
       405 -11.6968    197.1071     44.1175   8.6819680587e+00   3.0589319273e+01    0.1915637    0.1829683 -67.79 0.0002846902    1.184    0.156
       406 -10.9461    189.8947     43.1171   9.2653831054e+00   3.2429076111e+01    0.2129213    0.1607357 -63.77  0.000310799    1.194    0.163
       407 -12.2609    158.3512     41.4434   1.3152429926e+01   4.0457721666e+01    0.2741695    0.2198744 -66.42 0.0002125667    1.185    0.156
       408 -12.3857    123.8655     39.6672   1.9022030403e+01   4.9529193781e+01     0.257405    0.2466542  88.61 0.0003809182    1.024    0.024
       409 -12.2687    119.3521     39.3434   1.9924333858e+01   5.0717889258e+01    0.3873654    0.3503119  10.33  0.001996741    1.285    0.222
       410 -12.0465    114.8217    247.1886   6.7358257905e+01   7.5874134790e+00     0.319556    0.1709643 -52.97  0.001784723    2.277    0.561
       411 -13.1884     30.7070     31.8767   5.1078222440e+01   7.0019543224e+01    0.3542743    0.2828568 -10.25   0.00173831    1.222    0.181
       412 -12.3113     34.0831     40.7075   5.3023181471e+01   6.7820612502e+01     0.301412    0.1745559  31.62  0.001083647    1.802    0.445
       413 -11.9885    205.3591     38.9793   6.4529761024e+00   2.9400802514e+01    0.3798441    0.2387612  36.24  0.001764219    2.632    0.620
       414 -11.4967     80.2773     35.7779   2.9667481484e+01   6.0562982020e+01     0.308037     0.192766 -41.61  0.001196416    1.656    0.396
       415 -12.0814      8.6292     36.5416   6.6964319774e+01   7.1167134145e+01    0.2119226    0.2030809 -39.13 0.0006620614    1.162    0.140
       416 -12.2032    158.2831     34.6333   1.1026009861e+01   4.1425668694e+01    0.3633217    0.2555064  -2.23 0.0005847372    2.127    0.530
       417 -11.6979     53.1682     34.3423   4.0182829863e+01   6.6167249485e+01    0.2473433    0.1925273 -45.02  0.001120116    1.341    0.254
       418 -11.7259    106.7662     32.4597   2.0286968161e+01   5.4855185014e+01    0.2594308    0.2012178 -35.77 0.0007568647    1.340    0.254
       419 -11.2412     42.4350     33.2095   4.5069698665e+01   6.8129029831e+01    0.1790217    0.1247205 -54.20 0.0006035877    1.646    0.392
       420 -11.7527     96.6758     31.1976   2.2461524922e+01   5.7487205752e+01    0.2356654    0.1892108 -12.19 0.0007029276    1.418    0.295
       421 -11.9829     45.9792     26.0071   3.9586759852e+01   6.8830021511e+01    0.3160318    0.2565008 -66.30  0.001199885    1.746    0.427
       422 -11.3963    142.0045     30.9705   1.2408527491e+01   4.6090298034e+01    0.2148756    0.1661103  35.43            0    1.574    0.365
       423 -11.3487      2.0170     30.9956   6.9587301175e+01   7.2767816398e+01    0.2017935    0.1104741 -37.54 0.0003367504    1.588    0.370
       424 -11.3587     67.5278     29.0980   3.1330537910e+01   6.4309644296e+01    0.1975196    0.1328359 -35.51 0.0006072349    1.514    0.340
       425 -13.2087     27.8675     37.3316   5.5192634268e+01   6.9266170533e+01    0.3744374    0.2528986 -38.30  0.001205687    1.343    0.255
       426 -11.1053    196.5031     27.4754   4.3500707547e+00   3.2950912271e+01    0.1364965    0.1135541 -65.52 0.0008101678    1.005    0.005
       427 -12.4728     46.9487     31.3587   4.1808621390e+01   6.7749370041e+01    0.3310795    0.2097207 -42.28  0.001079621    1.562    0.360
       428 -11.3287     26.9897     26.5031   5.0774269928e+01   7.1508900073e+01    0.1926651    0.1202401  29.29  0.001045718    1.644    0.392
       429 -12.6179     84.5949     24.2964   2.2966329581e+01   6.1273546384e+01    0.2836136    0.2165252 -70.73  0.001028521    1.700    0.412
       430 -13.1520     67.6395     24.0929   2.8799099256e+01   6.5030327345e+01    0.5178521    0.2803639  62.71  0.002230418    2.390    0.582
       431 -10.5279    128.5650     24.5065   1.2479761564e+01   5.0374650714e+01    0.1435397    0.1289896 -82.10 0.0001014342    1.061    0.058
       432 -11.8579     99.4258    247.2863   7.0537695346e+01   9.6250563097e+00    0.3116671    0.1885376  -2.37  0.001381325    3.632    0.725
       433 -11.7382     80.7012     18.0546   2.1198934450e+01   6.2961634366e+01    0.1866404    0.1741041   6.65 0.0003910834    1.096    0.088
       434 -11.2689    214.8777    247.1653   4.8280964810e+01  -5.2588755614e+00    0.1517393    0.1234701   9.55 0.0003512651    1.199    0.166
       435 -10.8367    103.1842     15.2253   1.3916292091e+01   5.7888158946e+01    0.2444623    0.1242702  31.23 0.0009508089    2.814    0.645
       436 -10.4575    127.2645     13.2960   8.5396818487e+00   5.1972971765e+01    0.1334323    0.1000677  38.72 0.0001763106    1.510    0.338
       437 -10.9023    162.5970    246.1644   5.7684787993e+01   1.3392529421e+00    0.1951943     0.114174  26.89 0.0005799384    1.425    0.298
       438 -10.5494    204.7234     10.6960   3.5934358567e+02   3.3018238840e+01    0.1107289   0.09834664  41.97 0.0002315353    1.545    0.353
       439 -12.4622    120.9477    244.7626   6.5842576461e+01   7.1635958527e+00    0.3895859    0.1531279  40.55  0.001855914    2.056    0.514
       440 -12.7155     53.7923    242.4528   7.9636587203e+01   1.6279850268e+01    0.4540299    0.3057781 -17.63  0.002371793    3.076    0.675
       441 -11.4912     78.0573    243.3481   7.4638133390e+01   1.3113282648e+01    0.1676157    0.1627622  46.89 0.0006161653    1.265    0.210
