#   1 NUMBER                 Running object number                                     
#   2 MAG_AUTO               Kron-like elliptical aperture magnitude                    [mag]
#   3 X_IMAGE                Object position along x                                    [pixel]
#   4 Y_IMAGE                Object position along y                                    [pixel]
#   5 X_WORLD                Barycenter position along world x axis                     [deg]
#   6 Y_WORLD                Barycenter position along world y axis                     [deg]
#   7 A_WORLD                Profile RMS along major axis (world units)                 [deg]
#   8 B_WORLD                Profile RMS along minor axis (world units)                 [deg]
#   9 THETA_WORLD            Position angle (CCW/world-x)                               [deg]
#  10 FWHM_WORLD             FWHM assuming a gaussian core                              [deg]
#  11 ELONGATION             A_IMAGE/B_IMAGE                                           
#  12 ELLIPTICITY            1 - B_IMAGE/A_IMAGE                                       
         1 -14.0206    213.3343      8.5567   3.9760638938e+01   3.0916385333e+01     2.214382     1.513348  37.66   0.01043218    1.938    0.484
         2 -13.2412    174.1622     53.6670   5.7777643052e+01   3.4936853799e+01     1.854267      1.24688  25.35  0.005220481    2.020    0.505
         3 -13.4663    189.0219     40.1140   5.1282082203e+01   3.3138534468e+01     1.055698     1.038294 -30.52  0.003750568    1.101    0.092
         4 -12.7532    194.0154     33.9202   4.8790877550e+01   3.2704504793e+01    0.6084881    0.5855672  24.09  0.001297718    1.181    0.153
         5 -10.4858     50.9977      7.4906   7.3522273744e+01   6.7900128034e+01     0.176666    0.1090651  35.99 0.0008417838    1.586    0.369
         6 -19.4969     24.9014    147.6279   1.2010529501e+02   4.1167215616e+01     19.28862     4.898735 -75.14   0.06788725    3.704    0.730
         7 -12.5756    246.4254    245.8052   8.7790430856e+01  -1.0742409067e+01    0.8528737    0.6258428  -1.14  0.006209909    1.169    0.144
         8 -12.1143    249.5105    229.5791   8.4619168836e+01  -9.3341955636e+00    0.5993326    0.2386855 -38.39  0.002961491    2.927    0.658
         9  -9.5827     72.3638    203.0408   1.1531983636e+02   2.3213093220e+01    0.2776391    0.1669189  69.22   0.00137237    1.647    0.393
        10 -10.9583    196.6902    204.3503   8.9812539273e+01   2.3746874316e+00    0.4977859    0.1826816  33.85  0.001897049    2.866    0.651
        11 -10.9156     59.0798    230.2988   1.2036199567e+02   1.9566848783e+01    0.1813333    0.1340438  85.39 0.0003300953    1.204    0.170
        12 -10.2681     58.5435    202.4504   1.1808595118e+02   2.5156943384e+01    0.2897076    0.2003384 -42.33  0.001163315    2.204    0.546
        13  -8.8868     87.7412    202.6117   1.1207683121e+02   2.1117574713e+01    0.1785575    0.1521131 -14.45 0.0008214336    1.812    0.448
        14 -11.2852     67.2112    206.0909   1.1668095334e+02   2.3276053753e+01    0.2066761    0.1980283  77.72 0.0002586505    1.314    0.239
        15 -10.7332    193.0871    195.1152   8.8854004946e+01   4.5132051006e+00    0.7977456     0.419918 -61.32  0.002760446    4.605    0.783
        16 -11.4668     61.0506    195.6880   1.1691185992e+02   2.6266843617e+01    0.3559367     0.235956 -42.61  0.001477269    2.244    0.554
        17  -9.3559     82.3825    195.1266   1.1232887287e+02   2.3470546800e+01    0.1989741    0.1706451  46.76 0.0008509502    1.225    0.183
        18 -10.6033      8.9852    192.9027   1.2713209351e+02   3.2515513614e+01    0.1749064    0.1103433  37.99 0.0005706486    1.745    0.427
        19  99.0000     61.6470    220.0261   1.1904835183e+02   2.1205956680e+01    0.2217966   0.09329025 -63.99  0.001128618    2.405    0.584
        20  -9.2818    156.6830    189.9413   9.5425091428e+01   1.2082220784e+01    0.1827081    0.1788953 -47.77 0.0004840427    1.111    0.100
        21 -11.4093    149.8245    188.0806   9.6575026348e+01   1.3700132901e+01    0.4052493     0.272393  50.09  0.001484367    1.445    0.308
        22  -9.2264    238.3218    185.6586   7.8537502090e+01  -1.8323616883e+00    0.1175636    0.1061748 -68.05 0.0007050433    1.723    0.420
        23 -11.6064    131.8378    172.2421   9.7792151250e+01   2.0266972008e+01    0.6546622    0.2141803  42.20  0.002249534    2.889    0.654
        24 -11.1228    150.8687    179.7200   9.4859852672e+01   1.5166373755e+01    0.4476472    0.3117873 -72.60  0.002116058    1.951    0.487
        25 -11.6039    145.1196    180.6047   9.6290385790e+01   1.6060584590e+01     0.458828     0.338215  50.96  0.001490486    1.318    0.241
        26 -11.7993    141.6422    175.0161   9.6058913824e+01   1.7860083059e+01    0.6373781     0.437268  86.24  0.002680994    2.246    0.555
        27 -10.5272    189.4074    177.5688   8.6241126219e+01   8.2419435458e+00    0.5025233    0.3625517 -57.23  0.002517642    1.766    0.434
        28  -9.5361     50.1948    216.6330   1.2094218834e+02   2.3303342913e+01     0.322874    0.2351622  -0.16  0.001789893    3.048    0.672
        29 -10.2861    235.7487    174.7544   7.6807870879e+01   2.5084769936e-01    0.1982139     0.109398  52.44  0.000585595    2.436    0.589
        30  -9.4857     75.1789    249.5407   1.1899328219e+02   1.4031369641e+01    0.2908109    0.0928025 -59.38  0.001389171    3.571    0.720
        31  -9.4419    184.4925    212.4916   9.3587518101e+01   3.1760295800e+00    0.2067877    0.1264725 -55.12  0.001029165    2.261    0.558
        32 -10.0043    240.4331    169.4825   7.4900751923e+01   2.6012974315e-01    0.1344225    0.1148677  -7.94 4.792992e-05    1.014    0.014
        33 -11.1572     55.2009    211.6301   1.1957181751e+02   2.3690101931e+01    0.3063364    0.1669204  58.18  0.001749731    1.586    0.370
        34 -10.8911     91.3311    157.9149   1.0500786521e+02   3.0491854693e+01    0.3026305    0.2704006  24.39 0.0005413745    1.337    0.252
        35 -11.7305     97.2185    151.2916   1.0238535361e+02   3.1105000887e+01    0.5976037    0.4807217 -28.35  0.003112771    1.595    0.373
        36  -9.9263    187.6716    152.0925   8.1239454968e+01   1.3356018666e+01    0.2620018    0.2060579  52.73  0.001154536    1.373    0.272
        37 -11.0443    133.8753    145.4822   9.2038251467e+01   2.5790291082e+01     1.216142    0.3247848 -55.20  0.003000749    5.344    0.813
        38  -9.4963    113.4865    151.2968   9.8286536214e+01   2.8303577064e+01    0.3296883    0.2261216  84.90  0.001093641    1.981    0.495
        39  -9.4732    174.9045    149.1615   8.3314817668e+01   1.6584809285e+01    0.2284367    0.2096409  88.74 0.0005418599    1.265    0.209
        40  -9.9398    143.8494    145.9521   8.9721258512e+01   2.3690940403e+01    0.3677374    0.2041779 -69.22  0.001245876    3.163    0.684
        41 -10.4387    106.9992    145.3620   9.8772173412e+01   3.0842565502e+01    0.3815762    0.2593428 -86.37  0.001188171    1.925    0.480
        42 -11.0482    108.3863    137.8521   9.6891287700e+01   3.2370182677e+01    0.5774802    0.3445141 -36.42  0.002407572    2.094    0.522
        43  -8.7919    112.6289    142.2724   9.6704965522e+01   3.0563691416e+01    0.1547467    0.1124015  72.70 0.0005324184    1.677    0.404
        44 -11.8498     96.6546    137.2345   9.9867052709e+01   3.4548505181e+01    0.3111203    0.2793218 -78.67 0.0003422369    1.061    0.057
        45 -10.9243    105.8960    131.0763   9.6110163572e+01   3.4422436283e+01    0.4728241    0.3337453 -53.20  0.001689569    1.354    0.261
        46 -10.1002    136.1913    129.3851   8.7823890171e+01   2.8958591872e+01    0.5427874    0.1200965 -49.45  0.001344908    4.749    0.789
        47 -10.2509    115.3607    128.8401   9.3085496212e+01   3.3210606186e+01    0.3274637    0.2732925 -30.81 0.0005856738    1.335    0.251
        48  -9.5383    160.7876    127.7262   8.1465796820e+01   2.4068376574e+01    0.3368672    0.2193085 -52.72  0.001442483    1.631    0.387
        49 -10.5898    103.0742    124.5972   9.5444438932e+01   3.6466051883e+01    0.2990884       0.2563 -12.17  0.000648585    1.432    0.302
        50  -9.9647    120.0419    123.2423   9.0535740104e+01   3.3615924478e+01    0.2877845    0.1932021 -34.37  0.001254159    1.695    0.410
        51  -9.8021    134.8972    119.8745   8.5829789174e+01   3.1370095124e+01    0.3460239    0.1635804 -49.08  0.001259947    2.100    0.524
        52  -9.5054    110.5631    118.1214   9.1870011564e+01   3.6628339878e+01    0.2339332    0.2040309  58.24 0.0003431735    1.211    0.174
        53  -9.9763    231.2232    113.7345   6.3988043422e+01   1.1255985830e+01    0.2688548    0.2634256  23.50 0.0007839896    1.120    0.107
        54  -9.7498    167.3589    112.3491   7.6042088048e+01   2.5812691683e+01    0.3420691    0.2623335 -78.90  0.001315829    1.748    0.428
        55 -10.0237    134.5839    106.2771   8.2365664090e+01   3.4458973427e+01     0.376182    0.1476377 -44.57  0.001259509    2.479    0.597
        56 -11.2553    118.8771    110.5918   8.7701287121e+01   3.6760382031e+01    0.6260667    0.4090264  61.35  0.002643118    1.934    0.483
        57  -9.6485    205.4974    110.2715   6.7648432181e+01   1.7469801211e+01    0.3098716    0.2419055  40.61 0.0009110744    1.362    0.266
        58  -9.4089    129.4442     95.9964   8.0860485511e+01   3.7802647122e+01    0.3903396    0.1715905  57.39  0.001213665    3.338    0.700
        59  -7.8675     43.9504    211.7922   1.2175073030e+02   2.5013749082e+01    0.2567437     0.129731 -80.62  0.001100084    1.838    0.456
        60  -8.8938    182.4749     82.5066   6.4638726787e+01   2.8007491786e+01    0.1537967    0.1496354 -41.83 0.0005019119    1.012    0.012
        61  -8.7088    153.8614     82.1452   7.0666536568e+01   3.5035078197e+01    0.2144186    0.1860301   2.55 0.0005160336    1.305    0.234
        62 -10.9633     39.1458    212.6612   1.2272531221e+02   2.5392070613e+01    0.1595452    0.1223336  77.45 0.0002957059    1.037    0.036
        63 -10.5467     71.9454    245.3227   1.1922961650e+02   1.5185671784e+01    0.2169766    0.1515506 -67.87  0.001420262    1.634    0.388
        64  -8.7535    167.8525    230.7643   9.9647040746e+01   3.0901663796e+00    0.1582961    0.1321251  56.26 0.0004763398    1.306    0.234
        65  -9.7766     64.7564    223.5570   1.1876051663e+02   2.0119187066e+01    0.2035941   0.08629469 -84.91  0.000905981    3.058    0.673
        66  -9.6680     56.2653    224.0840   1.2039276994e+02   2.1100846645e+01     0.120276   0.08350976  83.65 0.0007857357    1.258    0.205
