#   1 NUMBER                 Running object number                                     
#   2 MAG_AUTO               Kron-like elliptical aperture magnitude                    [mag]
#   3 X_IMAGE                Object position along x                                    [pixel]
#   4 Y_IMAGE                Object position along y                                    [pixel]
#   5 X_WORLD                Barycenter position along world x axis                     [deg]
#   6 Y_WORLD                Barycenter position along world y axis                     [deg]
#   7 A_WORLD                Profile RMS along major axis (world units)                 [deg]
#   8 B_WORLD                Profile RMS along minor axis (world units)                 [deg]
#   9 THETA_WORLD            Position angle (CCW/world-x)                               [deg]
#  10 FWHM_WORLD             FWHM assuming a gaussian core                              [deg]
#  11 ELONGATION             A_IMAGE/B_IMAGE                                           
#  12 ELLIPTICITY            1 - B_IMAGE/A_IMAGE                                       
         1 -15.4120     84.8761    115.8275   2.6230336495e+02  -5.4607861839e+01    0.3439847    0.2679475  -0.99   0.01397937    1.379    0.275
         2 -15.3898      4.1588     71.2955   2.5815369315e+02  -5.2408982538e+01    0.4866105    0.1280108  17.17   0.01161856    3.830    0.739
         3 -14.0322     43.8529     65.8086   2.5856739979e+02  -5.3815682189e+01     0.173966    0.1110513 -22.05  0.006259148    1.805    0.446
         4 -15.0602    152.1859     48.9176   2.5973904031e+02  -5.7687435874e+01    0.2276274    0.1688506 -42.89  0.006246608    1.368    0.269
         5 -13.8830     86.1877     37.8449   2.5771120836e+02  -5.5558610151e+01    0.1227518   0.07539954  27.79  0.004509953    1.575    0.365
         6 -13.3883    249.4606     34.9265   2.6110875553e+02  -6.1138800421e+01    0.1343075   0.04501813  12.88   0.00329726    3.726    0.732
         7 -14.1010    193.5583     14.9447   2.5842100800e+02  -5.9473181112e+01    0.1990193   0.09961355 -27.66  0.006041012    2.539    0.606
         8 -12.6521     97.4730     14.5012   2.5649191050e+02  -5.6183216710e+01   0.05798241   0.04423134 -24.48  0.002329976    1.392    0.282
         9 -14.0338    149.2672      9.2839   2.5713466504e+02  -5.8015733856e+01    0.1146234    0.1092677   0.43  0.003752109    1.055    0.052
        10 -12.9398     19.5111      9.4362   2.5488723456e+02  -5.3547978301e+01   0.05618057    0.0526212 -47.94  0.002537573    1.067    0.062
        11 -12.7280    117.4001      8.5139   2.5648107645e+02  -5.6927781774e+01   0.06369214   0.04428737 -47.38  0.002465364    1.435    0.303
        12 -13.2898     89.7164      5.2336   2.5578321414e+02  -5.6005850661e+01   0.08050571   0.06112193 -47.59  0.002694145    1.314    0.239
        13 -12.2554     81.7002      4.7760   2.5561765772e+02  -5.5733804521e+01   0.07170787   0.05028626  84.55  0.002752335    1.543    0.352
        14 -13.2173     91.3711    209.8967   2.6773989306e+02  -5.3505259841e+01    0.1610447   0.07533416  21.29   0.00503629    2.278    0.561
        15 -11.6559    224.8997    249.8705   2.7392393782e+02  -5.7048972854e+01   0.02906025   0.02519348  72.13  0.001240899    1.270    0.212
        16 -15.3869     57.7109    239.5632   2.6844332291e+02  -5.1971531936e+01    0.3199355    0.1718166  14.43   0.01045813    2.192    0.544
        17 -14.9863     60.3960    213.6319   2.6714870329e+02  -5.2450034583e+01    0.2080232    0.1447534  -6.94   0.00778922    1.733    0.423
        18 -15.8970     53.6149    187.6624   2.6559256889e+02  -5.2607008542e+01    0.3677161    0.1581566  28.49   0.01128136    2.203    0.546
        19 -16.0753     38.8118    176.7702   2.6465848940e+02  -5.2274727475e+01    0.4251269    0.2427721 -15.64    0.0135273    2.440    0.590
        20 -15.5765      6.2496    143.2189   2.6214065717e+02  -5.1641087268e+01     0.465085     0.223441  -0.22   0.01325262    2.968    0.663
        21 -13.1445     30.1126    243.0472   2.6792696881e+02  -5.1036526768e+01     0.130461    0.0811296 -18.31  0.004458046    2.136    0.532
        22  99.0000     22.9055    241.7048   2.6768125281e+02  -5.0826200326e+01    0.1203548   0.06839743  -8.72  0.003725358    2.651    0.623
        23 -11.6585     10.4984    250.0065   2.6779900462e+02  -5.0305478924e+01   0.05224641   0.02990061 -49.31  0.001366735    1.718    0.418
        24 -12.5560      9.5636    243.5498   2.6745138717e+02  -5.0371814498e+01   0.07755631   0.06626315   1.00  0.002812368    1.228    0.185
        25 -10.6058      1.3679    250.2468   2.6759116619e+02  -5.0010509596e+01   0.02509075   0.01722583   9.95  0.000919732    1.604    0.377
        26 -12.1097     14.2980    213.6263   2.6603516917e+02  -5.0959610194e+01    0.0710775    0.0427122  14.47  0.002523971    1.805    0.446
        27 -12.4348     40.9746    205.3240   2.6623250605e+02  -5.1943183733e+01   0.07636463   0.06057614  -8.39  0.003132583    1.389    0.280
        28 -11.0797     36.9739    199.4906   2.6582859012e+02  -5.1896845819e+01    0.0397075   0.01930517 -47.39  0.001275445    2.073    0.518
        29 -11.1766     20.3173    197.5766   2.6533877802e+02  -5.1381816625e+01   0.04481556   0.02507828  43.99  0.001541342    1.869    0.465
        30 -11.7681      4.9424    193.6146   2.6478271531e+02  -5.0935537188e+01   0.06694108    0.0402202 -26.14  0.002282155    2.061    0.515
        31 -12.2615    125.4410    194.2736   2.6778359758e+02  -5.4842258741e+01   0.06921212    0.0489538 -57.91  0.002713209    1.383    0.277
        32 -13.7226    113.2287    192.1033   2.6733553370e+02  -5.4480426331e+01    0.1200811    0.1101993 -53.53  0.004028115    1.079    0.074
        33 -12.7504    104.1863    191.9691   2.6709067930e+02  -5.4189537022e+01   0.06959585   0.06603743 -56.42  0.002180505    1.047    0.045
        34 -11.7968      1.7694    175.5041   2.6376440922e+02  -5.1076036466e+01   0.05914283   0.02732845  17.37  0.001832532    2.305    0.566
        35 -12.5550    114.6187    169.1359   2.6607824693e+02  -5.4865263402e+01   0.08359659   0.05669192  19.76  0.002922603    1.510    0.338
        36 -13.9737     93.8355    158.9182   2.6497809731e+02  -5.4329487784e+01    0.1459582    0.1036579   0.09  0.005582026    1.600    0.375
        37 -12.1467    118.1240    155.4984   2.6538727199e+02  -5.5175796134e+01   0.06948895   0.03944233  31.03  0.002449932    1.704    0.413
        38 -12.3191     58.5215    149.0084   2.6359037037e+02  -5.3299414317e+01    0.0547949   0.03281826 -43.41  0.001947711    1.732    0.423
        39 -11.7713     76.9429    133.5462   2.6314039669e+02  -5.4114546251e+01    0.0417312   0.03558322 -67.86 0.0007700424    1.174    0.148
        40 -14.2213     98.0872    133.1237   2.6360676163e+02  -5.4822418419e+01    0.1740057   0.09714415  37.81  0.006074535    1.763    0.433
        41 -14.4790     85.2510    134.1858   2.6336772479e+02  -5.4382156260e+01    0.2043771   0.09225826  42.69  0.006318722    2.296    0.565
        42 -14.7747    171.8057    242.1788   2.7178945658e+02  -5.5540208411e+01    0.2438577    0.1004784 -50.85  0.007397337    2.337    0.572
        43 -10.9658     47.6968    147.2476   2.6324948755e+02  -5.2964226736e+01   0.03341341    0.0213266  71.42 0.0008229374    1.976    0.494
        44 -14.4047    136.6533    133.1581   2.6454981758e+02  -5.6099163181e+01    0.1900289   0.09976853  32.92  0.006315788    1.828    0.453
        45 -14.1775     40.2439    125.2906   2.6186973968e+02  -5.2997460068e+01     0.312201    0.1348548   1.49  0.008019404    3.624    0.724
        46 -13.5883     39.2890     98.1405   2.6032612988e+02  -5.3294572219e+01    0.1679475   0.06356688  32.46  0.004980676    2.410    0.585
        47 -12.5426     30.2775     96.5445   2.6005743417e+02  -5.3009749789e+01   0.07124104   0.05167738 -67.77  0.001957405    1.369    0.269
        48 -12.6146    200.8736    116.3464   2.6521310796e+02  -5.8451987062e+01   0.03335869   0.02607732   3.73  0.001342289    1.380    0.276
        49 -14.2069    161.6931    110.0249   2.6378591153e+02  -5.7244371437e+01    0.1357358   0.08362811  -3.66  0.004662729    2.022    0.505
        50 -14.6044    133.5747     99.3989   2.6244961941e+02  -5.6446589085e+01    0.1978991    0.1373569 -22.90  0.007447714    1.647    0.393
        51 -13.4889     14.9676     77.2894   2.5868463659e+02  -5.2710204870e+01   0.09294982   0.07717265 -61.50  0.002504847    1.191    0.160
        52 -13.3963      4.2794     86.3761   2.5899502136e+02  -5.2248461151e+01    0.1618704   0.07432426 -11.82  0.004336416    3.374    0.704
        53 -12.4549     91.6628    240.3057   2.6937743154e+02  -5.3042086179e+01   0.07244194   0.04243944  25.40  0.002054837    1.727    0.421
        54 -13.6913    214.7797     91.3736   2.6399524763e+02  -5.9257400467e+01   0.06878139   0.05062735 -21.63  0.002678287    1.531    0.347
        55 -13.4390     29.2993     82.2820   2.5923392462e+02  -5.3139786928e+01    0.1346481   0.08545931  24.30  0.003727561    1.535    0.349
        56 -12.0438     84.8587     85.9473   2.6055827702e+02  -5.4975059169e+01   0.04717223    0.0434944 -34.85  0.001903104    1.093    0.085
        57 -13.2229     47.5523     78.7956   2.5938622620e+02  -5.3796784015e+01    0.1138691   0.07367975  75.13  0.004097284    1.834    0.455
        58 -12.5919    108.8942    246.8632   2.7019922987e+02  -5.3483096680e+01   0.02960913    0.0253995  65.04  0.001258121    1.271    0.213
        59 -13.8495    113.5426     75.4578   2.6054450080e+02  -5.6068463733e+01    0.1360626    0.1040889 -31.65  0.004446102    1.382    0.276
        60 -12.6582     91.7158     60.6462   2.5919417916e+02  -5.5499687122e+01   0.05409702   0.03377864 -59.23  0.001993943    1.544    0.352
        61 -13.5660    152.0139    248.3771   2.7152840372e+02  -5.4815276766e+01   0.08013488   0.04450915 -68.35  0.002708766    1.981    0.495
        62 -11.0559      2.8295    236.5214   2.6693620467e+02  -5.0259439268e+01   0.04406064    0.0242114 -42.46  0.001496066    1.928    0.481
        63 -10.9715      8.0412    236.0528   2.6703588566e+02  -5.0433558813e+01   0.02994883   0.02051881 -30.07 0.0007926643    1.645    0.392
        64 -12.2142     58.4172     36.8432   2.5714134088e+02  -5.4618621833e+01   0.05435586   0.04365198  78.02  0.002245749    1.326    0.246
        65 -14.0700    232.7104     67.7097   2.6291421904e+02  -6.0167449124e+01   0.07310108   0.05464444 -49.00  0.002936573    1.329    0.248
        66 -11.3170    237.4891     47.4973   2.6166988814e+02  -6.0583653120e+01   0.03270412   0.01782513 -87.77  0.001030914    2.302    0.566
        67 -14.2692     43.1956    226.6318   2.6740444861e+02  -5.1702293990e+01    0.2671819     0.124993 -31.96  0.007374578    3.178    0.685
        68 -12.9819     24.6987    215.7834   2.6639169035e+02  -5.1265131177e+01    0.1401109   0.07808454 -21.18  0.004353696    2.576    0.612
        69 -12.4846     24.8899    207.4066   2.6595983614e+02  -5.1391566533e+01   0.07296849   0.06924003  48.29  0.002506834    1.076    0.071
        70 -13.0113     86.1183    245.7670   2.6951551373e+02  -5.2779100476e+01    0.1059411   0.04525941 -49.32  0.003250574    2.295    0.564
        71 -13.4608     78.0822    223.7039   2.6813562279e+02  -5.2867272682e+01    0.1180387   0.08068021 -25.38  0.003695093    1.734    0.423
        72 -13.1372     96.5998    217.3762   2.6828291044e+02  -5.3558884310e+01   0.06304243   0.05355615  58.21   0.00233727    1.257    0.205
