#   1 NUMBER                 Running object number                                     
#   2 MAG_AUTO               Kron-like elliptical aperture magnitude                    [mag]
#   3 X_IMAGE                Object position along x                                    [pixel]
#   4 Y_IMAGE                Object position along y                                    [pixel]
#   5 X_WORLD                Barycenter position along world x axis                     [deg]
#   6 Y_WORLD                Barycenter position along world y axis                     [deg]
#   7 A_WORLD                Profile RMS along major axis (world units)                 [deg]
#   8 B_WORLD                Profile RMS along minor axis (world units)                 [deg]
#   9 THETA_WORLD            Position angle (CCW/world-x)                               [deg]
#  10 FWHM_WORLD             FWHM assuming a gaussian core                              [deg]
#  11 ELONGATION             A_IMAGE/B_IMAGE                                           
#  12 ELLIPTICITY            1 - B_IMAGE/A_IMAGE                                       
         1  -8.7077     55.8204      9.9493   3.4461281308e+01   6.6045295394e+01    0.1833411     0.161868 -36.10  0.000595664    1.518    0.341
         2  -7.7062     48.0058     10.0284   3.7628293053e+01   6.7290198297e+01    0.1406321    0.1126424   1.80 0.0003790236    1.107    0.097
         3  -8.1738     90.8207      8.8581   2.2744261315e+01   5.9548253184e+01    0.1563479    0.1445705  82.98 0.0006033828    1.322    0.244
         4  -8.4021     12.7828      8.5941   5.4162131856e+01   7.1865260643e+01    0.1374468   0.09017292  26.69  0.000394973    1.604    0.376
         5  -9.0162     97.3993      5.4532   1.9809743178e+01   5.8464664783e+01     0.273645    0.1808749  24.01  0.001361485    1.648    0.393
         6  -7.9658     70.4766      5.9953   2.7567874977e+01   6.3846299478e+01    0.1471245   0.09791999 -50.80 0.0006738071    2.381    0.580
         7  -8.6415     33.3713      4.8038   4.1717718093e+01   6.9998510069e+01    0.2299324    0.1599833 -46.35  0.001038322    2.269    0.559
         8  -8.4507     79.1888      3.6983   2.3950488608e+01   6.2374759002e+01    0.1881673    0.1555899 -27.37 0.0008494857    1.437    0.304
         9  -7.8960     16.2749      2.6497   4.9443399231e+01   7.2305705332e+01   0.09003702   0.08449575 -10.00  0.000519366    1.636    0.389
        10  -8.0715     62.5213      1.4183   2.8255227051e+01   6.5728881172e+01    0.1179179   0.09497532  30.66 0.0001052168    1.042    0.040
        11  -8.9655    103.9218    246.8347   7.5099444328e+01   8.9119489395e+00    0.3758791    0.2059939 -81.76  0.001745809    2.779    0.640
        12  -9.5985    246.6606    228.4113   4.3655721249e+01  -9.2801721426e+00    0.4768765    0.1996583 -34.23  0.001944223    2.213    0.548
        13 -10.2581    248.8041    242.8746   4.5677838917e+01  -1.1509846393e+01    0.7693164    0.2098345 -38.26  0.003144401    3.530    0.717
        14  -8.7642    248.0285    234.1627   4.4381726956e+01  -1.0248091950e+01    0.2379379    0.1347185 -21.85  0.001000262    1.657    0.397
        15  -9.2723    232.4246    246.6103   4.9174422299e+01  -9.9921753674e+00    0.4741158    0.2406216 -22.75  0.002399789    2.111    0.526
        16  -7.3058     86.5120    250.5121   7.9098372923e+01   1.0749242512e+01    0.1286777    0.1003823  55.85 0.0001414448    1.069    0.064
        17 -10.0517    223.9521    243.9120   5.0290502373e+01  -8.5228437652e+00    0.4412799    0.2290983 -46.45  0.002318263    2.488    0.598
        18  -7.8898    169.3117    247.3177   6.1496096235e+01  -1.2066808047e+00    0.1280284   0.09049368   3.13 0.0006386061    1.643    0.391
        19  -9.4241    147.0040    245.7881   6.5898021303e+01   2.4865040039e+00     0.309716    0.1981504  64.45  0.001282905    2.310    0.567
        20  -8.6425     18.7950    247.0892   9.2117834361e+01   1.9891458287e+01    0.2415566    0.1126983  50.26  0.001404049    1.667    0.400
        21  -9.0765    119.7524    244.8418   7.1525421471e+01   6.8858790048e+00    0.3432964    0.2213922  84.66  0.001706919    2.373    0.579
        22  -8.8655    201.9078    243.0859   5.4341819227e+01  -5.3661570321e+00    0.2522425    0.1714331 -50.79 0.0008821578    1.979    0.495
        23  -8.6991    169.1289    243.2928   6.0945549750e+01  -5.1724503455e-01    0.2312698    0.1735304  54.74 0.0006578723    1.614    0.380
        24  -7.5756     67.5020    244.5179   8.2432865511e+01   1.4543881284e+01    0.1257995    0.1006486  59.63 0.0002043891    1.009    0.009
        25  -8.4951     77.7589    242.9850   8.0174876802e+01   1.3445446082e+01    0.2135333    0.1181012  68.87  0.001057701    2.070    0.517
        26  -8.7443      9.1606    242.3031   9.3637582574e+01   2.1826521166e+01    0.2560296   0.08622694  76.25  0.001079254    3.473    0.712
        27  -8.9918    194.2659    240.0721   5.5368743737e+01  -3.7929726474e+00    0.2966224     0.209958 -62.25  0.001431887    2.315    0.568
        28  -9.1649    183.0913    239.9503   5.7589296034e+01  -2.1020256699e+00    0.4027465    0.2925674  60.92  0.002148626    2.081    0.519
        29  -9.2661    160.0064    240.0741   6.2366895416e+01   1.4452251823e+00    0.3022136    0.2317876 -85.30  0.001331861    2.058    0.514
        30  -8.0655    153.5701    241.8103   6.3967139308e+01   2.1537666500e+00    0.1593869    0.1281077 -72.65 0.0006812901    1.681    0.405
        31  -7.8989     88.3092    242.1410   7.7879512448e+01   1.2114161754e+01    0.1697905    0.1102651 -84.76 0.0005050473    1.800    0.444
        32  -8.3266    240.5768    240.2173   4.6684085781e+01  -1.0149827677e+01    0.1719751     0.103353 -32.23   0.00069476    1.590    0.371
        33  -9.2092    242.3483    236.3391   4.5734344543e+01  -9.8405795190e+00    0.2988284    0.1644034  -4.20  0.001551976    2.244    0.554
        34  -7.9491    145.9860    239.4728   6.5240205548e+01   3.7628706135e+00    0.1814727   0.09621677  53.56 0.0006513589    2.287    0.563
        35  -8.2472    135.5265    238.7323   6.7372125877e+01   5.5545754794e+00    0.1582822    0.1279424 -83.93 0.0009217469    1.578    0.366
        36  -9.4774    230.8037    236.4612   4.7822410165e+01  -8.3726162507e+00    0.3427823    0.2639646 -41.87  0.001702708    1.616    0.381
        37  -8.0915    209.0923    238.1342   5.2162750537e+01  -5.6428018790e+00    0.1511904    0.1434403  11.11 0.0004291051    1.319    0.242
        38  -8.1215    128.8322    238.5591   6.8787310871e+01   6.6447011901e+00    0.1908924    0.1054769  45.78 0.0005482145    1.622    0.384
        39  -9.5409    186.5757    230.7007   5.5420810724e+01  -1.1147628984e+00    0.4031901    0.2978783 -86.26  0.001777296    2.841    0.648
        40  -8.4567     13.7064    237.7636   9.2556945818e+01   2.2276990197e+01     0.180188   0.05797497  44.02 0.0006040275    2.344    0.573
        41  -9.2503    216.7012    235.3551   5.0258517569e+01  -6.2971487945e+00    0.2368404    0.2183088  52.27  0.001120129    1.585    0.369
        42  -9.5416    213.8573    231.7517   5.0204559687e+01  -5.3509964727e+00    0.2858005    0.2552361 -75.16  0.001515961    1.839    0.456
        43  -9.0250    203.3284    234.7930   5.2739402089e+01  -4.2994044812e+00    0.2728209     0.209404 -60.00  0.001076646    1.996    0.499
        44  -9.7536    175.7412    233.2093   5.8046605262e+01   1.5210160466e-01    0.4691241    0.2426503 -56.64  0.002111758    2.802    0.643
        45  -7.8820    170.0258    235.3099   5.9559863145e+01   6.9100719621e-01    0.1794901    0.1536211  29.72 0.0004584542    1.063    0.060
        46  -8.8391    108.7090    234.1206   7.2586191573e+01   1.0650366879e+01    0.3578083    0.2000729  62.34  0.001173915    2.218    0.549
        47  -7.7635    122.8173    234.1970   6.9515902232e+01   8.4266543439e+00    0.2258094    0.1249865  65.25 0.0009375796    2.801    0.643
        48  -8.2217     99.7157    234.1521   7.4551165869e+01   1.2019264802e+01    0.2113319    0.1481906  73.30  0.001153553    1.594    0.373
        49  -8.3676     78.4270    233.7310   7.9113430454e+01   1.5223293509e+01    0.2263261     0.122423 -76.73  0.001116166    2.123    0.529
        50  -8.6704    194.5320    232.3331   5.4079251009e+01  -2.6006453529e+00    0.2050489    0.1250623 -46.15 0.0004914195    1.891    0.471
        51  -8.7490     68.2250    231.9448   8.1121225711e+01   1.7007147690e+01    0.4248352    0.1798154  61.88  0.001716233    2.966    0.663
        52  -8.2327    158.1368    232.1548   6.1586346966e+01   3.1384831092e+00    0.1836525    0.1485242  53.75 0.0006171867    1.361    0.265
        53  -8.7637    140.1825    230.0913   6.5157009469e+01   6.4265104396e+00    0.3789909    0.1743657  50.88  0.001159472    2.487    0.598
        54  -8.0661    132.4917    232.4789   6.7172986471e+01   7.2139099555e+00    0.1358577    0.1160615  45.81 0.0001835659    1.068    0.064
        55  -8.2244     92.3160    231.4563   7.5855116876e+01   1.3677032186e+01     0.289253    0.1491058  65.68  0.001012782    2.601    0.616
        56  -9.1913    236.1125    229.7385   4.5742606687e+01  -8.1083280006e+00    0.4260295    0.1597381 -35.02  0.001920244    2.582    0.613
        57  -8.9819      1.8365    230.5632   9.4411954046e+01   2.4895683478e+01    0.2334566    0.1072815  75.81  0.001031088    1.909    0.476
        58  -8.9174    229.7022    228.4711   4.6690882669e+01  -7.0655801311e+00    0.2246671    0.1414703 -47.68  0.001254643    2.042    0.510
        59  -8.3587     57.3542    228.1340   8.3085427143e+01   1.9250451752e+01    0.2906712    0.1763273 -26.22  0.001185511    4.191    0.761
        60  -8.7737    161.9447    227.5936   6.0073836560e+01   3.3468349743e+00    0.3398041     0.211478  52.43  0.001674341    1.868    0.465
        61  -8.8994    127.8356    227.0133   6.7437272388e+01   9.0276801744e+00    0.3361706    0.2188179  63.41  0.001336081    1.899    0.473
        62  -9.9432    149.5542    225.9753   6.2502109409e+01   5.6740674795e+00    0.6378313    0.3913773 -86.01  0.002406009    4.031    0.752
        63  -8.1873    223.3072    226.7974   4.7589345945e+01  -5.9324443993e+00    0.2174247    0.1424032 -24.05  0.000704885    1.466    0.318
        64  -9.4251    225.3736    221.3220   4.6268734220e+01  -5.3858540363e+00    0.3201144    0.1767251 -29.82 0.0008298764    1.773    0.436
        65  -8.7344    206.0335    225.8430   5.0729524275e+01  -3.2822095165e+00    0.2536216    0.1851204 -49.50 0.0009090611    1.716    0.417
        66  -7.8069    120.3097    227.6554   6.9196366220e+01   1.0113153528e+01    0.1402983   0.09647975  65.50 0.0005020611    1.701    0.412
        67  -8.2024     49.5541    226.5927   8.4606890076e+01   2.0566468954e+01    0.3471233    0.1286031  57.64  0.001412106    2.907    0.656
        68  -8.3345    199.8602    226.0971   5.1989373455e+01  -2.3933920994e+00    0.1773801    0.1688907  13.79 0.0005063322    1.236    0.191
        69  -8.8796    105.0177    223.7020   7.2096615176e+01   1.3343888791e+01    0.3375604    0.2056633  84.33  0.001521181    2.427    0.588
        70  -8.8206     94.2762    224.0648   7.4555183961e+01   1.4921010694e+01    0.3940751    0.1857246  62.86  0.001502742    3.111    0.679
        71  -8.8990    216.3853    223.2495   4.8290242433e+01  -4.3959856216e+00    0.2534741    0.2011343 -54.61 0.0008817976    1.768    0.434
        72  -8.7239    180.2263    224.0320   5.5641997072e+01   1.0258888651e+00     0.221142     0.181056  41.68 0.0006448795    1.261    0.207
        73  -8.0186    113.7888    223.7842   7.0133724188e+01   1.1940777827e+01    0.1874963    0.1450284  64.81 0.0004511331    1.344    0.256
        74  -7.7668     72.6782    224.7196   7.9432046143e+01   1.7922939772e+01    0.1165411    0.1029697 -13.59 0.0003812346    1.587    0.370
        75  -7.8014     38.2875    224.6173   8.6814355629e+01   2.2342905461e+01    0.1352721   0.07343654  67.14 0.0007013598    1.741    0.426
        76  -8.5167    172.9288    222.6253   5.6943266283e+01   2.4552626593e+00    0.2382487    0.1810037 -68.06 0.0007635377    1.878    0.468
        77  -9.4502    239.1377    220.9518   4.3704361983e+01  -7.2256883532e+00     0.317183    0.1970398 -32.16  0.001428417    1.486    0.327
        78  -9.4038    192.3320    221.1224   5.2665447888e+01  -3.9661986561e-01    0.2974274    0.2553599 -72.47  0.001024836    1.703    0.413
        79  -9.1217    160.3732    221.0508   5.9379408343e+01   4.8115659153e+00    0.5257585    0.2369775  53.97  0.001853242    3.592    0.722
        80  -7.5863     27.4974    221.0000   8.8786713952e+01   2.4331853739e+01    0.1575928    0.0837886 -52.99 0.0008081141    2.377    0.579
        81  -8.1477    202.9229    219.9586   5.0341679679e+01  -1.8497658375e+00     0.176017    0.1619338  79.84 0.0005242485    1.595    0.373
        82  -9.1287    120.2887    219.0163   6.8006750233e+01   1.1873965917e+01    0.4684958    0.2434201  62.80  0.001790938    3.037    0.671
        83  -7.8902     72.9980    220.4782   7.8912861968e+01   1.8793275346e+01    0.1876503   0.08528125  54.94 0.0003627415    2.236    0.553
        84  -8.1863    210.1648    218.9654   4.8750034359e+01  -2.7887830267e+00     0.176695    0.1690909  -0.22 0.0004353159    1.254    0.202
        85  -9.2806    133.2677    216.1011   6.4629138776e+01   1.0322647581e+01    0.5857222    0.3363098  74.59  0.002044772    4.022    0.751
        86  -8.7232    249.0917    218.0483   4.1463188949e+01  -8.1093381272e+00    0.2301321    0.1625525  54.85  0.001294421    2.560    0.609
        87  -8.9513     51.7650    217.3627   8.3309897422e+01   2.2294114120e+01    0.2900386    0.1514495  85.07 0.0009108574    2.197    0.545
        88  -8.6121    142.8890    216.2380   6.2477887567e+01   8.6752213448e+00    0.2425846    0.1914499  79.45 0.0009309708    1.651    0.394
        89  -8.3243     82.6091    219.9792   7.6698892384e+01   1.7528953775e+01     0.251023    0.1589359  87.12  0.001252314    1.861    0.463
        90  -8.3713     61.7826    216.9494   8.1050942288e+01   2.1094066428e+01    0.2161084     0.124805  74.41 0.0006554117    1.910    0.476
        91  -8.4548    243.4549    215.5080   4.1997671079e+01  -6.9943671030e+00    0.1216023    0.1001178  -8.45 6.659603e-05    1.036    0.035
        92  -9.0228    232.3178    214.3698   4.3782146665e+01  -5.2920586268e+00    0.2546582    0.2051954 -48.27 0.0008972071    1.600    0.375
        93  -8.0983    154.2911    214.9595   5.9730746723e+01   6.9962462506e+00    0.1806705     0.179167  68.34 0.0009114594    1.134    0.118
        94  -7.9086     42.0062    215.6752   8.5292332416e+01   2.3854436606e+01     0.220295   0.04590212  48.84 0.0007050568    4.317    0.768
        95  -8.4079    185.6680    214.1480   5.2844297086e+01   1.8933957567e+00     0.194776    0.1734691 -70.50 0.0009520077    1.498    0.333
        96  -8.6805     93.2082    213.7665   7.3521823904e+01   1.7298479862e+01    0.3599307    0.1911987  60.82  0.001552157    2.240    0.553
        97  -8.9662     72.4342    211.1997   7.8017376037e+01   2.0921770565e+01    0.4131569    0.1993213  65.71  0.001659607    2.762    0.638
        98  -9.3690    214.0085    211.9319   4.6774702253e+01  -2.2161359991e+00    0.3639425    0.3097761  60.31  0.001587555    1.696    0.410
        99  -7.7271    197.6888    213.6748   5.0299311495e+01   3.4049693636e-02    0.1376952   0.09569059  -2.61  0.000439438    1.659    0.397
       100  -8.5337    161.7816    212.2686   5.7634995320e+01   6.2440830368e+00    0.2157091    0.1923262 -75.92 0.0009401987    1.386    0.279
       101  -7.6971    242.7677    211.9706   4.1496595606e+01  -6.3703164840e+00    0.1537864   0.08994161 -34.01 0.0004814544    1.555    0.357
       102  -7.9357    224.8365    212.3178   4.4794204625e+01  -3.8954133932e+00    0.1711106    0.1457215 -24.92 0.0004989125    1.176    0.150
       103  -9.4753    175.5925    210.0166   5.4255849139e+01   4.3262688910e+00    0.4118358    0.2805556  68.87  0.001695846    2.567    0.610
       104  -7.7770    106.4692    212.5250   7.0277755567e+01   1.5489196048e+01    0.1417096    0.1223939  58.33 0.0001671511    1.071    0.067
       105  -9.0433    204.1681    210.5907   4.8459667444e+01  -4.6327474020e-01     0.266991    0.2060812 -46.85 0.0007764114    1.485    0.327
       106  -8.7060    147.9518    210.3829   6.0402638044e+01   8.9854703667e+00    0.2953932    0.2145162  67.32 0.0009865492    1.811    0.448
       107  -8.7119    116.3004    210.2332   6.7660703824e+01   1.4382810300e+01    0.3380119    0.2029099  71.65 0.0008102932    2.544    0.607
       108  -9.2166    236.7180    208.3823   4.1928464653e+01  -4.9813270083e+00    0.2734281    0.2369835 -73.89  0.001451025    1.944    0.486
       109  -8.1761    192.2163    210.1907   5.0800750006e+01   1.5281866138e+00    0.1709106    0.1612916 -76.92 0.0005765143    1.394    0.282
       110  -8.4127     85.7933    209.6473   7.4727140916e+01   1.9333381262e+01    0.2667579    0.1610843  77.16  0.001215265    2.110    0.526
       111  -8.7064    169.3675    215.9845   5.6607011981e+01   4.2586004700e+00    0.3066408    0.2288964 -81.57   0.00110763    2.185    0.542
       112  -9.3197    246.4685    206.9728   3.9967929183e+01  -6.1140782282e+00    0.2670128    0.1825604 -27.17 0.0006746357    1.277    0.217
       113  -9.3183    250.2012    201.8013   3.8405406855e+01  -5.8315137161e+00    0.4039224    0.1504666 -36.69  0.001823696    2.402    0.584
       114  -8.1600    139.0294    207.9539   6.2039769716e+01   1.1018167616e+01    0.2203178    0.1653905  69.50  0.000652076    1.663    0.399
       115  -8.1184    126.6050    208.3031   6.4968447711e+01   1.3069880841e+01    0.2203342    0.1582283  69.16 0.0006988441    1.707    0.414
       116  -7.8335    156.3999    207.2937   5.7990600888e+01   8.1444897862e+00    0.1833403     0.137529 -63.41 0.0005589445    1.630    0.386
       117  -9.0356     99.4527    206.0573   7.1032326616e+01   1.8031528156e+01    0.3795377    0.2259821  74.26   0.00115128    2.383    0.580
       118  -7.5540     12.3018    206.6867   9.0974588194e+01   2.9003063588e+01    0.1277299   0.07020444  65.63 0.0007019126    1.612    0.380
       119  -9.0259    183.8542    203.8378   5.1410370182e+01   4.0799916438e+00    0.3499611    0.2575507  75.14  0.001234615    2.352    0.575
       120  -8.1986    108.9975    205.0359   6.8619936881e+01   1.6719306221e+01    0.2314925    0.1595531  71.10 0.0007076397    1.742    0.426
       121  -8.1476     56.0392    205.0215   8.1133594841e+01   2.4527312195e+01    0.2258802    0.1327589  68.17 0.0009316191    1.771    0.435
       122  -9.3398    194.7764    203.5318   4.9085762310e+01   2.3004895084e+00    0.3195957    0.2995217 -82.36    0.0013495    1.409    0.290
       123  -9.2373    192.3610    197.1816   4.8419726820e+01   3.8697523829e+00    0.3992712    0.3121705 -76.92  0.001520584    2.002    0.501
       124  -9.6949    163.6349    202.8492   5.5612737649e+01   7.7661755196e+00     0.446825    0.2815741  56.93  0.001039521    2.042    0.510
       125  -8.4839    131.1304    203.9722   6.3230599472e+01   1.3218621621e+01    0.2738225    0.1689638  60.14  0.001055378    2.013    0.503
       126  -9.0763    243.2146    200.7968   3.9420028671e+01  -4.7098802232e+00    0.3045543    0.1766308 -42.25 0.0009196415    1.717    0.418
       127  -8.4308    210.8898    201.5404   4.5505247638e+01   2.8137916296e-02     0.247843    0.1741619 -57.44 0.0009454271    1.956    0.489
       128  -8.7993    140.3709    200.8815   6.0566237346e+01   1.2265238064e+01    0.3788452    0.2432261  70.23  0.001589346    2.445    0.591
       129  -8.2478    221.9424    200.9635   4.3288031956e+01  -1.6042450677e+00    0.1811172    0.1627817 -75.27 0.0005656687    1.647    0.393
       130  -9.3978    113.2855    198.6664   6.6635962984e+01   1.7426490511e+01    0.5483124    0.3068631  70.76  0.002010423    3.135    0.681
       131  -8.3990     80.1336    201.1193   7.4990361551e+01   2.2110007997e+01    0.2839487    0.1475172  57.83  0.001221227    2.122    0.529
       132  -9.2773    237.1716    198.4457   4.0050579560e+01  -3.4710398206e+00    0.3019749    0.1616478 -44.40  0.001010804    1.927    0.481
       133  -9.2717    149.5350    198.4378   5.8028131377e+01   1.1156118133e+01    0.4018416    0.2835777  85.85  0.001509899    2.297    0.565
       134  -8.7559    123.9047    199.0932   6.4154527504e+01   1.5522867400e+01    0.3150354    0.2064768 -74.24  0.001151184    1.968    0.492
       135  -8.6045    177.0383    198.6157   5.1921176497e+01   6.2473334385e+00    0.2452893    0.1976497 -63.58 0.0005474801    1.554    0.357
       136  -8.9664     89.0094    198.4888   7.2497372784e+01   2.1382913931e+01    0.3721139    0.2208848  67.36  0.001645915    2.073    0.518
       137  -8.3020    202.3035    197.4651   4.6449043604e+01   2.1443108620e+00    0.2095897    0.1625776 -60.87 0.0005497786    1.725    0.420
       138  -8.9085     61.1389    196.6453   7.9013182238e+01   2.5805619428e+01    0.4551923    0.2277124  69.58  0.001858295    2.645    0.622
       139  -8.1063     12.5017    197.0098   9.0271014081e+01   3.1152919323e+01    0.1829114   0.07818018  75.53 0.0008103104    2.528    0.604
       140  -9.2991    245.8953    193.7207   3.7667599207e+01  -3.9725114749e+00    0.3092753     0.247321 -74.01  0.001563537    2.262    0.558
       141  -8.6872    216.0514    195.5056   4.3393705936e+01   2.4898044804e-01     0.250014    0.2044757 -66.64 0.0009254289    1.774    0.436
       142  -8.1806    133.0641    195.9728   6.1458311732e+01   1.4607231695e+01    0.2285721    0.1713795  71.41 0.0008012188    1.651    0.394
       143  -8.5958    224.6199    194.0947   4.1518779571e+01  -8.6126139637e-01    0.2921703    0.1426043 -49.57  0.001265404    2.466    0.595
       144  -8.9893    185.0756    194.6950   4.9481798468e+01   5.5958867646e+00     0.257034    0.2254693 -72.62 0.0007453312    1.468    0.319
       145  -8.9481     44.1904    193.4084   8.2714367615e+01   2.8682577458e+01    0.4747779    0.1989307  63.84  0.001809545    3.161    0.684
       146  -8.1640    231.0025    193.9793   4.0329979400e+01  -1.8231180602e+00    0.1792419    0.1609557 -70.82 0.0004951979    1.611    0.379
       147  -8.7949    160.7805    193.8868   5.4653005027e+01   1.0081409651e+01    0.2970392    0.2221449  69.68  0.001113989    1.829    0.453
       148  -8.6700     76.8611    193.7128   7.4826673677e+01   2.4314312511e+01    0.2506772    0.1896171 -84.17 0.0005623195    1.331    0.249
       149  -8.3463    198.9288    191.6831   4.6046108416e+01   3.7667775829e+00     0.230613    0.1758925 -54.92 0.0006616361    1.567    0.362
       150  -8.4093    172.4380    191.6978   5.1650055386e+01   8.4238527220e+00    0.2563229    0.1408233 -52.37 0.0009073293    2.048    0.512
       151  -8.0147    205.1798    191.2451   4.4709697189e+01   2.7876656952e+00    0.1761823    0.1626786 -65.12 0.0008879272    1.369    0.269
       152  -8.0756    179.1553    191.2450   5.0102017072e+01   7.3096480070e+00    0.1834899    0.1691627  81.41 0.0004407337    1.337    0.252
       153  -9.0270    139.3702    190.2437   5.8968666877e+01   1.4730041803e+01    0.3719062    0.2713003  83.60  0.001352827    1.951    0.487
       154 -10.1921     92.6371    188.9185   7.0234640478e+01   2.3051110005e+01     1.027616    0.2514114  45.44  0.002982401    4.154    0.759
       155  -8.1255      6.6843    191.0163   9.1131944616e+01   3.3029984219e+01    0.2066312   0.06941698  79.24 0.0007046518    4.259    0.765
       156  -8.8922    216.6196    187.8690   4.1845442412e+01   1.4935607537e+00    0.2880933    0.2171635 -55.24 0.0009926002    1.642    0.391
       157  -8.3310    148.6508    189.0940   5.6572168924e+01   1.3290844029e+01    0.2275506    0.1847033 -84.99  0.001146095    1.566    0.361
       158  -8.9246    129.2952    188.4600   6.1078464964e+01   1.6937128300e+01    0.3025796    0.2339788  79.07 0.0007772884    1.600    0.375
       159  -8.3483    237.1626    188.1788   3.8149222728e+01  -1.7932797931e+00    0.1958633    0.1529439 -16.06 0.0005731846    1.168    0.144
       160  -8.8525    191.3778    187.0474   4.6713733335e+01   5.9508731397e+00    0.3207815    0.2347005 -73.66   0.00108687    2.185    0.542
       161  -9.2011    156.0923    187.3023   5.4514032501e+01   1.2306728077e+01    0.3386333    0.2446013 -74.07 0.0009146106    1.915    0.478
       162  -9.5000    120.4815    185.7254   6.2768207845e+01   1.9122329882e+01    0.4950795    0.2636509 -69.55  0.001896264    2.605    0.616
       163  -9.1308     54.7007    186.7372   7.9433231434e+01   2.8988102530e+01    0.4726085    0.2336864  67.46   0.00176843    2.619    0.618
       164  -8.5956     34.1342    187.7346   8.4546747347e+01   3.1153293359e+01    0.3007775    0.1580697  72.96  0.001394969    2.086    0.521
       165  -9.2678    249.4477    185.6416   3.5575442028e+01  -3.1913804987e+00    0.3094768    0.1973751 -50.49  0.001056587    1.870    0.465
       166  -8.2519    230.4711    187.1152   3.9138445843e+01  -5.8931925962e-01    0.1949202     0.117598 -40.00 0.0006649945    1.554    0.356
       167  -8.7710    164.7811    186.6485   5.2409276368e+01   1.0843903499e+01    0.2740146    0.2035018 -63.11  0.000791969    1.634    0.388
       168  -9.2386    109.6139    185.9940   6.5519768531e+01   2.0945236684e+01    0.4068741    0.2534359  70.04  0.001182557    2.232    0.552
       169  -8.7100    202.9591    184.6304   4.3886174321e+01   4.3807731710e+00    0.2716791    0.2131663 -75.52  0.001115039    1.950    0.487
       170  -8.7067    197.9672    184.0322   4.4776519474e+01   5.3628850934e+00    0.3895404    0.2719754 -88.92  0.001583851    3.221    0.690
       171  -8.7369    182.9966    184.5845   4.8008242335e+01   7.9297819095e+00    0.2655878    0.2005653 -63.71 0.0008484533    1.692    0.409
       172  -8.8972     66.4838    184.1958   7.6168394799e+01   2.8049981664e+01    0.3661709    0.2056242  68.61  0.001001832    2.196    0.545
       173  -8.4146    224.0648    183.4360   3.9604027345e+01   1.0601266476e+00    0.2031693    0.1614615 -33.57 0.0005482655    1.173    0.147
       174  -8.5639    210.2747    184.1976   4.2360768719e+01   3.2081851115e+00    0.2078536     0.190327  16.69 0.0005563185    1.099    0.090
       175  -8.9127    174.2902    183.5381   4.9696021078e+01   9.7300464627e+00    0.2825222    0.2301068  85.42 0.0007583776    1.711    0.416
       176  -9.2313     44.4249    182.4399   8.1492117959e+01   3.1266430197e+01    0.3267404    0.2021476  67.27 0.0008928896    1.661    0.398
       177  -8.0205      1.7661    183.5508   9.1717632321e+01   3.5140635018e+01    0.1637369   0.09249269  47.56 0.0009436406    1.688    0.408
       178  -7.8635    235.3604    181.2033   3.7145742281e+01  -3.4906686879e-01    0.1821194    0.1110014 -46.04 0.0005210899    1.677    0.404
       179  -9.1988    147.5010    180.4576   5.5242958624e+01   1.5375061756e+01    0.3507901    0.2680014  80.29  0.001183657    1.773    0.436
       180  -9.4012     25.7764    179.0040   8.5727859495e+01   3.4088141432e+01    0.6028764    0.2401655  76.28  0.002105546    3.977    0.749
       181  -8.5646    137.9373    179.3293   5.7331785159e+01   1.7409290789e+01    0.3181896    0.2171118  60.76  0.001115089    1.753    0.429
       182  -9.2706    191.2603    178.1235   4.4999789172e+01   7.6970414200e+00    0.2604807    0.2366345 -57.63 0.0004396656    1.247    0.198
       183  -9.1108     35.8335    176.4369   8.2983995455e+01   3.3674182993e+01    0.5369883    0.2225049  80.07  0.001766249    4.279    0.766
       184  -9.4967    248.8768    176.9683   3.4042933486e+01  -1.7011194826e+00    0.2996008    0.2625585 -64.21  0.001136715    1.543    0.352
       185  -9.2592    250.5073    172.4922   3.2927832005e+01  -1.2095914885e+00    0.2449679    0.1514123 -44.54 0.0005398656    1.550    0.355
       186  -8.7318    205.0505    177.4175   4.2060862842e+01   5.3620463112e+00    0.2597811    0.1896401 -56.24 0.0007139526    1.634    0.388
       187  -7.9144    169.4065    178.2951   4.9761075836e+01   1.1715765677e+01    0.1961873    0.1410007 -58.46 0.0004026597    1.603    0.376
       188  -8.5148    129.2918    177.2434   5.9071814188e+01   1.9480418757e+01    0.2984865    0.2069221  74.92 0.0008315174    2.018    0.504
       189  -8.7365    231.0482    176.4374   3.6990621066e+01   1.1500919365e+00    0.3011031    0.1631472 -46.07  0.001125986    1.854    0.460
       190  -8.5000    217.3339    177.0211   3.9612757256e+01   3.3130845618e+00    0.2202632    0.1940881  78.56 0.0007330424    1.568    0.362
       191  -9.0752    183.1074    175.9322   4.6287774041e+01   9.6321518871e+00    0.2901564    0.2319853 -66.01 0.0005692961    1.552    0.356
       192  -7.8878     97.3445    177.2881   6.7216104518e+01   2.5062955566e+01    0.1443419    0.1165703 -14.32 0.0003672677    1.651    0.394
       193  -8.8108     88.8847    176.6238   6.9308852959e+01   2.6585765312e+01    0.2709374    0.2054102 -83.18 0.0006973219    1.405    0.288
       194  -9.2028     58.4693    174.9734   7.7015958256e+01   3.1360725397e+01    0.5616972     0.255647  66.03  0.001941675    3.566    0.720
       195  -9.0658     55.7951    170.4041   7.7112700381e+01   3.2825563736e+01    0.4189222     0.221971  75.64  0.001677447    2.652    0.623
       196  -8.7705     12.7527    176.0316   8.8605911457e+01   3.5988565653e+01    0.3717233    0.1454163  88.45  0.001511066    2.898    0.655
       197  -9.1955    158.8808    174.7379   5.1462589421e+01   1.4464424634e+01    0.4514964    0.3094552  89.10  0.001330744    2.616    0.618
       198  -9.3894    104.2674    174.5140   6.4953265833e+01   2.4569885178e+01    0.5717307    0.2828559  59.83  0.001911274    3.032    0.670
       199 -10.5614     76.0080    170.9033   7.1814412314e+01   2.9944672094e+01     1.075296    0.4629676 -80.02  0.003176421    4.531    0.779
       200  -8.7614     74.1866    159.9894   7.0586871125e+01   3.2914959735e+01    0.2623562    0.1908337 -14.22 0.0009695481    2.017    0.504
       201  -8.1885    224.3234    174.0797   3.7740943293e+01   2.6657190773e+00      0.19265    0.1556132 -37.82 0.0004836653    1.175    0.149
       202  -9.7177    175.6380    172.1368   4.7150500294e+01   1.1812069153e+01    0.3532795    0.2629743 -48.33  0.001063847    1.380    0.276
       203  -8.3022    143.1032    172.5095   5.4774778045e+01   1.7967895979e+01    0.2419892    0.2060784  83.89 0.0007975007    1.380    0.275
       204  -8.7712    134.7852    171.5427   5.6631348703e+01   1.9763471577e+01    0.2813709    0.2014851 -75.65  0.000747285    1.791    0.442
       205  -9.5227    121.4434    170.4729   5.9792720110e+01   2.2491714849e+01    0.4015226    0.2902966  88.33 0.0009178482    1.850    0.460
       206  -9.1758     45.4379    171.0201   7.9909466224e+01   3.3925744555e+01    0.3932446    0.2143872  70.83  0.001466186    2.225    0.551
       207  -9.0832    230.6940    169.9897   3.5795309816e+01   2.3324157464e+00    0.2594489    0.2047302 -42.42 0.0007758006    1.235    0.190
       208  -8.3115    205.9449    170.0144   4.0407788491e+01   6.5979999486e+00    0.2122712    0.1731456 -76.90  0.000604255    1.712    0.416
       209  -8.3095    198.1515    169.8915   4.1935683487e+01   8.0386022030e+00    0.2074529    0.1928558 -81.97 0.0006194937    1.300    0.231
       210  -8.4375    149.8861    169.3439   5.2512686088e+01   1.7372286671e+01    0.2632193    0.2116076 -89.44 0.0009212081    1.594    0.373
       211  -8.3978    244.3123    168.9879   3.3271625174e+01   3.2089415616e-01    0.1883442    0.1453951 -36.80 0.0006724437    1.159    0.138
       212  -8.5863    237.1619    169.1821   3.4513353967e+01   1.4200929687e+00    0.2015021    0.1606505 -20.69 0.0007412221    1.167    0.143
       213  -9.1331    166.7930    168.3332   4.8358922275e+01   1.4310849959e+01    0.3159811    0.2416698  76.84  0.001043382    1.815    0.449
       214  -8.1193     88.6717    168.5360   6.8053090499e+01   2.8592209153e+01    0.2547753    0.1743982  89.16 0.0009391123    1.790    0.441
       215  -8.5861    218.7983    168.1729   3.7586233668e+01   4.6693459856e+00    0.1996593     0.180644 -53.71 0.0005881779    1.244    0.196
       216  -8.0446    211.4710    167.9980   3.8930924529e+01   5.9888095756e+00    0.2129162    0.1293888 -44.14 0.0009401495    1.590    0.371
       217  -8.7004    111.6066    167.1478   6.1721359882e+01   2.5056912412e+01    0.3392879    0.2447985  87.25 0.0009777661    1.794    0.443
       218  -8.8406    191.8858    166.5820   4.2543950155e+01   9.8544191689e+00    0.2694968    0.2029569 -50.21 0.0006014858    1.383    0.277
       219  -8.6847    185.0393    166.4595   4.3956635954e+01   1.1178764650e+01     0.272848    0.1995855 -61.08 0.0006641436    1.645    0.392
       220  -9.1830     20.8698    166.4767   8.5740116737e+01   3.7557761717e+01    0.3060441    0.1546516  54.38   0.00116447    2.048    0.512
       221  -7.8639     13.3310    167.6449   8.7743246343e+01   3.7930528593e+01     0.137456   0.07787403  67.02 0.0005154436    1.785    0.440
       222  -9.4912    137.6741    164.7748   5.4582155705e+01   2.0762549579e+01    0.7110256    0.2904805  54.39  0.002100738    3.801    0.737
       223  -9.9155     94.8703    162.2600   6.5298430707e+01   2.9126145304e+01    0.9180172    0.5539144  84.52  0.003472228    2.720    0.632
       224  -8.0678    233.8423    164.8110   3.4225574535e+01   2.7208925865e+00    0.1762193    0.1484734 -53.36 0.0004425218    1.328    0.247
       225  -9.4662     34.0406    163.3992   8.1994850173e+01   3.7040366538e+01      0.59263    0.2095889  53.56  0.002118991    3.619    0.724
       226  -8.1551    240.0351    164.0058   3.3014712987e+01   1.8485072181e+00    0.1953807     0.155614 -65.39 0.0005924327    1.668    0.400
       227  -8.6285    212.8187    163.4659   3.7756055137e+01   6.5951281583e+00    0.2486641    0.1820197 -39.61 0.0004096253    1.283    0.221
       228  -8.6353    159.4982    163.9785   4.9146442810e+01   1.6675270017e+01    0.2759166    0.2117288  62.82 0.0007500017    1.532    0.347
       229  -9.1591    246.1425    162.8702   3.1786208355e+01   1.0673830430e+00     0.189317     0.159546 -44.49 0.0004813636    1.204    0.169
       230  -8.5515    204.8828    162.6772   3.9122041494e+01   8.1902769713e+00    0.2686956    0.1964335 -48.99 0.0007135393    1.398    0.285
       231  -8.7633     65.8719    163.4655   7.3419337081e+01   3.3222156766e+01    0.2041779     0.138099  34.76 0.0005192022    1.532    0.347
       232  -9.2348      3.5935    162.2482   8.9695565039e+01   3.9972768741e+01    0.4046686    0.1787717  57.48  0.001776534    2.413    0.586
       233  -9.2406    177.3916    160.3786   4.4342711906e+01   1.3912254420e+01    0.3456131    0.2525531 -66.28 0.0007806031    1.732    0.423
       234  -8.6803    151.8253    160.5924   5.0261140691e+01   1.8937899473e+01     0.294808    0.2033904 -69.39 0.0007948495    1.888    0.470
       235  -9.0804    127.4077    159.5343   5.6130780655e+01   2.3948459688e+01    0.3691384    0.2778052 -27.98  0.001089616    1.612    0.380
       236  -8.7703    227.5451    159.0802   3.4178420692e+01   4.8029201988e+00    0.2916467    0.2048157 -59.32  0.001139218    1.772    0.436
       237  -8.6493     60.5152    159.7134   7.4327926952e+01   3.4872717295e+01    0.2941754     0.172391  73.96   0.00119288    2.256    0.557
       238 -10.1355    249.6851    157.2355   3.0123096246e+01   1.4597722475e+00    0.3784146    0.2944209 -67.39  0.001359929    1.748    0.428
       239  -7.5337    242.3153    159.7278   3.1796761291e+01   2.2153214764e+00     0.119664    0.1010825 -70.78 0.0002006094    1.559    0.358
       240  -8.6940    237.0187    158.5242   3.2438564997e+01   3.2942182727e+00    0.2162226    0.1586573 -37.52 0.0004543761    1.209    0.173
       241  -9.4478    105.6791    157.6658   6.1513455323e+01   2.8397944983e+01    0.4679464     0.318689  84.19  0.001251797    2.069    0.517
       242  -8.5035    196.4700    157.7853   3.9778675880e+01   1.0725694775e+01    0.2584694    0.2238963 -84.42  0.001079474    1.450    0.310
       243  -8.5698    187.9389    157.5959   4.1494819798e+01   1.2414455805e+01    0.2912428    0.1878987 -59.36 0.0008717234    1.904    0.475
       244  -9.2239    167.4776    157.1239   4.5867255686e+01   1.6570978094e+01    0.3583966      0.27504 -88.74 0.0008776881    1.838    0.456
       245  -8.4949    217.9765    156.4179   3.5353309461e+01   6.9795729433e+00    0.2693735    0.1767308 -54.34 0.0008107892    1.712    0.416
       246  -9.5126     81.6168    155.1109   6.7688331926e+01   3.3016917200e+01    0.4996455      0.41554  77.51  0.001709243    1.262    0.207
       247  -9.0142    157.5141    155.8867   4.7913622777e+01   1.8842801913e+01    0.2907704    0.2393484  83.22 0.0008548314    1.511    0.338
       248  -9.1883    119.5699    155.0473   5.7271022958e+01   2.6494901115e+01    0.3973471    0.2717705  86.11  0.001276862    2.192    0.544
       249  -9.1500     49.9111    155.1810   7.6613885548e+01   3.7325360075e+01    0.4222385    0.2119763  59.50  0.001727236    2.539    0.606
       250  -9.3619    242.9585    154.7338   3.0706889077e+01   2.9700481063e+00     0.176722    0.1574286 -28.56  0.000367548    1.032    0.031
       251  -8.0880    204.5639    155.1122   3.7612972303e+01   9.7068552989e+00    0.2171194    0.1330674 -43.30  0.001009618    1.554    0.357
       252  -8.7406    144.3123    154.5899   5.0829103348e+01   2.1784422685e+01    0.2817202    0.2221738  81.47 0.0008999481    1.615    0.381
       253  -9.5361     68.0031    153.4813   7.1252726576e+01   3.5420364079e+01    0.4580703    0.2553849  66.49  0.001379393    2.543    0.607
       254  -9.5549    132.7229    152.7501   5.3360981321e+01   2.4506194022e+01    0.4955941    0.3245667  68.50  0.001178087    2.173    0.540
       255  -9.3253    133.5886    148.1873   5.2163345264e+01   2.5396304895e+01    0.4124433    0.2291595 -41.24  0.001641325    1.942    0.485
       256  -8.2051    151.6394    151.8715   4.8454502788e+01   2.0920960011e+01    0.2575802    0.1939734 -64.82  0.001191582    1.520    0.342
       257 -10.4173    148.8382    145.0104   4.7631503359e+01   2.3030619821e+01    0.6409076     0.430024 -86.96  0.001729896    2.584    0.613
       258  -9.5540     29.6369    150.7086   8.1671724688e+01   4.0599089518e+01    0.4476967    0.2104538  67.68   0.00177204    3.035    0.670
       259  -8.6212     20.2412    152.4456   8.4447186257e+01   4.1019830279e+01    0.1697072    0.1097438  45.71 0.0007298723    1.617    0.382
       260  -8.8946    189.5553    150.0532   3.9546763548e+01   1.3622827268e+01    0.3124175    0.2324937 -68.69 0.0008175526    1.727    0.421
       261  -8.0382    182.6643    151.1102   4.1223678729e+01   1.4784921978e+01    0.2362816    0.1824299 -65.66  0.000938874    1.544    0.352
       262  -8.1686    162.4947    150.5030   4.5585336148e+01   1.9010289545e+01      0.25566    0.1460883 -57.59 0.0007066922    2.060    0.515
       263  -8.5797     98.4861    150.6605   6.2133722778e+01   3.1365026252e+01    0.3202359    0.2242043  83.29 0.0009185614    1.912    0.477
       264  -9.3398    248.8454    149.1527   2.8671464143e+01   2.9636923678e+00     0.289358    0.1724253 -41.77 0.0007432894    1.456    0.313
       265  -8.6714    243.1548    149.7408   2.9684314682e+01   3.7998008683e+00    0.2404975    0.1560368 -46.39  0.001042324    1.437    0.304
       266  -8.2115    212.9564    149.5369   3.4848543222e+01   9.1922061637e+00    0.2153812     0.173183 -41.04 0.0005402138    1.162    0.139
       267  -8.6267      2.6440    149.7847   8.8866081567e+01   4.3000936512e+01    0.1817068   0.09639531 -88.12 0.0005164081    1.713    0.416
       268  -8.4545    198.9049    148.9166   3.7409548499e+01   1.2004491511e+01    0.2206634    0.1770439 -80.14 0.0005818548    1.647    0.393
       269  -9.8515     89.3996    146.2789   6.3848126094e+01   3.3973014359e+01    0.7000516    0.4035366  88.47  0.002386081    3.357    0.702
       270  -9.8363     39.8551    147.8094   7.8415863854e+01   4.0291185087e+01    0.5142862    0.2821245  72.68  0.001859743    2.430    0.589
       271  -9.3587    233.6075    147.6307   3.0819099732e+01   5.7993649298e+00       0.2588    0.1478654 -42.05 0.0006374588    1.565    0.361
       272 -10.4259     55.0468    144.6379   7.3544506235e+01   3.9339137134e+01     0.839725    0.4117894  68.51  0.002822823    3.852    0.740
       273  -9.7956     55.5301    135.4838   7.1867790830e+01   4.1565306633e+01    0.5427245     0.293183 -14.57  0.001799106    4.354    0.770
       274  -8.2680    223.1681    146.8107   3.2436905670e+01   7.8115314312e+00    0.1945243    0.1775556 -57.01 0.0003267087    1.165    0.141
       275  -9.7888    139.1131    144.9775   5.0049045628e+01   2.5027135641e+01    0.4624083    0.3136907 -80.43  0.001230475    2.249    0.555
       276 -10.2776    106.7639    144.4669   5.8572163694e+01   3.1412630654e+01    0.7656174    0.4519071  73.58  0.002307407    3.238    0.691
       277  -8.5911     78.0993    146.7334   6.7186181307e+01   3.5641504785e+01    0.2542976    0.1952462 -81.06 0.0007041646    1.390    0.280
       278  -9.0202     13.4331    145.9888   8.5601624428e+01   4.3140731445e+01     0.322237    0.1767873  73.64  0.001336964    2.052    0.513
       279  -7.9726    206.4910    146.4603   3.5411440960e+01   1.1009323629e+01    0.1418668    0.1338491 -39.84 -2.03333e-05    1.035    0.034
       280  -8.1854    175.4806    145.5863   4.1570734265e+01   1.7395801766e+01    0.2640966    0.1405969 -55.75 0.0008763348    2.221    0.550
       281  -8.6651    240.3891    145.1983   2.9217562256e+01   5.0563959308e+00     0.206709    0.1171336 -40.88 0.0005392032    1.547    0.354
       282  -8.4632    242.9951    142.9858   2.8358916002e+01   4.9972042697e+00     0.165354    0.1354279 -37.53 0.0007663776    1.062    0.058
       283  -9.7247    125.0019    142.5384   5.3181551322e+01   2.8417097374e+01    0.5435928    0.3645993 -84.97  0.001585257    2.343    0.573
       284  -8.9845    247.0960    143.6597   2.7854890864e+01   4.1902198147e+00    0.2439736    0.1630843 -35.61 0.0004557783    1.316    0.240
       285  -8.9267    165.4566    143.8031   4.3422338571e+01   1.9850605057e+01    0.2833874     0.235676  84.20 0.0006474698    1.468    0.319
       286  -7.5733    194.2979    143.6770   3.7194875004e+01   1.3956094609e+01    0.1456938    0.1160842 -79.20 0.0004136328    1.624    0.384
       287 -10.4794     69.7516    140.8774   6.8559577479e+01   3.8326910213e+01    0.5394401    0.3596136  80.59  0.001998266    1.976    0.494
       288  -9.6177     69.2668    134.3692   6.7489047282e+01   4.0016159696e+01    0.5029349    0.2827923   3.34  0.001755598    3.628    0.724
       289  -8.5138    181.9838    141.4826   3.9255212472e+01   1.6909556778e+01    0.2826189    0.2033781 -60.43 0.0007246839    1.581    0.368
       290  -8.9175      2.8574    141.7535   8.8060450292e+01   4.4903882277e+01    0.2418893    0.1289619  75.18 0.0007648831    2.042    0.510
       291  -7.8051    250.5068    140.5279   2.6714098151e+01   4.1579420897e+00    0.1301293    0.1112297 -40.01 -2.850556e-05    1.034    0.033
       292  -9.5784     23.5072    137.9032   8.1803950016e+01   4.4301122913e+01    0.5032958    0.2343166  63.39  0.002036573    3.072    0.674
       293  -8.6836     12.7735    140.1184   8.5144333148e+01   4.4612960419e+01    0.1847447     0.151998  83.75  0.000504145    1.151    0.131
       294  -8.7570    172.3507    137.9811   4.0557160166e+01   1.9649309254e+01    0.3172607    0.2360847 -75.56 0.0008455207    1.781    0.438
       295  -7.7401    218.5214    138.4957   3.1508734353e+01   1.0214284483e+01    0.1401654    0.1278296 -48.40 0.0008094161    1.066    0.062
       296  -8.0816    207.4740    137.5279   3.3303780379e+01   1.2536269259e+01     0.243201    0.1270909 -51.44 0.0007380449    2.027    0.507
       297  -8.6645    197.5799    137.3575   3.5156430192e+01   1.4548088649e+01    0.2820583    0.2042318 -65.33  0.001034353    1.684    0.406
       298  -8.7404    149.7975    136.3010   4.5425002793e+01   2.4777746115e+01    0.4120976    0.2707241   5.17  0.001480964    2.914    0.657
       299 -10.3946     83.3947    133.2406   6.2997751464e+01   3.8164874750e+01    0.6047617    0.3798882 -64.21  0.001522422    1.647    0.393
       300  -9.2743     39.2865    136.1057   7.6880649234e+01   4.3258759117e+01    0.2778066       0.2075  67.64 0.0007735435    1.469    0.319
       301  -8.9963    248.5272    134.8636   2.5883428549e+01   5.4556303527e+00    0.2877014    0.1464559 -44.31  0.000799467    1.710    0.415
       302  -7.3188    192.3137    136.6539   3.6044683636e+01   1.5762095127e+01    0.1513618    0.1163916 -78.97 0.0004459808    1.715    0.417
       303  -8.4565    162.3482    136.0640   4.2383863342e+01   2.2173888106e+01    0.2228184    0.1896649 -50.41 0.0005547446    1.174    0.148
       304  -8.1140     95.6451    135.1235   5.9769307263e+01   3.5662448450e+01    0.2386677    0.1891235 -81.58  0.000753861    1.442    0.307
       305  -8.6769    179.2199    133.6701   3.8082160572e+01   1.9099410763e+01    0.3112777    0.2265475 -70.85 0.0008847005    1.766    0.434
       306  -7.9688    231.4681    133.5796   2.8280007452e+01   8.6946836983e+00    0.1347176    0.1213356 -43.09 6.693944e-05    1.023    0.022
       307 -10.2517    132.2525    131.0247   4.8645656323e+01   2.9632368044e+01    0.6015244    0.4024556 -85.34  0.001503246    2.496    0.599
       308  -9.0115    112.6992    132.9382   5.4403343160e+01   3.3077244503e+01    0.3263316    0.2361589  65.31  0.000845257    1.680    0.405
       309  -9.1810    143.1318    131.4349   4.5945144307e+01   2.7269374775e+01    0.3413458       0.2536 -80.69 0.0007810204    1.806    0.446
       310  -8.6023    250.7874    129.8335   2.4546279145e+01   5.9274760012e+00    0.3733891   0.09394798 -38.70  0.001242658    3.628    0.724
       311  -9.6186     13.2867    129.3526   8.3732985879e+01   4.7181376442e+01    0.4891525    0.2382605  62.09  0.001869682    2.726    0.633
       312  -8.2489    246.9557    129.9406   2.5129127209e+01   6.5682034102e+00    0.2008797    0.1433695 -62.28 0.0005044527    1.603    0.376
       313  -7.9917    204.5282    130.0118   3.2205677083e+01   1.4570055982e+01    0.2197098    0.1341646 -45.21 0.0006602987    1.546    0.353
       314  -8.2426    192.8572    130.0971   3.4465760900e+01   1.6955718136e+01    0.2254277    0.1936156 -69.73 0.0005536379    1.268    0.211
       315  -9.1818    168.3575    129.4186   3.9473811632e+01   2.2306649985e+01    0.3122053    0.2463444 -76.75 0.0007039605    1.551    0.355
       316  -9.4509    152.8454    128.7063   4.2909777019e+01   2.5803252209e+01    0.4636578    0.2922567 -62.43  0.001143653    1.963    0.490
       317 -10.1749     99.2022    127.3679   5.7019385845e+01   3.6910778832e+01     0.710139    0.4438168 -78.45  0.002462864    2.453    0.592
       318  -9.7132     73.2273    129.2265   6.5265051437e+01   4.0715280038e+01    0.3481226    0.2486013 -84.92 0.0008889069    1.706    0.414
       319  -7.5815    220.6762    129.7043   2.9259960793e+01   1.1429715969e+01     0.136374     0.108576  -0.72 0.0007021052    1.621    0.383
       320  -8.0714    211.5034    128.9720   3.0704042044e+01   1.3365428246e+01     0.221173    0.1303639 -45.74  0.001013672    1.589    0.371
       321  -7.9336    186.4701    129.4962   3.5614203833e+01   1.8417444014e+01    0.1487892    0.1420801 -62.31 0.0001549989    1.042    0.040
       322  -8.7815     50.3387    128.6686   7.2270321156e+01   4.3883472431e+01    0.2571168    0.1640643  60.45 0.0008316339    1.932    0.482
       323 -10.6098     44.5870    123.3428   7.3141113739e+01   4.5846746174e+01     1.041243    0.5382308  83.27  0.003592252    3.928    0.745
       324  -8.2068     26.1758    129.5858   7.9884903922e+01   4.6110438628e+01    0.1733909    0.1257286  -5.33 0.0009570252    1.767    0.434
       325  -7.8172      1.3695    129.7170   8.7261944446e+01   4.7866276448e+01    0.1248351     0.080473  63.50 0.0007016183    1.697    0.411
       326 -10.4586     60.5124    125.2379   6.8436625755e+01   4.3468307439e+01    0.6995204    0.4087586  76.65  0.002614549    2.989    0.665
       327  -9.3088     34.9128    128.0434   7.6969591219e+01   4.5688466574e+01    0.2773763     0.215758  77.31 0.0004460377    1.399    0.285
       328 -10.3955     28.7027    122.4972   7.8047671036e+01   4.7620691083e+01    0.6435226    0.3340649  71.29  0.002607379    3.091    0.676
       329 -10.0422    117.9469    125.0463   5.1102898354e+01   3.3909533570e+01    0.6302227    0.4351018  78.47  0.001642893    2.203    0.546
       330  -8.9323    179.4110    124.6654   3.5961951312e+01   2.0905205608e+01    0.3345152    0.2476322  84.12 0.0009884737    1.838    0.456
       331  -7.9329    188.5760    123.7523   3.3869862498e+01   1.9119531343e+01    0.2089824    0.1356144 -53.47 0.0005383141    1.597    0.374
       332  -8.6157     84.0275    122.5754   6.0516290944e+01   4.0663485305e+01    0.2711875    0.2302357 -13.53   0.00093471    1.355    0.262
       333  -7.9071    203.1587    122.1452   3.0704883153e+01   1.6359488063e+01    0.1987263    0.1638299 -68.23 0.0004154856    1.315    0.239
       334  -7.8913    194.8510    121.8264   3.2196138346e+01   1.8163580926e+01    0.2045406    0.1667277 -68.19 0.0004971634    1.343    0.256
       335  -8.5710    171.9389    121.3193   3.6770926060e+01   2.3216407655e+01    0.2501406    0.2042164 -59.10 0.0004637912    1.269    0.212
       336  -9.2935    158.5358    120.6719   3.9633480167e+01   2.6295425323e+01    0.5346148    0.2946969 -48.67  0.001572542    1.836    0.455
       337  -9.6416     71.2613    119.8892   6.3929329465e+01   4.3286101006e+01    0.3232785    0.2511027  82.19  0.001356073    1.590    0.371
       338  -9.9249    141.5697    118.0004   4.3095881017e+01   3.0577484610e+01     0.588917    0.3156132 -56.80  0.001817499    2.203    0.546
       339  -9.8301    131.2007    118.6482   4.5940725948e+01   3.2651201760e+01    0.5545184    0.3664526  80.09   0.00160591    2.586    0.613
       340  -8.5945     14.7983    119.7883   8.2026954524e+01   4.9378208128e+01    0.2325314   0.09389429 -39.66 0.0009626327    2.862    0.651
       341  -9.6248      2.9506    117.0420   8.5356593875e+01   5.0781949973e+01    0.4955357    0.2392817  77.40  0.002206598    2.821    0.646
       342 -10.0587    109.2979    113.9798   5.0866024519e+01   3.8160952868e+01    0.5392799    0.3526084 -75.82  0.001929439    2.329    0.571
       343  -8.0864    185.6106    115.7751   3.2603008583e+01   2.1338491471e+01    0.2123561    0.1335873 -53.21 0.0003715619    1.647    0.393
       344  -8.0194    250.1700    114.7897   2.1616959866e+01   8.5765042451e+00    0.1713281    0.1501241 -11.25  0.001071673    1.364    0.267
       345  -8.3196    193.0072    114.9947   3.0974539251e+01   1.9883914497e+01    0.2274931    0.1720847 -73.71 0.0005184344    1.587    0.370
       346 -10.0561     92.8103    112.7468   5.5505985111e+01   4.1508018631e+01    0.5104662     0.346223 -71.95  0.001214763    1.893    0.472
       347  -8.7305     93.3416    104.8070   5.3352476175e+01   4.3237185726e+01    0.5746902    0.3389567 -11.65  0.001835003    3.988    0.749
       348  -9.8882     79.1650    112.4756   5.9734948274e+01   4.3857648365e+01    0.5354589    0.3658226  81.20  0.001828859    2.306    0.566
       349  -8.8477     59.5398    114.7686   6.6628985399e+01   4.6146003989e+01    0.3421323    0.2019161   2.65  0.001394487    2.697    0.629
       350  -8.1120    167.3969    114.2048   3.6049069071e+01   2.5679952231e+01     0.213416        0.141 -54.10 0.0004365919    1.592    0.372
       351 -10.0928    121.9801    112.0740   4.6785478802e+01   3.6042177258e+01    0.4235789    0.2691971 -48.98 0.0006179666    1.588    0.370
       352  -8.5758    174.8748    112.0515   3.3914210174e+01   2.4447743877e+01    0.2388729    0.1985795 -73.14 0.0006109525    1.323    0.244
       353  -8.7222    159.1329    111.6803   3.7284682369e+01   2.8044748057e+01    0.2672558    0.2026129 -56.09 0.0006188463    1.374    0.272
       354  -9.9746    133.4358    109.1323   4.2947181039e+01   3.4261208220e+01    0.6287035    0.3234307 -48.96  0.001947659    1.996    0.499
       355  -9.5116     14.4818    111.2334   8.0908011751e+01   5.1442074337e+01    0.3447728    0.1886334  69.66  0.001382186    2.605    0.616
       356  -9.9699     66.4292    110.3079   6.3382846762e+01   4.6278796427e+01     0.389681     0.293028  86.37  0.001436467    1.750    0.428
       357  -9.9933    248.6093    107.7101   2.0399947526e+01   1.0042267938e+01    0.3671336     0.256958 -51.01  0.001547044    1.255    0.203
       358  -9.9868    249.4194    102.4572   1.9229361614e+01   1.0766210929e+01    0.4718201    0.1885427 -35.03  0.001943069    2.586    0.613
       359  -7.6496    231.5371    117.4773   2.4890524098e+01   1.1549243807e+01    0.1375858    0.1194982 -54.95 0.0008080465    1.072    0.067
       360  -7.9225    189.4570    107.9843   3.0008567497e+01   2.2006042657e+01    0.2240973    0.1394275 -44.85  0.000571574    1.548    0.354
       361 -10.7519     22.6880    102.5063   7.6730506110e+01   5.2903939089e+01    0.6266568    0.3649248  70.63  0.001992282    2.626    0.619
       362  -9.3848    139.8875    104.4441   4.0072247109e+01   3.3844455779e+01     0.359682     0.277168 -83.21 0.0008586323    1.681    0.405
       363  -8.9746     78.6006    104.7414   5.8053675812e+01   4.5753090416e+01    0.3564878    0.2092969  12.67  0.001396807    2.613    0.617
       364 -10.4572     45.7153    102.0995   6.8616202330e+01   5.0829452705e+01    0.7432236    0.4245165  68.73  0.002888358    3.398    0.706
       365  -8.6588    166.4920    103.8457   3.3681308741e+01   2.7968287963e+01    0.2861424    0.2278198 -83.00   0.00084739    1.489    0.328
       366  -9.4597    150.5225    102.8608   3.7056308845e+01   3.1790641868e+01    0.4327489    0.2710792 -61.83  0.001141252    2.004    0.501
       367 -10.1627    128.4453    101.7365   4.2332447468e+01   3.6916135460e+01    0.3809586    0.3037558 -72.42  0.001142927    1.496    0.332
       368 -10.9092    108.7793     98.6451   4.7030337942e+01   4.1669869874e+01     0.902775    0.4854767  63.75  0.001110621    3.438    0.709
       369  -9.3296    107.2003     92.7600   4.5883826198e+01   4.3235785543e+01    0.6262985    0.3379591  22.71  0.002160069    3.125    0.680
       370  -8.5906      6.8700    102.7792   8.2185627661e+01   5.3905120911e+01    0.2317311     0.141025  79.05 0.0008769577    2.055    0.513
       371  -8.0438    175.5382    102.0079   3.1317097902e+01   2.6271879929e+01    0.2245827    0.1439859 -45.07 0.0004200736    1.535    0.349
       372  -8.5604    159.8136    100.8984   3.4406942315e+01   3.0073676530e+01    0.2809569    0.2023119 -63.78  0.000689027    1.601    0.375
       373  -9.2492     82.1416     99.9664   5.5687326207e+01   4.6265361913e+01     0.376906    0.2562926 -72.88  0.001055337    1.996    0.499
       374 -10.3201     64.1078     96.1274   6.0799950688e+01   4.9897096631e+01    0.5953857    0.3973511 -82.11  0.001761692    2.312    0.568
       375  -8.4297    150.8355     95.8479   3.5150944488e+01   3.3124611255e+01    0.3687773    0.2180079 -15.34  0.001204642    3.630    0.725
       376  -9.2937     94.9845     96.6579   5.0690693697e+01   4.4749886799e+01    0.3163807    0.2361702 -59.76 0.0006368487    1.478    0.323
       377  -8.0428      7.4940     97.4706   8.1167541796e+01   5.5097068822e+01    0.1253004    0.1012328 -55.43 0.0001086326    1.031    0.030
       378  -7.9906    164.7230     94.0114   3.1563568734e+01   3.0285406352e+01    0.2119725    0.1883827 -50.68 0.0004571562    1.125    0.111
       379  -9.3655    120.2657     93.2477   4.2260366893e+01   4.0437195950e+01    0.3114246    0.2492152 -26.98  0.001533184    1.382    0.277
       380  -9.8352    124.6282     90.7785   4.0378288975e+01   4.0002739489e+01    0.3998681     0.312748 -78.59 0.0009122035    1.651    0.394
       381  -7.5770    188.6891     93.3529   2.6645559756e+01   2.4911101936e+01    0.1549704    0.1093631 -73.76 0.0007044554    1.725    0.420
       382  -8.2581    176.1873     92.7130   2.8872325105e+01   2.7884312000e+01    0.2607377    0.1884601 -54.48 0.0006964837    1.407    0.290
       383  -9.1735    139.0226     92.1590   3.7016634377e+01   3.6538174999e+01      0.34844    0.2578382 -78.54 0.0006626045    1.814    0.449
       384  -9.3424      5.1181     91.7536   8.1097314149e+01   5.6534053537e+01    0.2849863    0.1815869  66.56   0.00118605    2.108    0.526
       385  -9.0927     47.4843     91.7684   6.5650738693e+01   5.3007964103e+01    0.3705725    0.1584679  20.15  0.001468462    2.918    0.657
       386  -9.6275     34.9016     90.0358   6.9871848352e+01   5.4726539399e+01     0.425111    0.2665024  87.95  0.001527686    2.605    0.616
       387  -8.2567    157.6310     91.2662   3.2395121880e+01   3.2449067556e+01    0.2056499    0.1442432 -33.15 0.0005967317    1.569    0.363
       388  -9.1053     23.1790     89.8401   7.4171808609e+01   5.5788703451e+01    0.3023397    0.2273387  -9.49  0.001187033    1.458    0.314
       389  -8.0538    150.9857     88.9962   3.3294384086e+01   3.4418653723e+01    0.2347449    0.1805147 -77.60 0.0004725041    1.594    0.373
       390 -10.3264     86.2465     85.8226   5.0495012994e+01   4.8639981981e+01    0.6112496    0.4703441 -74.10  0.001798982    1.748    0.428
       391  -8.7247     65.9595     86.8844   5.7749183761e+01   5.1682747926e+01    0.3417159    0.1871407   6.66  0.001244557    3.348    0.701
       392  -7.7714    164.2429     86.6625   2.9761008706e+01   3.1774392949e+01     0.149154    0.1117531 -70.52 0.0002287101    1.553    0.356
       393  -9.8630     48.5773     84.2262   6.3388943938e+01   5.4557842442e+01    0.4894535    0.3298001  71.57  0.001929075    2.597    0.615
       394  -8.3525    158.0671     83.6927   3.0294306051e+01   3.3762538745e+01    0.2495086    0.1973452 -55.52 0.0004923018    1.308    0.235
       395  -9.7217    104.7686     83.0017   4.3831731793e+01   4.5718587883e+01    0.3773356    0.2953489 -71.36  0.000877961    1.652    0.395
       396  -9.0131    141.0076     82.4888   3.3868411472e+01   3.7945906528e+01    0.3712034    0.2377341 -54.17  0.001062655    1.750    0.429
       397  -8.0707     64.1790     82.2685   5.7123290070e+01   5.2931310400e+01    0.1792958    0.1639399  75.05  0.000539816    1.358    0.264
       398  -9.5198     24.6760     80.6954   7.1669248261e+01   5.7711735280e+01    0.3771713    0.2452602  87.23  0.001449156    2.387    0.581
       399  -9.1533      9.7899     80.6990   7.7422151978e+01   5.8747085374e+01    0.3148954    0.1730311  58.48  0.001422266    2.981    0.665
       400  -8.5768    150.4249     80.2109   3.1042193718e+01   3.6183443309e+01    0.3233814      0.12869 -48.46  0.001036622    2.818    0.645
       401  -8.8372     74.8679     80.3401   5.2778467500e+01   5.1701402703e+01     0.296217    0.2003317 -63.70  0.000863911    1.894    0.472
       402  -8.9901    119.4504     79.7184   3.8640363705e+01   4.3290923694e+01    0.3154295    0.2530675 -52.88  0.001302216    1.343    0.255
       403  -8.2071    166.7949     79.3410   2.7321073817e+01   3.2495795339e+01    0.1997643    0.1722533 -54.05 0.0005555054    1.163    0.140
       404  -7.8604    184.3666     77.8311   2.3614641543e+01   2.8643605359e+01    0.1954923    0.1368888 -29.14 0.0008039934    1.668    0.400
       405  -8.0121    157.1620     76.1881   2.8472489389e+01   3.5319857522e+01    0.2035725    0.1681709 -76.40 0.0004045891    1.325    0.245
       406  -9.1650    128.1248     75.2727   3.5028573111e+01   4.2204157476e+01    0.3142287    0.2363569 -67.42 0.0005546165    1.663    0.399
       407  -8.4917    140.4880     75.0692   3.1908150950e+01   3.9419532828e+01    0.2174945    0.1463518 -42.63 0.0006651945    1.543    0.352
       408  -9.9407     63.1502     73.4810   5.4981046736e+01   5.4902675869e+01    0.4213706     0.288814 -61.81  0.001018699    1.800    0.445
       409  -9.6614     82.5488     72.4217   4.7765806659e+01   5.1990921242e+01    0.4286094    0.3046023 -71.63  0.001241138    2.200    0.546
       410  -8.2043    163.4959     73.0821   2.6329420819e+01   3.4360036117e+01    0.2189546    0.1415312 -43.66  0.001018484    1.575    0.365
       411  -8.0097    151.4925     73.0269   2.8828978825e+01   3.7206688135e+01    0.2154959     0.144881 -42.25 0.0005216529    1.538    0.350
       412  -8.7299    115.7519     72.7607   3.7604177204e+01   4.5385271863e+01    0.2745402    0.1985918 -50.00   0.00064171    1.508    0.337
       413  -9.2019    105.8260     71.2004   3.9983321242e+01   4.7762705005e+01    0.3523023    0.2020786 -53.47  0.001034431    2.138    0.532
       414  -9.0788     95.2181     71.0809   4.3195784056e+01   4.9904691391e+01    0.3367369    0.2369066 -60.72 0.0009435537    1.847    0.459
       415  -8.1761     42.5486     72.5328   6.2610502334e+01   5.7747357610e+01    0.1287912    0.1163469 -29.86  0.000112038    1.058    0.055
       416  -9.4835     51.5877     69.6383   5.8240061185e+01   5.7259199785e+01    0.4092568    0.2491225 -67.63  0.001505495    2.455    0.593
       417  -8.9793     16.6638     69.7230   7.2368171686e+01   6.0678772536e+01    0.2302936    0.1764088 -77.35  0.001092927    1.550    0.355
       418  -8.8441    147.1633     68.1417   2.8416279629e+01   3.9060153042e+01    0.2998161    0.2002576 -47.17 0.0008356041    1.575    0.365
       419  -8.4437    138.7210     65.9367   2.9702914354e+01   4.1407679427e+01    0.2560893    0.1898218 -58.63 0.0006042095    1.538    0.350
       420  -8.5687    133.0711     65.7653   3.0997573291e+01   4.2744237479e+01    0.3343363    0.2211576  73.29  0.001193867    1.931    0.482
       421  -8.6838    121.5349     65.8123   3.3933040519e+01   4.5347697231e+01    0.2663024    0.2203519 -85.37 0.0007894328    1.503    0.335
       422  -7.5253    163.6778     65.6641   2.4307851639e+01   3.5551605274e+01    0.1453843    0.1128605  23.81 0.0003383044    1.710    0.415
       423  -8.7540     37.4596     63.9591   6.2254158260e+01   6.0049734020e+01    0.2538466    0.1789903 -71.71 0.0009656727    1.974    0.493
       424  -8.9288    110.1989     63.5336   3.6333839602e+01   4.8206850115e+01    0.2603589    0.2183218 -71.67 0.0006788187    1.491    0.329
       425  -8.1245    158.1933     61.7413   2.4319411338e+01   3.7488943633e+01    0.1836039    0.1665891  25.95  0.000493762    1.277    0.217
       426  -9.2892     97.5860     60.4545   3.9085558282e+01   5.1341567831e+01     0.294792    0.2387406  58.51 0.0009381584    1.377    0.274
       427  -9.6950     73.3218     59.2072   4.6773337438e+01   5.6035280324e+01    0.4117213    0.2372517 -49.89  0.001363936    1.980    0.495
       428  -7.9209    147.0000     58.9254   2.5832955828e+01   4.0597197838e+01    0.2201731   0.08274749 -36.26 0.0004850378    2.844    0.648
       429  -8.0474     89.1704     59.2094   4.1345375629e+01   5.3197994584e+01    0.1790549    0.1670876 -82.57  0.000461339    1.339    0.253
       430  -8.5123    130.8271     57.5417   2.9084064272e+01   4.4602145745e+01    0.2675545    0.1776442 -55.69  0.000571536    1.811    0.448
       431  -9.7989     23.5312     56.2762   6.5978349931e+01   6.2894966940e+01    0.3921766    0.2716852  86.06  0.002006769    2.833    0.647
       432  -9.3381      7.5284     57.0099   7.3222662270e+01   6.3881632081e+01      0.25277    0.1922726  81.92  0.001127449    1.952    0.488
       433  -9.0283    119.1153     55.2682   3.1308582413e+01   4.7618344134e+01    0.4205092    0.2102648 -48.24  0.001400595    2.393    0.582
       434  -8.4703    139.9763     55.7866   2.6450243780e+01   4.2743856068e+01    0.2503986    0.1722288 -52.35 0.0005632038    1.625    0.385
       435  -8.6654     44.1566     55.2996   5.6827064201e+01   6.0966406744e+01    0.2482928    0.1970456 -59.11  0.001057686    1.558    0.358
       436  -9.5455     62.8297     53.2088   4.8647489171e+01   5.8779130928e+01     0.547774    0.1999411 -46.80  0.001973551    2.932    0.659
       437  -8.8856     54.1879     53.6376   5.2178005440e+01   5.9967243554e+01    0.2982887    0.2055332 -64.55  0.001293215    2.246    0.555
       438  -7.8138    163.3129     53.3017   2.1041010130e+01   3.7559426137e+01    0.1389548    0.1069724  31.91 0.0002861216    1.611    0.379
       439  -8.2823    105.7955     53.0857   3.4241390067e+01   5.0859704213e+01    0.2048611    0.1879104 -79.62 0.0005736193    1.306    0.235
       440  -9.4265     92.5020     50.4154   3.7333174931e+01   5.4003079313e+01    0.3642528    0.2385627 -53.69   0.00103375    2.010    0.502
       441  -8.4352     75.0008     51.4794   4.3556437862e+01   5.7083227702e+01     0.199123    0.1074585  20.06 0.0008099962    2.623    0.619
       442  -7.5639    172.6634     49.3261   1.8352513099e+01   3.5900672203e+01    0.1477943   0.09975017 -74.98 0.0007051572    1.722    0.419
       443  -7.9840    145.0024     48.9937   2.3387604537e+01   4.2567862566e+01    0.1653226    0.1582604 -54.12 0.0006275847    1.126    0.112
       444  -8.1892    130.0033     48.9939   2.6675473983e+01   4.6091641674e+01    0.2172621    0.1663533 -73.94 0.0006070232    1.649    0.393
       445  -8.2097    112.4738     46.9437   3.0388154874e+01   5.0352233588e+01    0.1955478    0.1371288 -36.83 0.0008059398    1.545    0.353
       446  -9.0006     82.3346     46.4829   3.9273566877e+01   5.6569302492e+01    0.2511037    0.2225819 -69.44 0.0007488516    1.527    0.345
       447  -8.4040     45.2594     44.5536   5.2731865992e+01   6.2749872061e+01    0.2025619    0.1480093 -51.21 0.0007579451    1.630    0.386
       448  -9.1406     16.8533     44.3704   6.5482036318e+01   6.5702808820e+01    0.2304864    0.1613849 -67.11  0.000840908    1.884    0.469
       449  -8.2366    132.6464     42.8464   2.4190305051e+01   4.6347994098e+01    0.1846876    0.1246941 -46.14 0.0001760282    1.645    0.392
       450  -9.3083     69.6898     41.3419   4.1860438533e+01   5.9614129235e+01    0.3107989    0.2408466 -65.38  0.001040427    2.066    0.516
       451  -9.0211     58.0631     42.1382   4.6588385666e+01   6.1359269539e+01     0.282786    0.1814933 -47.69  0.001066706    1.836    0.455
       452  -9.7915      5.1133     41.7269   7.0293933965e+01   6.6987627698e+01    0.3239656    0.1940487 -71.55    0.0015743    2.281    0.562
       453  -8.7336    105.8923     41.1207   3.0230240669e+01   5.2614216638e+01    0.2017859    0.1824764 -85.92 0.0006646106    1.340    0.254
       454  -8.4379     36.8842     41.0004   5.5124008418e+01   6.4374954967e+01    0.1713086    0.1619377 -13.57 0.0006902692    1.288    0.224
       455  -8.7571     95.8747     38.2347   3.2085809504e+01   5.5121008470e+01    0.2195373    0.1780724 -45.34 0.0006765214    1.447    0.309
       456  -8.0921     80.8319     36.8281   3.6300688239e+01   5.8280058505e+01    0.1635275    0.1588716 -84.78 0.0003917417    1.330    0.248
       457  -8.0971    133.6112     35.8208   2.1828721106e+01   4.7052534752e+01    0.1819167    0.1240033 -46.20 0.0005508033    1.641    0.391
       458  -9.3756     26.2248     35.1070   5.7929920474e+01   6.6514759661e+01    0.2697084    0.1946035 -52.61 0.0009118328    1.656    0.396
       459  -8.1941    126.0081     35.3256   2.3326347325e+01   4.8885786849e+01     0.191265    0.1587857  53.47 0.0005131882    1.072    0.067
       460  -8.5674    111.9483     34.4515   2.6388500720e+01   5.2182116054e+01    0.2379495    0.1822338 -51.88 0.0006600451    1.571    0.364
       461  -7.8144     88.4919     34.4865   3.2979971913e+01   5.7121268257e+01    0.1325285    0.1165203  28.53 0.0002240632    1.008    0.008
       462  -8.8989     48.5738     32.9619   4.7014479452e+01   6.4171876304e+01    0.2264522     0.190581 -39.08 0.0007514068    1.409    0.291
       463  -8.4101    119.3875     33.2262   2.4171510437e+01   5.0667322669e+01    0.1789072    0.1236275 -44.37   0.00067943    1.655    0.396
       464  -8.4594     60.8227     32.3266   4.1795224533e+01   6.2415905146e+01    0.1936493      0.16539 -35.77 0.0006632419    1.367    0.269
       465  -8.7766     72.1486     30.9639   3.7073087439e+01   6.0679537078e+01    0.1758272    0.1728926  53.74 0.0005411062    1.325    0.245
       466  -9.1739     12.9365     29.9872   6.2651266942e+01   6.8552815193e+01    0.2818866    0.1606526 -60.76  0.001399353    2.385    0.581
       467  -7.9163     42.2184     29.9260   4.8577388628e+01   6.5493792141e+01    0.1524485   0.09114731 -37.73 0.0005928334    1.655    0.396
       468  -8.3163    101.6628     29.2018   2.7270369437e+01   5.5077735103e+01    0.1861986    0.1614962 -54.25 0.0005500221    1.409    0.290
       469  -8.8227     81.5627     27.1923   3.2456835247e+01   5.9419555063e+01    0.2482998    0.2059116 -64.10 0.0007555719    1.754    0.430
       470  -9.2201      3.9293     27.4748   6.6449464738e+01   6.9610286971e+01    0.1883173    0.1483614 -59.95 0.0008636766    1.600    0.375
       471  -8.7180     91.9673     26.3773   2.8970667628e+01   5.7449502655e+01    0.2241586    0.1762657 -47.44 0.0006793351    1.585    0.369
       472  -8.8146    121.0081     21.6991   2.0049173929e+01   5.1642938478e+01    0.1818854    0.1519002  57.35  0.000403193    1.043    0.041
       473  -8.2619    104.4754     22.5265   2.4189355693e+01   5.5248849646e+01    0.1308613    0.1136629  45.69 0.0008095119    1.018    0.017
       474  -8.7480     48.6185     21.4329   4.2330873449e+01   6.5798875021e+01    0.2026694    0.1836718  23.75 0.0007425336    1.309    0.236
       475  -7.9943     34.3213     22.6859   4.9247227503e+01   6.7560493827e+01    0.1005207   0.09500336  48.26 0.0007039853    1.656    0.396
       476  -8.8859     63.5939     20.7605   3.6114734170e+01   6.3488374546e+01     0.219358    0.1888216 -63.93 0.0008531433    1.833    0.455
       477  -8.0803     19.6099     20.8553   5.5752365937e+01   6.9440608063e+01    0.1465514    0.1013291 -48.99 0.0009178383    1.769    0.435
       478  -8.9286     74.2728     19.4112   3.1813020910e+01   6.1733957763e+01    0.2243881    0.2045396 -53.39 0.0006988595    1.489    0.328
       479  -8.2209     38.5502     18.0108   4.5300546406e+01   6.7668526254e+01    0.1660583    0.1045443 -31.00  0.000421638    1.554    0.357
       480  -7.9073    112.8433     16.8176   2.0222353882e+01   5.4006862874e+01    0.1628505     0.145906 -87.08 0.0004824275    1.277    0.217
       481  -8.0695     87.8386     17.3764   2.6805611620e+01   5.9311886009e+01     0.159214    0.1517835  37.09 0.0004672749    1.172    0.147
       482  -8.4055     29.9957     15.7434   4.8359919359e+01   6.9055104946e+01    0.1803785    0.1456918 -41.16  0.001051797    1.626    0.385
       483  -8.1348     97.3854     15.1718   2.3372096820e+01   5.7554998434e+01    0.1607607    0.1155813 -39.43 0.0004913879    1.661    0.398
       484  -8.1210      7.6610     15.3457   5.9913092036e+01   7.1317058857e+01   0.09370688   0.08657891  43.52 0.0007047825    1.781    0.438
       485  -7.9225     17.3152     13.7111   5.3956390850e+01   7.0714937212e+01   0.09383349   0.08575708  24.38 0.0002618409    1.590    0.371
       486  -7.9094    191.7769    249.5999   5.7327404254e+01  -4.8942531622e+00    0.1709399    0.1003848  40.24 0.0008526979    1.638    0.389
       487  -9.1341    175.4806    247.3926   6.0252530670e+01  -2.1507894279e+00    0.3028792    0.2414386  82.64  0.001212623    2.119    0.528
       488  -8.1234    113.1519    248.4609   7.3347861503e+01   7.2215099747e+00    0.2126932    0.1375298  85.32 0.0008959453    2.223    0.550
       489  -8.3143     93.8353    249.2170   7.7458950138e+01   9.9444466304e+00    0.2228719    0.1060665  63.08  0.000944605    2.835    0.647
       490  -9.4965    243.1841    245.8819   4.7142022785e+01  -1.1229242561e+01    0.3782114    0.1635569 -28.98  0.001965987    2.295    0.564
       491  -8.7694    218.4256    248.1979   5.1997232673e+01  -8.3912427622e+00    0.2502558    0.1113018 -38.78 0.0009671725    2.360    0.576
       492  -9.3362    210.8411    246.1949   5.3111830491e+01  -7.0790453404e+00     0.285895    0.2229054 -65.48    0.0011051    2.349    0.574
       493  -8.7828    155.9865    247.7349   6.4295798926e+01   7.6287516814e-01    0.1944604    0.1679699  89.77  0.000557798    1.574    0.364
       494  -8.6617    132.0847    247.6335   6.9271651277e+01   4.4751381433e+00    0.1967842    0.1723838  87.13 0.0006076717    1.364    0.267
