#   1 NUMBER                 Running object number                                     
#   2 MAG_AUTO               Kron-like elliptical aperture magnitude                    [mag]
#   3 X_IMAGE                Object position along x                                    [pixel]
#   4 Y_IMAGE                Object position along y                                    [pixel]
#   5 X_WORLD                Barycenter position along world x axis                     [deg]
#   6 Y_WORLD                Barycenter position along world y axis                     [deg]
#   7 A_WORLD                Profile RMS along major axis (world units)                 [deg]
#   8 B_WORLD                Profile RMS along minor axis (world units)                 [deg]
#   9 THETA_WORLD            Position angle (CCW/world-x)                               [deg]
#  10 FWHM_WORLD             FWHM assuming a gaussian core                              [deg]
#  11 ELONGATION             A_IMAGE/B_IMAGE                                           
#  12 ELLIPTICITY            1 - B_IMAGE/A_IMAGE                                       
         1 -14.8089    133.3593     86.6721   3.9661268452e+01   3.8727358252e+01     2.528707     2.078693  22.66  0.006818806    1.369    0.270
         2 -14.4394     14.8236     70.8312   7.8459894233e+01   6.1360013356e+01     3.068045     1.556693 -32.01   0.01452984    2.219    0.549
         3 -13.6441     58.1598      3.9497   2.9392523309e+01   6.8987933458e+01     2.113689    0.7234412  60.47  0.006766873    4.878    0.795
         4 -12.8336     55.3092     26.6107   4.3284004115e+01   6.6359127421e+01     2.381454     2.166288 -46.10   0.01455653    1.325    0.245
         5 -12.5810     24.4607     40.2183   6.5440940175e+01   6.7801246436e+01      1.33681     1.082255 -27.50  0.002222895    1.118    0.105
         6 -14.2293     11.8443     38.2997   7.1962277321e+01   6.9209509121e+01     1.966365     1.142499 -61.08  0.005880574    1.501    0.334
         7 -13.2984     60.1978     62.7943   5.6180786936e+01   5.8429798370e+01     2.091048     1.395849  81.89  0.007418474    3.072    0.675
         8 -13.2241     72.7395     25.0836   3.5119766300e+01   6.3313866946e+01     1.255217    0.5587271 -46.98 0.0007355544    3.049    0.672
         9 -12.1607     79.2556     22.7887   3.1596520177e+01   6.2274288813e+01    0.7682028    0.5705849 -36.83   0.00190757    1.425    0.298
        10 -13.2222     46.5603     54.7823   5.9424181972e+01   6.2140562650e+01     1.634207    0.6651644 -37.04  0.006010992    2.849    0.649
        11 -11.7009    210.9627     21.1531   6.8335106620e+00   2.9744129767e+01    0.5337005    0.4621428 -53.95  0.003130013    1.033    0.032
        12 -13.6045    177.9067     76.2416   2.6730008560e+01   3.0049674970e+01     2.117863    0.9602558 -35.14  0.007074358    2.089    0.521
        13 -13.8584    186.2574     56.0755   1.9499867613e+01   3.1198672098e+01     1.920041       1.1941 -57.04   0.00438566    1.787    0.440
        14 -13.5961    192.3948     36.7478   1.3080624358e+01   3.2336888122e+01     1.912831     1.579358 -25.26   0.01072344    1.257    0.204
        15 -13.4874    233.0005     49.7348   1.1946431889e+01   2.1378693463e+01     1.634511     1.010275 -21.40  0.005681043    1.712    0.416
        16 -10.7312    229.4086     13.9020   3.5428542544e+00   2.6368996109e+01    0.7471744    0.5170844 -15.92  0.002206531    1.690    0.408
        17 -12.8599    221.4775     38.5117   1.0316422336e+01   2.5303888856e+01     1.207308    0.6212443 -61.95 0.0007807632    2.234    0.552
        18 -13.9294    244.5657      8.1594   1.2381353543e+00   2.3756015042e+01     1.377393    0.5199739 -73.20  0.005663379    3.439    0.709
        19 -12.1249    236.0005      2.6379   4.7150071111e-01   2.6092239450e+01    0.1844331    0.1519272 -38.21 0.0004650927    1.189    0.159
        20 -14.2296     43.3972     74.6309   6.6882757223e+01   5.7898006211e+01     1.780913     1.254068 -15.91  0.005558449    1.724    0.420
        21 -12.0837     31.3633     22.6052   5.3875743467e+01   7.0616040461e+01    0.9055234    0.6816738 -47.10    0.0023193    1.384    0.277
        22 -12.4451    221.4010      8.2219   2.7168129549e+00   2.8722987878e+01    0.6403139    0.2071116 -46.33  0.001898383    2.539    0.606
        23 -13.1769    225.6132     22.8762   6.0204717662e+00   2.6228379285e+01    0.8077105    0.7096115   9.16 0.0008733264    1.458    0.314
        24 -14.0792    217.6825     57.7550   1.5665841911e+01   2.3624817645e+01     2.356676     1.143345 -24.41    0.0100312    2.191    0.544
        25 -11.5013    241.1188     21.8202   4.5835573413e+00   2.3019865020e+01    0.4845675    0.2764829 -70.77  0.002608716    1.826    0.452
        26 -11.4778    202.0151     20.7881   7.5660371121e+00   3.1895294618e+01    0.4350446    0.2560753 -58.56  0.001893591    1.674    0.403
        27 -10.8811    203.7101     17.1790   6.4305252964e+00   3.1883438741e+01    0.5411366    0.2650943 -71.37  0.002099152    2.436    0.589
        28 -10.0364    154.4104     15.0895   1.1325697144e+01   4.4501534146e+01    0.4359903    0.2431862  -0.30  0.001797665    2.625    0.619
        29 -12.8977    172.9035      7.5535   6.6518241154e+00   4.0467117386e+01    0.4867936    0.3144986  -8.82  0.001373361    1.904    0.475
        30 -10.3970    187.3724     13.1793   6.8594602479e+00   3.6274843661e+01    0.3000788    0.1598168 -59.17  0.001090871    1.949    0.487
        31 -10.0606    150.1416     13.1882   1.1270888711e+01   4.5807078077e+01    0.2214605    0.1827743 -39.81 0.0007518732    1.243    0.195
        32 -11.5369    115.7958     10.5814   1.6075183571e+01   5.4973151252e+01    0.4679469    0.3198645  11.38  0.001387443    1.738    0.425
        33 -10.3486     56.6339     12.3058   3.4973332106e+01   6.8267317736e+01    0.2411728    0.2172479 -81.15  0.000599012    1.643    0.391
        34  -9.2670    192.2475     11.7243   5.9775759718e+00   3.5220420289e+01    0.1795223    0.1442773 -50.06 0.0001969206    1.150    0.130
        35 -11.4982    193.3819      7.5267   4.6989800366e+00   3.5358263433e+01    0.2697776     0.257821  11.91 0.0007199434    1.257    0.204
        36 -10.7434    132.7305     11.3516   1.3278770288e+01   5.0532505526e+01    0.2971058    0.2248573 -68.94 0.0007055421    1.465    0.317
        37 -10.1880    131.0516      8.4906   1.2459140374e+01   5.1239406560e+01    0.3823239    0.2904581  30.64   0.00197476    1.428    0.300
        38 -10.7536    109.5704     10.7627   1.7456146794e+01   5.6529864886e+01    0.3494199    0.2757747 -25.37  0.001746278    1.343    0.255
        39 -10.4783     93.9226     11.8010   2.1716266401e+01   6.0263479886e+01    0.2055473    0.1659049  34.77 0.0002798375    1.159    0.137
        40 -10.2937     88.1863     11.5817   2.3206718582e+01   6.1640589287e+01    0.2283611    0.2187775 -25.78  0.001396337    1.160    0.138
        41  -9.7501    101.4001      6.7873   1.7503255122e+01   5.8943551030e+01    0.1923176    0.1372059 -16.76 0.0003026928    1.494    0.330
        42 -13.9716     95.4985     71.5047   4.5929563322e+01   5.0186718009e+01     2.453963     1.959647  89.33   0.01159632    1.721    0.419
        43 -10.7734    146.3670      6.1258   9.3165812844e+00   4.7458881969e+01    0.3019503    0.2288421  12.68  0.001605786    1.585    0.369
        44  -9.4002    156.5058      7.5143   8.4951345328e+00   4.4692457556e+01     0.138481    0.1260413 -85.75 0.0008103423    1.027    0.026
        45 -11.2951      2.7042      5.8240   6.4953712085e+01   7.6481828201e+01    0.2277512    0.1788302 -16.78 0.0006458549    1.127    0.113
        46  -9.3408    210.7776      6.0026   2.9105749689e+00   3.1365131532e+01    0.1540855   0.09748399 -30.38 0.0004386444    1.525    0.344
        47 -10.5864    120.6773      4.5433   1.2648983903e+01   5.4274375671e+01    0.3382899     0.220277 -50.27  0.000877028    1.740    0.425
        48  -9.4114     91.2916      6.6904   1.9944251734e+01   6.1405468868e+01    0.1314616    0.1044674 -61.91  0.000391815    1.584    0.369
        49  -9.9476     97.6222      4.9530   1.7528681996e+01   6.0038321951e+01    0.1748173    0.1700852  -1.11 0.0005543804    1.113    0.102
        50 -11.0773     26.5077      9.8243   4.9804227263e+01   7.3442269988e+01    0.2524613    0.1728069  -9.47  0.001160301    1.424    0.298
        51  -7.0677    183.4889      3.8716   4.5273800643e+00   3.8142043541e+01    0.2943239    0.1998399 -58.93   0.00109126    1.398    0.284
        52 -10.6009    187.0807      1.4124   3.5103462373e+00   3.7474521445e+01    0.3895697     0.120872  76.67 0.0004973268    3.101    0.678
        53 -10.7076    111.8404      4.0086   1.4053816789e+01   5.6577498299e+01    0.3153952    0.1855957  63.29 0.0009822713    1.530    0.347
        54 -11.4145    217.3345      2.4040   1.5483148046e+00   3.0208855019e+01    0.2426957    0.2086826  73.41 0.0008966086    1.262    0.207
        55 -10.1036    207.5327      2.2346   2.1692775828e+00   3.2481253170e+01    0.2321264    0.1560329  -3.70  0.001239957    1.995    0.499
        56 -10.0261    142.7263      2.7023   8.5809564068e+00   4.8704415258e+01    0.3013647    0.1279913  61.24  0.001262315    2.034    0.508
        57 -10.1406     45.3363      9.9382   3.8967984681e+01   7.0614487272e+01    0.2620372    0.1738698  28.87 0.0008427681    1.443    0.307
        58  -9.5106     19.2630      3.7091   5.0882206864e+01   7.5313013978e+01    0.1006888   0.09479781 -41.07 0.0004683557    1.498    0.333
        59 -12.2920     86.2269      1.3952   1.8627142848e+01   6.3087817666e+01    0.4753465    0.1214033  61.15  0.001202569    3.366    0.703
        60 -10.0688    250.0724      1.4365   3.5945456163e+02   2.3308918534e+01     0.151833    0.1033524 -86.20  0.000372431    1.442    0.307
        61 -10.4276    203.7010    116.0372   3.2539583340e+01   1.7537741920e+01    0.3657787    0.2163597  64.10  0.001557193    2.459    0.593
        62 -10.8146     90.0331    115.2669   6.0091012274e+01   4.1087775883e+01    0.3737169    0.2228837  59.57   0.00126391    2.203    0.546
        63 -13.0382    203.9728     47.1407   1.4541173663e+01   2.8204521277e+01     1.507838    0.7842627  56.63  0.006853888    2.010    0.503
        64 -11.4245    137.8965    112.7446   4.5823075491e+01   3.2265008189e+01    0.4297948    0.2449958  33.17  0.001554695    2.030    0.507
        65  -8.9497    242.3285    112.2816   2.5570726840e+01   1.0733506403e+01    0.1295268   0.09414508   4.54 0.0002605587    1.603    0.376
        66  -9.8557     95.6708    112.3413   5.7651999395e+01   4.0801712457e+01    0.1595715    0.1196627  79.41 0.0007051424    1.742    0.426
        67 -12.1344    215.3528     42.0397   1.1861737572e+01   2.6239532559e+01     0.297675    0.2514816 -74.27   0.00037113    1.170    0.145
        68  -9.1005    211.0522    112.0000   3.0297417066e+01   1.6722978336e+01    0.2202368    0.0814594  50.91 0.0008062323    2.969    0.663
        69 -10.5198    218.0852    108.5881   2.8328494482e+01   1.5868594823e+01     0.316267    0.1925116 -51.74  0.001358862    1.929    0.482
        70 -10.5475     38.4633    110.0178   7.6173528458e+01   4.9520518890e+01     0.218234    0.1231874 -69.05  0.000728974    1.583    0.368
        71 -12.9037     56.2242     94.5360   6.6743976039e+01   5.1403511932e+01    0.4393265    0.3915168  88.31 0.0008539775    1.184    0.155
        72 -13.3120     61.8081     91.2552   6.3884069168e+01   5.1459721684e+01    0.8118758    0.4236166 -68.15  0.003253326    2.209    0.547
        73 -12.4723     48.3553     95.5178   6.9886801221e+01   5.2135208286e+01    0.4419297    0.3414718  31.35  0.002386893    1.414    0.293
        74  -8.9159    232.6602     96.6784   2.3324783487e+01   1.4842826824e+01     0.137075   0.09994326   6.65 0.0007050459    1.719    0.418
        75 -10.4252    249.8966     94.4105   2.0548346482e+01   1.1940042939e+01    0.2618339    0.1778617 -41.86 0.0008533332    1.315    0.239
        76 -12.2699    249.9528     75.0714   1.6139630765e+01   1.4608058312e+01    0.4467736    0.2892097 -36.27 0.0004664826    1.266    0.210
        77 -11.9896    165.7645     66.4190   2.6106518575e+01   3.4633638943e+01    0.9067844    0.5574429  46.21  0.003972213    1.710    0.415
        78 -13.5629    202.4720     59.9787   1.8230896190e+01   2.6767386888e+01    0.9452101    0.5728637 -43.49  0.001263358    1.522    0.343
        79 -10.3418     89.1945     93.8674   5.4931005159e+01   4.6382524778e+01    0.2157868    0.2020547 -73.36  0.000236707    1.108    0.097
        80 -10.0395    173.2836     91.8017   3.2010301609e+01   2.8429518881e+01    0.3013164    0.2270819 -72.80  0.001380602    1.746    0.427
        81 -10.5013    167.9205     89.9644   3.2590605890e+01   3.0010884973e+01    0.4707859     0.229057  56.29 0.0009256425    2.251    0.556
        82 -10.0788     79.5820     90.9841   5.7406700023e+01   4.8758623649e+01    0.2259902    0.1944954 -29.06 0.0005025315    1.214    0.176
        83 -10.9383    196.3681    107.9101   3.1853193040e+01   2.0447131519e+01    0.4639067    0.3304133 -63.66  0.002168618    1.891    0.471
        84 -11.2790    191.4179    102.5590   3.1397052504e+01   2.2438428389e+01     0.561831    0.1985382 -45.51   0.00184503    3.078    0.675
        85 -12.5943    223.8156     86.9021   2.2203886512e+01   1.8077017428e+01    0.6013777    0.3688415  31.25  0.002804341    2.204    0.546
        86 -11.8496     55.0672     81.9428   6.4058156556e+01   5.4671447553e+01     0.314872    0.2167494 -50.37 0.0003071933    1.319    0.242
        87 -12.6654     48.7774     85.2101   6.7369618255e+01   5.4666770714e+01    0.4227147    0.3662846 -51.91  0.001791418    1.049    0.046
        88 -12.1971    236.2263     85.9173   2.0302283733e+01   1.5729684528e+01    0.6560788    0.3564381  75.86  0.002819912    3.081    0.675
        89 -10.5491     70.8257     87.8171   5.9662003651e+01   5.0952325230e+01    0.3007537    0.2729686 -69.22 0.0008529766    1.124    0.110
        90 -12.5510     66.9768     82.7071   5.9668124635e+01   5.2778547954e+01    0.7424921    0.5632051  65.27  0.003641583    1.669    0.401
        91 -11.7412    161.7796     84.3527   3.2270408392e+01   3.2484005941e+01    0.7641355    0.4450064  41.22  0.003160505    1.875    0.467
        92 -12.3244    168.2342     79.2730   2.9458103723e+01   3.1848545637e+01    0.6462327    0.4560068 -45.04  0.001606755    1.398    0.285
        93 -10.9453    164.9607    102.3171   3.6631962592e+01   2.8381979722e+01    0.3060364    0.2248845 -29.02  0.001056328    1.385    0.278
        94 -12.4997    215.5956     83.5203   2.2534318634e+01   2.0313511436e+01    0.3705423    0.3065025  78.06  0.002074054    1.430    0.301
        95 -12.1843    114.3279     80.8105   4.3099644937e+01   4.4225943362e+01    0.5800614    0.4863496 -47.03  0.002882051    1.190    0.160
        96 -10.7481    250.5003     81.7699   1.7608804667e+01   1.3589642599e+01    0.2397624    0.1401016 -20.54 0.0008158308    1.769    0.435
        97 -13.1690    243.8786     61.5426   1.3651606323e+01   1.7602074717e+01     1.154052      1.00758  44.01  0.003124289    1.382    0.276
        98 -11.6935    234.6180     36.8229   8.6584087808e+00   2.2651256231e+01    0.9425609    0.4866621 -84.65  0.004311586    2.586    0.613
        99 -10.1105    231.4384     78.4839   1.9132345795e+01   1.7759708323e+01    0.1359571    0.1170454 -35.00 -9.951227e-06    1.010    0.010
       100 -10.2621    155.4992     76.5955   3.1309621147e+01   3.5398007378e+01    0.2943564    0.2624652 -84.21 0.0007764415    1.245    0.197
       101 -11.9138    234.1239     71.6880   1.7157106466e+01   1.8180349685e+01    0.4843551    0.2944825  22.67  0.002143688    2.790    0.642
       102 -11.7090    229.1705     71.1373   1.7623886329e+01   1.9277156546e+01    0.2641736    0.2326586 -28.75 0.0009172496    1.082    0.076
       103 -12.5150     83.3810     83.9346   5.4052378378e+01   4.9755413176e+01    0.6049705    0.3494467 -60.54  0.002477528    1.979    0.495
       104 -11.0982      3.3441     48.5737   7.9418021744e+01   6.7314515968e+01     0.413782    0.2816257  77.37  0.001392591    1.833    0.454
       105 -12.8436      4.9330     56.0370   8.0180246776e+01   6.5481725586e+01    0.6601971    0.4578284 -29.78  0.002317422    1.459    0.315
       106 -10.9521      8.8847     52.0760   7.7322871408e+01   6.6223818661e+01    0.2476264    0.1711393 -78.60  0.000328905    1.457    0.314
       107 -12.2628    127.9081     58.3074   3.1800374597e+01   4.5385818941e+01    0.5250129    0.3085289  36.68  0.001379057    1.964    0.491
       108 -10.1971    162.3125     48.3447   2.1091494455e+01   3.8310195161e+01    0.4590726    0.3600274  71.30  0.002320076    1.308    0.236
       109 -11.6356    161.1688     58.0374   2.4386147428e+01   3.7129374178e+01    0.4120002    0.3331434  42.99 0.0007972252    1.301    0.232
       110 -11.1013    159.7589     54.1360   2.3413239604e+01   3.8091745224e+01    0.6009398    0.3791896  60.97  0.002267977    1.600    0.375
       111 -11.1985     99.3959     47.9034   3.5956982036e+01   5.3910171241e+01     0.379047    0.2842484   1.08  0.001792026    1.630    0.387
       112 -11.6279    100.2499     54.7572   3.8351100910e+01   5.2493553358e+01    0.8683769     0.569926  57.26  0.003892064    1.706    0.414
       113  -9.3028    107.0862     53.5900   3.5804361526e+01   5.1162140500e+01    0.3822363    0.2938586 -89.04 0.0004435828    1.842    0.457
       114 -10.6510    248.1936     55.5734   1.1829387916e+01   1.7529063587e+01    0.3503642    0.2108801  55.80  0.001923133    1.950    0.487
       115  -9.9252    174.3773     55.3140   2.1179834209e+01   3.4239676262e+01    0.4099297     0.182543 -46.15 0.0008670625    2.319    0.569
       116 -10.2562    170.4908     56.1249   2.2091592369e+01   3.5087359968e+01    0.2754709    0.2149326  75.85 0.0006688616    1.373    0.272
       117 -10.2875     69.9451     55.3065   4.9462995999e+01   5.8442470623e+01    0.2648559    0.2372169 -75.98  0.001248338    1.375    0.273
       118 -11.7052    161.8006    106.9161   3.8560738212e+01   2.8204389084e+01    0.3382751    0.2145196 -41.71  0.001481273    1.540    0.351
       119 -11.5254     90.4161     51.0906   4.0174194860e+01   5.5298008586e+01    0.2443158    0.2261195  30.67 0.0003677232    1.079    0.073
       120 -11.5429    247.2968     42.4486   8.8771626071e+00   1.9353173456e+01    0.4792682    0.2576891 -65.39  0.002381234    2.160    0.537
       121 -10.5906    245.2075     50.1116   1.0844041481e+01   1.8818560917e+01    0.2264171     0.191428 -65.14  0.000231913    1.173    0.147
       122 -10.4332    249.1903     47.9647   9.9822855009e+00   1.8296133830e+01    0.3940499    0.1974741 -52.12  0.001043134    1.896    0.473
       123 -10.4226    168.4717     36.7397   1.6375058989e+01   3.8336451224e+01    0.3644899    0.2060692 -21.31  0.001102591    1.981    0.495
       124 -10.9164    168.9594     32.8738   1.5078298570e+01   3.8704818064e+01    0.4706909    0.2348558  67.61  0.001976946    1.989    0.497
       125 -12.4592    172.6878     45.2765   1.8387142361e+01   3.6114519555e+01    0.7418759    0.5571102  38.59  0.002537989    1.511    0.338
       126 -11.7933    177.8214     37.9245   1.5363911250e+01   3.5807467890e+01    0.4397227    0.3075963   6.70   0.00114936    1.989    0.497
       127 -10.5709    164.8537     38.8780   1.7624244269e+01   3.8981575327e+01    0.3891537    0.2469549 -65.30  0.001365806    1.894    0.472
       128 -10.3597    161.4573     40.5044   1.8708638869e+01   3.9633981976e+01    0.2925792    0.2006977  44.17 0.0007017418    1.565    0.361
       129 -11.5189    160.5775     37.1865   1.7772741021e+01   4.0305128501e+01    0.4076714    0.3314615  -4.92  0.001724791    1.430    0.301
       130 -12.2182    209.2829     58.4120   1.6894974280e+01   2.5422690571e+01    0.3642483    0.2807814 -70.02  0.001963456    1.401    0.286
       131  -9.2858    132.6284     39.8495   2.4033742134e+01   4.7133944357e+01     0.915684    0.5562143 -79.42  0.003449245    2.775    0.640
       132 -11.4849    144.2515     45.2143   2.3485125726e+01   4.3385860968e+01    0.6276454    0.3875701  40.70  0.001797666    1.779    0.438
       133 -11.9447    148.7657     40.5380   2.0985573813e+01   4.2897010741e+01    0.7216695    0.6232772 -70.66  0.003831367    1.223    0.182
       134  -9.4737    121.2650     45.1940   2.8712091896e+01   4.9182697406e+01    0.2375058    0.1671309 -73.33 0.0008259417    2.017    0.504
       135 -10.6277     93.6029     42.6322   3.5673747067e+01   5.6101251482e+01    0.4062226    0.2400592 -19.10  0.001687355    2.114    0.527
       136  -9.6267    105.0564     43.2660   3.2382624991e+01   5.3389105716e+01     0.208514    0.1819729  47.79   0.00089084    1.134    0.118
       137 -10.4662    100.2011     41.4100   3.3082094100e+01   5.4814572377e+01    0.3429078    0.2877745 -13.05  0.001801069    1.232    0.188
       138 -10.1772    241.0109     40.1270   8.8814240611e+00   2.0913226437e+01    0.1890052    0.1572403 -47.49 0.0003802771    1.002    0.002
       139 -11.1583    152.9394    108.1687   4.0923741718e+01   2.9928718571e+01    0.2357777    0.2313862 -30.67 0.0004588864    1.030    0.029
       140 -10.0683    210.8292     37.2527   1.1092444094e+01   2.7881044818e+01    0.2404527    0.1568431 -43.20 0.0004718387    1.364    0.267
       141 -11.0375    132.2012     34.0928   2.1994231227e+01   4.8042354502e+01     0.564248     0.300404 -64.49   0.00195656    3.245    0.692
       142  -9.3767    104.9592     28.9592   2.6475920025e+01   5.5541374273e+01    0.3900144    0.2472017 -45.92  0.001793557    1.784    0.439
       143 -10.0812    109.9750     36.0101   2.8060478411e+01   5.3335408562e+01    0.2559728    0.2070255  49.08 0.0004803897    1.192    0.161
       144 -10.8213    113.0092     32.5305   2.5846436039e+01   5.3089386800e+01    0.3772795    0.2772149  -6.25 0.0005324069    1.573    0.364
       145 -10.3425    109.1661     32.3989   2.6792932361e+01   5.4048527314e+01    0.3086125    0.2586136  71.03 0.0007459306    1.296    0.228
       146 -11.7939    114.5820     27.9890   2.3597479220e+01   5.3308212278e+01    0.2567854    0.2057497  48.83  0.000258134    1.183    0.155
       147 -11.3126    122.5289     33.1745   2.3786771060e+01   5.0626822751e+01    0.4325022    0.2238382 -39.35  0.001342901    1.983    0.496
       148  -9.7886    123.7779     27.5676   2.1308161891e+01   5.1043757092e+01    0.4807059     0.232829 -49.69  0.001827994    2.595    0.615
       149 -11.2062     92.4746     33.6077   3.2181136815e+01   5.7794186999e+01    0.3419916    0.2750922  26.78  0.001239931    1.248    0.199
       150 -10.6842     74.8253     33.7148   3.8432911405e+01   6.1545417274e+01    0.2798138    0.2409381  34.86 0.0007614177    1.152    0.132
       151  -9.3587    152.2117     33.6255   1.7995836394e+01   4.2932587301e+01    0.1497519    0.1006611 -52.19 0.0003165998    1.583    0.368
       152 -10.6461    180.1446     32.1285   1.3291973408e+01   3.5954846413e+01    0.3606648    0.2067552  78.91  0.001070642    1.891    0.471
       153 -12.4442    153.8200     96.9378   3.7644489438e+01   3.1963959676e+01    0.7722277    0.6481069  37.58  0.002685033    1.229    0.187
       154 -10.3618    238.5580     30.6314   6.8443261862e+00   2.2554942145e+01    0.3596742    0.2240187  54.53  0.001991219    1.908    0.476
       155  -9.5516     90.4830     26.6314   2.9681490529e+01   5.9256566234e+01    0.1404632    0.1298962  33.14 0.0001455514    1.046    0.044
       156 -11.3078     86.0746     28.7364   3.2082695585e+01   5.9945018286e+01    0.4331545    0.2411993  44.10  0.001383054    1.725    0.420
       157 -10.1517    162.3557     28.9769   1.4805946055e+01   4.0884428969e+01    0.1978328    0.1696339 -39.87  0.000342511    1.165    0.142
       158 -10.0267    168.3613     26.7354   1.3216248374e+01   3.9603424038e+01    0.2860161     0.201767 -70.50  0.001413406    1.531    0.347
       159 -10.8840    234.1530     24.6796   5.7781895994e+00   2.4169403988e+01    0.3292899    0.2667311  74.17  0.001288725    1.345    0.257
       160  -8.6360    243.9998     17.9413   3.4910425870e+00   2.2847603206e+01    0.3603124    0.1686355 -48.26  0.001054866    1.755    0.430
       161 -10.7052    247.1478     22.5977   4.3381393459e+00   2.1695895421e+01    0.2280515    0.1973847 -68.53  0.001192348    1.126    0.112
       162 -11.0294    158.9352     99.0598   3.7071832123e+01   3.0378602445e+01    0.2708498    0.2164443 -45.72 0.0003361293    1.248    0.199
       163 -11.3703    176.0911     23.9000   1.1311958954e+01   3.7955166121e+01     0.337282    0.2374011 -20.66 0.0007366836    1.545    0.353
       164  -9.5348    179.3441     20.3320   9.8340310180e+00   3.7529242230e+01    0.2015822    0.1249929  53.52 0.0006137138    1.671    0.402
       165  -9.5626    159.7953     26.3546   1.4327819703e+01   4.1860322521e+01    0.2133377     0.119031  56.90 0.0009445227    1.715    0.417
       166 -10.0592    145.1335     26.4058   1.6708852616e+01   4.5669049860e+01    0.3369843    0.1855472  81.05  0.001372641    2.181    0.542
       167  -9.8658    148.5956     23.8264   1.5217691236e+01   4.5069053998e+01    0.2529837    0.2122511  54.06 0.0006065707    1.170    0.145
       168 -10.3417    150.9792     21.0017   1.3856863188e+01   4.4766388012e+01    0.2707923    0.1969253 -29.01  0.001068658    1.421    0.296
       169 -10.7610    134.8744     24.9790   1.8050268726e+01   4.8506124785e+01    0.4024153    0.2391033  71.11  0.001304933    1.728    0.421
       170  -9.2811    111.3834     23.2848   2.2415708797e+01   5.4696088129e+01    0.1575663    0.0995031  33.29 0.0002228319    1.736    0.424
       171 -10.1153     98.2448     22.2366   2.5374280476e+01   5.8027542645e+01    0.4018827    0.2211224  44.84   0.00179901    1.723    0.420
       172 -10.1516    102.6209     22.8145   2.4438090312e+01   5.6904781846e+01    0.2569805    0.1579024 -35.39  0.001201793    1.690    0.408
       173 -10.0950    103.4386     19.4791   2.2748997353e+01   5.7109422674e+01    0.3353938      0.25644  88.73  0.001701002    1.636    0.389
       174 -10.7265    192.9587     16.9029   7.3708588802e+00   3.4509297912e+01    0.5553056    0.2183185 -72.80  0.001705655    4.638    0.784
       175 -10.0758    210.1351    105.6269   2.8901053563e+01   1.7952015991e+01    0.2412443    0.2275972 -67.81  0.001101627    1.218    0.179
       176 -12.4160     75.5356    103.7618   6.2088402252e+01   4.6310127022e+01    0.4300775    0.2849164 -60.07  0.001283366    1.466    0.318
       177  -9.7712    119.3011     22.2160   2.0149981335e+01   5.2833272968e+01    0.1920468    0.1643126 -74.68 0.0005457827    1.318    0.241
       178  -9.7218    163.2693     20.9334   1.2050282467e+01   4.1578183679e+01    0.1787548    0.1712756 -48.86 0.0003127809    1.078    0.072
       179  -9.8007    124.0206     20.7304   1.8553179818e+01   5.1800439684e+01    0.1966832    0.1727578  66.37  0.000309897    1.100    0.091
       180 -10.6525    130.0415     19.2967   1.6807520368e+01   5.0409049139e+01    0.2404905    0.2154083  45.63 0.0004683939    1.091    0.083
       181  -9.7367    170.4570     18.9094   1.0465878516e+01   3.9946816429e+01    0.2222124    0.1769537  47.95 0.0007735928    1.343    0.255
       182 -13.3162     81.0693     41.9451   3.9735159608e+01   5.8885693852e+01     1.168753    0.6247025  51.02  0.004992591    2.031    0.508
       183  -9.5117    139.0000     17.5898   1.4567480503e+01   4.8264512944e+01    0.2736895   0.08188493 -23.67 0.0006826115    3.543    0.718
       184  -9.8643    121.2829     17.2200   1.7703973883e+01   5.2891296098e+01    0.1898476     0.157854 -72.12 0.0004217918    1.352    0.260
       185 -11.1981     93.9845     16.1523   2.3760964538e+01   5.9769638841e+01    0.3607502    0.1863657  46.46  0.001604684    1.782    0.439
       186 -11.3782    113.4132    246.4477   7.4115473466e+01   1.0197516886e+01    0.2793223    0.2148365 -27.67  0.001536923    1.792    0.442
       187  -9.5427    125.0083     16.0034   1.6477884550e+01   5.2064080989e+01    0.1718499    0.1489804 -20.31 0.0004528617    1.226    0.185
       188 -10.7618     36.3460    248.1440   8.8991756977e+01   1.9221850767e+01    0.1854834   0.08221139 -67.64  0.001102227    2.584    0.613
       189  -9.3501    103.9428     15.3298   2.0775022762e+01   5.7455683436e+01    0.2464536    0.1256307  62.24  0.000226244    1.891    0.471
       190 -10.2156    180.7695    243.5902   6.0921316525e+01   1.4329240888e+00    0.1637309   0.08717806  39.13  0.000948597    1.668    0.400
       191  -9.5050    160.0160     13.8096   1.0146197749e+01   4.3173698284e+01    0.1852232    0.1653373  73.27  0.001070193    1.067    0.063
       192 -13.1794    144.1680     67.2625   3.0905882846e+01   3.9829476976e+01     2.692109    0.9695662  42.36   0.00818961    3.414    0.707
       193 -14.0821    116.8870     62.9982   3.6395268894e+01   4.7176434848e+01     1.161817      1.00033  52.15  0.002337562    1.180    0.152
       194 -12.0841    142.0487     56.7235   2.7896039416e+01   4.2150380797e+01     1.205135    0.9901091  40.12  0.005841113    1.260    0.206
       195 -10.6085     88.3875    238.7976   7.8342288925e+01   1.4721828606e+01    0.1358258     0.107496 -53.90 0.0002207216    1.611    0.379
       196  -9.6616    101.1640    176.0227   6.8277846504e+01   2.5030575247e+01    0.1743683     0.162329  60.60            0    1.034    0.032
       197  -9.4077    236.7361    145.9888   3.3747838958e+01   6.7393632346e+00    0.1624617   0.09804527 -29.59 0.0003497625    1.440    0.305
       198 -10.0165    152.8611    124.1185   4.5022711831e+01   2.6698317839e+01    0.2154596    0.2035325 -80.81 0.0002630216    1.192    0.161
       199 -13.0402     79.8850     59.1513   4.7051978291e+01   5.5837898068e+01     1.022785    0.6021488  29.48  0.004388029    1.963    0.491
       200 -13.1232     79.1314     50.4885   4.3995531652e+01   5.7702229755e+01    0.9193234    0.5515179  32.15  0.004092417    1.822    0.451
       201  -9.4349    206.6230    122.4951   3.3562593795e+01   1.5867272061e+01    0.1415729    0.1247707 -26.21 0.0007970344    1.053    0.051
       202 -10.2046    218.9506    121.4512   3.1214818686e+01   1.3648060005e+01    0.3404062    0.1359641  48.79  0.001362985    2.755    0.637
       203 -13.0640     36.8909     54.4408   6.3891315695e+01   6.3381996149e+01    0.8186435    0.6499114  75.03  0.002066357    1.744    0.427
       204  -9.2822     73.0122    118.9857   6.6283639589e+01   4.2902935291e+01     0.171252    0.1645354 -87.07            0    1.025    0.024
       205 -11.3330     96.1447    102.2523   5.4950994004e+01   4.3121072680e+01    0.4088123    0.2132617 -45.39  0.001620674    1.892    0.471
       206  -9.9418    242.7477    101.0132   2.2962223194e+01   1.2300315762e+01    0.1888597    0.1500815  10.05 0.0004774171    1.440    0.305
       207 -11.5451     33.9139    100.5860   7.6209259817e+01   5.2375384107e+01    0.2530859    0.2442217  29.12 0.0001430431    1.180    0.152
       208 -13.1423    107.4060     94.3000   4.9257949250e+01   4.2758726444e+01    0.8050889    0.6081989 -26.13  0.001927205    1.509    0.337
       209 -12.3783    116.4583     93.5098   4.6344570087e+01   4.1043396651e+01    0.4599267    0.3671734 -50.40  0.001409275    1.257    0.205
       210 -11.6950     96.9049     90.9468   5.1574812297e+01   4.5612011672e+01    0.5750011    0.3999786  48.00  0.001895689    1.517    0.341
       211 -12.2221     86.8554     98.4997   5.6964386708e+01   4.5700312642e+01    0.6280864    0.3701293  27.53  0.002605619    2.011    0.503
       212 -10.7460    169.7490     97.5201   3.4308071118e+01   2.8196312145e+01    0.5252116    0.3763265  82.72  0.002272246    2.054    0.513
       213 -11.6826    226.1696     97.4693   2.4433183894e+01   1.5997192634e+01    0.3067204    0.2703356  62.54  0.001841241    1.337    0.252
       214 -11.1866    144.5010    103.3829   4.1658901963e+01   3.2782446739e+01    0.3778155    0.3034492  21.08   0.00114605    1.421    0.296
       215 -10.2747     17.4699     95.7819   8.1526373570e+01   5.4940519561e+01    0.2880253    0.1824799  82.35  0.001008203    1.660    0.398
       216 -11.0909     11.9798     97.4916   8.3782623693e+01   5.4866744580e+01    0.2713547    0.2197437 -55.53  0.001063851    1.178    0.151
       217 -11.0740     13.5252     93.5546   8.2691137423e+01   5.5764213641e+01    0.2383732    0.2061901 -58.36 7.976599e-05    1.113    0.102
       218 -11.4310    199.6873     95.0801   2.8001565224e+01   2.1905611785e+01    0.5990841    0.2696098 -35.58  0.001861089    2.031    0.508
       219 -14.2823    194.6669     85.7665   2.6409281905e+01   2.4563971096e+01     2.652813     2.123274 -11.20   0.01371401    1.376    0.273
       220 -10.3163    181.3721    117.4144   3.7107504734e+01   2.1943322404e+01    0.3792262    0.1282102 -42.58  0.001251599    2.904    0.656
