#   1 NUMBER                 Running object number                                     
#   2 MAG_AUTO               Kron-like elliptical aperture magnitude                    [mag]
#   3 X_IMAGE                Object position along x                                    [pixel]
#   4 Y_IMAGE                Object position along y                                    [pixel]
#   5 X_WORLD                Barycenter position along world x axis                     [deg]
#   6 Y_WORLD                Barycenter position along world y axis                     [deg]
#   7 A_WORLD                Profile RMS along major axis (world units)                 [deg]
#   8 B_WORLD                Profile RMS along minor axis (world units)                 [deg]
#   9 THETA_WORLD            Position angle (CCW/world-x)                               [deg]
#  10 FWHM_WORLD             FWHM assuming a gaussian core                              [deg]
#  11 ELONGATION             A_IMAGE/B_IMAGE                                           
#  12 ELLIPTICITY            1 - B_IMAGE/A_IMAGE                                       
         1 -14.8088      3.5952    129.2203   1.4417337240e+02   4.8151866212e+01     4.989682    0.5140872 -74.67    0.0133646    7.087    0.859
         2 -13.4651    198.6335     28.6142   6.7580439177e+01   3.1983009432e+01     1.515469      1.15447  54.54  0.005999945    1.346    0.257
         3 -13.6456    214.9044      7.9324   6.0326624926e+01   3.0205864094e+01    0.9603512    0.7999663  70.77  0.002799331    1.197    0.164
         4 -10.8312      3.1774      3.3445   1.1681243462e+02   7.4346976667e+01    0.2462648    0.1516339 -26.69  0.001717482    1.263    0.208
         5 -11.9160    126.9949    250.2671   1.3012505579e+02   7.8324622701e+00    0.5034242    0.2472686 -64.99  0.002687445    2.840    0.648
         6 -12.0766    248.9937    247.0309   1.0817021057e+02  -1.0473211227e+01     0.526271    0.3060571 -26.31  0.003473144    1.844    0.458
         7 -12.3619    238.2627    247.7532   1.1005265472e+02  -9.0569719085e+00    0.4292761    0.3480763 -38.59  0.003145833    1.828    0.453
         8 -11.6422    139.4402    250.0062   1.2783739202e+02   5.9259088046e+00      0.35615    0.1770181  41.94  0.001975527    1.557    0.358
         9 -11.8531     99.1651    248.8685   1.3500652423e+02   1.2257526810e+01    0.3659814     0.282605  20.86  0.002407833    1.908    0.476
        10 -13.5740     32.9578    246.5479   1.4627394096e+02   2.1303556438e+01     1.557505    0.6528317  37.53  0.009082078    2.329    0.571
        11 -10.4918     81.0355    248.7227   1.3821474930e+02   1.4865768561e+01     0.315029    0.1261237  65.21  0.001405658    3.228    0.690
        12 -13.4690      6.3400    246.7892   1.5053872240e+02   2.4080123081e+01     1.615846     0.972887 -84.62    0.0125391    1.513    0.339
        13 -14.7508     34.2741    229.5954   1.4509705867e+02   2.4174836469e+01    0.9231694    0.8960073  30.70  0.007601507    1.687    0.407
        14  -9.7872    187.2970    241.6400   1.1803636198e+02  -5.7999077538e-01    0.1123236   0.08817064  63.84 0.0007033609    1.708    0.415
        15 -11.7223    227.0599    249.4343   1.1218951451e+02  -7.6320234557e+00    0.5069737    0.1263633  36.72  0.002071541    3.297    0.697
        16 -11.5295     50.2780    234.9565   1.4262157638e+02   2.1302300794e+01    0.2395858    0.1817084 -57.49  0.001700501    1.860    0.462
        17 -11.3633    125.4912    232.5084   1.2841551526e+02   1.0906957310e+01    0.2422949    0.1691692  49.93  0.001359064    1.151    0.131
        18 -12.4221    114.4226    231.8304   1.3045540726e+02   1.2786359214e+01    0.9352768   0.08513523  42.54  0.002457722    6.610    0.849
        19 -12.2091     90.8370    227.5676   1.3452101865e+02   1.7146015922e+01    0.4912217    0.1944396  48.58   0.00238829    2.031    0.508
        20  -9.8610    155.9957    228.5050   1.2204424217e+02   6.5030205792e+00    0.1827069   0.09808887  24.70 0.0008106738    2.608    0.617
        21  -9.9117    173.5993    222.3107   1.1776734312e+02   4.4556866463e+00    0.2649031    0.1819028  48.81  0.001533636    1.350    0.259
        22 -12.8466     45.7974    216.2411   1.4211142084e+02   2.5353835579e+01    0.6677065    0.4455231  60.73  0.002491846    1.177    0.150
        23 -11.1781     58.4774    212.9756   1.3942322834e+02   2.4410586217e+01    0.4843509    0.1268842  53.92  0.001812987    3.804    0.737
        24  -8.8012    152.5209    213.0191   1.2051179046e+02   9.6376481287e+00    0.1627925    0.1321739 -51.27 0.0003423715    1.453    0.312
        25 -12.4938      9.5634    207.2240   1.4824728030e+02   3.1006499819e+01    0.6239466    0.4102452  30.22  0.003162369    1.978    0.495
        26 -11.9511     58.0636    200.1037   1.3835818607e+02   2.7052340096e+01    0.2511773    0.2130314 -86.53 0.0005153556    1.205    0.170
        27 -10.0450      9.1527    194.0667   1.4761084682e+02   3.3665058456e+01    0.2157719    0.1270889  49.39 0.0006625282    1.517    0.341
        28 -12.2159     64.7745    191.4577   1.3609822614e+02   2.7973501164e+01    0.2539484    0.2230252  85.93 0.0003834236    1.153    0.133
        29 -10.7145     27.7094    185.9088   1.4338856514e+02   3.3555803222e+01    0.3200085    0.1241162  66.85  0.001437095    2.829    0.647
        30 -13.1838     61.9185    176.5233   1.3508190741e+02   3.1585237611e+01    0.4833019     0.267841 -48.13  0.001671022    2.344    0.573
        31 -10.9768     75.6073    178.2313   1.3218056622e+02   2.9320339894e+01    0.2358746    0.2056687  82.45 0.0003169844    1.058    0.055
        32 -13.8938      9.2882    156.2558   1.4507778701e+02   4.1685252358e+01     1.834205    0.8002601 -86.54  0.009562407    1.976    0.494
        33 -11.2510    175.1585    249.6836   1.2132603493e+02   2.9534038221e-01    0.3618565    0.1117771  44.81  0.001549098    2.665    0.625
        34 -12.1608     67.6389    143.5451   1.2922950045e+02   3.8373027105e+01    0.6458638    0.3978879  64.61  0.002186357    1.816    0.449
        35 -10.3252    108.6233    137.7615   1.1739304656e+02   3.3141367818e+01    0.4716889    0.3220928 -14.74  0.001905013    2.724    0.633
        36 -10.7280     95.5821    135.1389   1.2030397971e+02   3.6059083820e+01    0.2399349    0.2325924  65.32 0.0003640941    1.099    0.090
        37  -9.0250     54.3098    131.6404   1.3092303023e+02   4.2910655342e+01    0.1413602   0.09199779  76.06 0.0007041633    1.739    0.425
        38  -9.3113    114.9942    130.0034   1.1406211711e+02   3.3720224693e+01    0.2401778    0.1891732 -11.27  0.001126862    1.792    0.442
        39 -11.3486     26.6315    128.9841   1.3809494041e+02   4.6432298378e+01    0.4344995    0.1954213  50.75  0.002101566    2.441    0.590
        40  -8.6496     76.5086    129.5169   1.2441304598e+02   4.0427077073e+01    0.1433847    0.1240987  87.73 0.0008077807    1.117    0.105
        41 -10.8512     18.7952    125.0160   1.3973321945e+02   4.8012129988e+01    0.2692528    0.1451665  43.93  0.001160608    1.995    0.499
        42  -9.2712    106.0767    124.0746   1.1511880840e+02   3.6766769999e+01    0.2094361    0.1999939 -84.27 0.0003113816    1.005    0.005
        43  -8.5586     40.2985     95.6591   1.2873637779e+02   5.2943436377e+01    0.1296852   0.09331493  80.18 0.0007034683    1.666    0.400
        44 -10.3327    242.7560     91.7631   7.7918227577e+01   1.2244138563e+01    0.2395476   0.09071845 -43.21 0.0008931952    2.462    0.594
        45 -12.1990     83.5295    168.6111   1.2904227913e+02   3.0284172977e+01    0.7299019    0.6475191 -54.17  0.004454058    1.309    0.236
        46 -10.9035    158.4153     76.4209   8.8738829878e+01   3.5198568288e+01    0.3012196    0.2746324 -75.76 0.0007419191    1.164    0.141
        47 -10.6438     96.2935    153.1761   1.2347782070e+02   3.1755729523e+01    0.3181555    0.2958111 -35.73  0.000795675    1.292    0.226
        48  -9.5689     99.2146    148.8080   1.2196188854e+02   3.2265596500e+01    0.2118208    0.2051276 -81.49 0.0004450172    1.113    0.102
        49 -11.5146      2.8758     50.0889   1.3283586518e+02   6.5724393581e+01    0.2618891    0.2201272 -47.36  0.001315399    1.107    0.097
        50 -11.4027    198.9608    247.5704   1.1678818121e+02  -3.1816165733e+00    0.2676922    0.2245033 -60.75  0.001865306    1.861    0.463
        51 -11.7621    157.2349    249.4729   1.2454012636e+02   3.1791878530e+00    0.5582888   0.09390617  41.10  0.001780894    4.636    0.784
        52 -12.1560     84.8068    152.0836   1.2618721234e+02   3.3861208397e+01     0.298188     0.246423 -51.95 0.0006693236    1.311    0.237
