#   1 NUMBER                 Running object number                                     
#   2 MAG_AUTO               Kron-like elliptical aperture magnitude                    [mag]
#   3 X_IMAGE                Object position along x                                    [pixel]
#   4 Y_IMAGE                Object position along y                                    [pixel]
#   5 X_WORLD                Barycenter position along world x axis                     [deg]
#   6 Y_WORLD                Barycenter position along world y axis                     [deg]
#   7 A_WORLD                Profile RMS along major axis (world units)                 [deg]
#   8 B_WORLD                Profile RMS along minor axis (world units)                 [deg]
#   9 THETA_WORLD            Position angle (CCW/world-x)                               [deg]
#  10 FWHM_WORLD             FWHM assuming a gaussian core                              [deg]
#  11 ELONGATION             A_IMAGE/B_IMAGE                                           
#  12 ELLIPTICITY            1 - B_IMAGE/A_IMAGE                                       
         1 -13.8303    181.9536     42.0860   6.0845673438e+01   3.4113271935e+01     1.171192    0.8775048   4.41  0.001042252    1.594    0.373
         2 -14.0213    191.9170     34.0782   5.6798365148e+01   3.2534187070e+01     1.206683     1.097824 -19.72   0.00316732    1.125    0.111
         3 -14.8167    201.0929     22.6597   5.2097663133e+01   3.1478101043e+01     2.236798      1.48451  14.68  0.002065333    1.987    0.497
         4 -12.4109     41.1797      8.0671   8.6404148091e+01   6.9604527233e+01    0.4271667    0.2382594   0.27  0.001983717    2.797    0.642
         5 -10.6325     61.4942      1.4823   7.4114020557e+01   6.7381034490e+01    0.2211545     0.101285  36.47 0.0006602398    2.237    0.553
         6 -10.5069    163.3430    214.7890   1.0408274612e+02   9.8491681038e+00    0.2478835    0.1910881 -69.14  0.001345063    1.842    0.457
         7 -12.0189    223.4463    249.0347   9.8631670918e+01  -3.3480070713e+00    0.7986225    0.2110816  43.27  0.003673853    3.024    0.669
         8 -14.0380    206.4540    247.2051   1.0107047755e+02  -7.2042125722e-01    0.9875991    0.5301024  41.00  0.004146924    1.414    0.293
         9 -12.3457    194.4720    250.4945   1.0340181683e+02   7.0476778873e-01     0.629517    0.1519556  42.64  0.002649328    3.048    0.672
        10 -16.5720     72.1927    151.5639   1.1415116749e+02   3.5594150529e+01     15.27628     7.162922  80.66   0.03224136    4.487    0.777
        11 -11.1528    195.6761    169.9346   9.0834210247e+01   1.0603699245e+01    0.3471708    0.3146677 -27.20  0.001069749    1.237    0.191
        12 -10.7444    192.9900    163.9636   9.0197548844e+01   1.2010603355e+01     0.407741    0.2453445 -58.95  0.001788605    2.860    0.650
        13  -9.4412    211.2833    202.7731   9.3799266450e+01   3.4226438371e+00    0.1534753    0.1497905 -24.87 0.0006463531    1.408    0.290
        14 -10.5827    204.4855    199.0336   9.4366206903e+01   5.0310076489e+00     0.163725    0.1193068 -29.06 0.0006117582    1.570    0.363
        15 -10.7377    145.9437    168.0598   1.0033560430e+02   2.0273134491e+01    0.2068227    0.1852402  47.63 0.0005307559    1.008    0.008
        16  -9.2616    223.7243    164.3380   8.4703400494e+01   6.1487227922e+00     0.115397    0.1050816 -68.14 0.0003723949    1.611    0.379
        17 -10.1045    164.3698    205.9138   1.0265846705e+02   1.0932304954e+01    0.1915456    0.1412266  46.23 0.0003431152    1.150    0.131
        18 -12.5966     93.5847    156.9675   1.0998733615e+02   3.1365421663e+01    0.5472074    0.4074538 -31.90  0.003017566    1.979    0.495
        19 -10.6454    140.3604    157.2130   9.9611594704e+01   2.3283256211e+01    0.2655813    0.2032841  72.49 0.0004725275    1.519    0.341
        20 -10.7666    189.5563    155.0892   8.9097061398e+01   1.4060747698e+01    0.3060341    0.2693541 -37.55  0.001355201    1.261    0.207
        21  -9.7934    113.4669    151.4341   1.0457613067e+02   2.9249206982e+01    0.2366119    0.1274308 -68.59  0.001029391    2.391    0.582
        22 -11.4794    133.7809    144.6843   9.8726457768e+01   2.6919389844e+01     1.024138    0.2654596 -54.74  0.002722185    5.919    0.831
        23 -10.4728    174.8427    148.9662   9.0761963217e+01   1.8018223303e+01    0.2428087    0.2029185 -67.71 0.0007312109    1.513    0.339
        24 -11.5994    106.0742    141.1642   1.0451685442e+02   3.2623222855e+01    0.4829541    0.3413196 -24.01  0.002333501    2.266    0.559
        25 -12.4204     93.6907    141.7276   1.0758415897e+02   3.4531498427e+01    0.2612696     0.233011 -58.98  0.000572286    1.200    0.167
        26  -9.8803    128.2299    139.6068   9.9008158944e+01   2.8974777580e+01    0.2463076     0.173614  37.65  0.001060131    1.441    0.306
        27 -10.0184    167.5079    188.5598   9.9435046483e+01   1.2969523925e+01    0.2360641    0.1874789 -64.15   0.00143062    1.655    0.396
        28 -19.2224      8.8870    158.1679   1.2887747749e+02   4.1009093527e+01     16.25626     2.823509 -80.62   0.05306013    6.073    0.835
        29 -12.5297    119.0784    126.6560   9.8559045710e+01   3.3346711371e+01    0.7827793    0.3877625 -45.54  0.003315412    2.122    0.529
        30 -10.7225    106.0812    130.8162   1.0259769750e+02   3.4807295555e+01    0.3174126    0.2708892  86.82  0.001134613    1.191    0.161
        31 -11.2658    135.2704    121.5945   9.3538275416e+01   3.1234046280e+01    0.6522554    0.1348438 -50.97   0.00147337    6.958    0.856
        32 -11.2651    114.0055    131.2107   1.0072880737e+02   3.3323743516e+01    0.3488976     0.295755 -15.05  0.001798857    1.544    0.352
        33  -8.9095    144.7302    129.3132   9.3060503641e+01   2.7776732712e+01    0.1406993    0.1131746 -89.55 0.0001954256    1.550    0.355
        34 -10.2828    160.6157    127.8076   8.9177707082e+01   2.4750414808e+01    0.2092024    0.1365574 -52.63 0.0009546729    1.736    0.424
        35 -10.5963    125.6961    127.5919   9.7150794439e+01   3.1899502293e+01    0.3580783     0.223683  75.98  0.001383604    2.650    0.623
        36 -11.0281    101.3280    127.6072   1.0316301097e+02   3.6308619904e+01    0.2527206    0.2197757 -29.26  0.000421057    1.400    0.286
        37 -10.2231    109.4735    119.8784   9.9523181127e+01   3.6545341056e+01     0.229616     0.192585  48.06 7.889594e-05    1.189    0.159
        38 -10.0985    167.5756    112.3662   8.3979966936e+01   2.6083243286e+01    0.3237542    0.2356341 -73.50  0.001334358    1.994    0.498
        39 -11.7386    119.9217    111.0549   9.4872905061e+01   3.6459147227e+01    0.3702173    0.2801367  76.44  0.001788113    1.632    0.387
        40 -10.0497    205.6441    110.1095   7.5872589532e+01   1.7860915742e+01    0.2742219    0.2036957  39.22 0.0006574014    1.330    0.248
        41 -16.5359     53.9292    204.8281   1.2327676139e+02   2.7501052658e+01     3.742454     1.943709  60.51   0.02335552    1.606    0.377
        42 -11.3371     80.6251    196.4727   1.1750484258e+02   2.5601901399e+01    0.4568668    0.3712022 -10.95  0.002904425    2.253    0.556
        43  -9.9534    134.6595    103.8579   8.9402871830e+01   3.4946893518e+01    0.4622681    0.1332693 -47.78  0.001368352    3.710    0.730
        44 -10.6574    210.5450    178.7110   8.9759879514e+01   6.6245780476e+00    0.3225674     0.246535  23.43   0.00150452    1.158    0.137
        45 -11.1529    206.1607    181.1318   9.0982876248e+01   7.0870390713e+00    0.3094185    0.2484765  61.27  0.001857308    1.619    0.382
        46 -11.1295     99.4883    180.7559   1.1194578499e+02   2.5781717414e+01    0.2330931    0.1873818  55.10 0.0006334294    1.078    0.072
        47  -9.5566    183.1241     78.3098   7.1594687459e+01   2.8354258080e+01    0.2388609    0.1801208  36.71 0.0005297305    1.387    0.279
        48  -9.6209     61.7958     71.4144   1.0189115254e+02   5.4783189315e+01    0.1672158      0.12973  12.50  0.000444138    1.600    0.375
        49  -9.3161     66.0764     70.5782   1.0021776445e+02   5.4379770318e+01    0.2658942    0.1160063  46.23    0.0010938    2.769    0.639
        50 -11.3497    162.2117     63.3356   7.1285188415e+01   3.6032681707e+01    0.3728413     0.278834 -78.58 0.0005189832    1.791    0.442
        51 -10.4806    162.9483     55.9272   6.8774653611e+01   3.7030942134e+01    0.2274649    0.2255574  75.69  0.000404164    1.038    0.037
        52  -9.8026    173.6783    246.3148   1.0627874715e+02   4.2484751385e+00    0.1052304   0.07235882  58.05 0.0002787357    1.659    0.397
        53 -12.2471    236.0637    239.2147   9.5313423728e+01  -4.2468505462e+00    0.4926258    0.2625619  33.46  0.002102472    1.384    0.278
        54 -11.0309    177.8445    237.3969   1.0450592523e+02   4.6501232466e+00    0.1565847    0.1482595  56.50  0.000702355    1.352    0.260
        55 -10.5500    189.7007     14.9903   5.1174304067e+01   3.5308754992e+01    0.2043099    0.1873447 -32.52 0.0007186797    1.115    0.103
        56 -11.2261    144.8280    179.8381   1.0250050002e+02   1.8421088453e+01    0.2318392    0.2056872  42.14  0.001145469    1.060    0.057
        57 -12.1954    193.5054    194.0114   9.5491147656e+01   7.5842924037e+00    0.6933469     0.443832 -54.28  0.003746762    2.356    0.576
        58  -9.4871    180.1707    192.2261   9.7641112282e+01   1.0178156221e+01    0.1671516    0.1382664  58.47 0.0004615134    1.358    0.264
