#   1 NUMBER                 Running object number                                     
#   2 MAG_AUTO               Kron-like elliptical aperture magnitude                    [mag]
#   3 X_IMAGE                Object position along x                                    [pixel]
#   4 Y_IMAGE                Object position along y                                    [pixel]
#   5 X_WORLD                Barycenter position along world x axis                     [deg]
#   6 Y_WORLD                Barycenter position along world y axis                     [deg]
#   7 A_WORLD                Profile RMS along major axis (world units)                 [deg]
#   8 B_WORLD                Profile RMS along minor axis (world units)                 [deg]
#   9 THETA_WORLD            Position angle (CCW/world-x)                               [deg]
#  10 FWHM_WORLD             FWHM assuming a gaussian core                              [deg]
#  11 ELONGATION             A_IMAGE/B_IMAGE                                           
#  12 ELLIPTICITY            1 - B_IMAGE/A_IMAGE                                       
         1  -8.1718    201.5250     11.5604   6.3504521881e+01   3.2631062766e+01    0.1380703    0.1226136  82.31 0.0002790729    1.035    0.034
         2  -8.8722     93.9804    247.4666   1.3722506086e+02   1.3796365832e+01    0.2181888    0.1391068  78.00  0.001392849    1.688    0.407
         3  -9.5906    223.4479    226.7842   1.1052068215e+02  -4.2016960945e+00    0.4121527    0.3768844 -70.79  0.002810136    1.888    0.470
         4 -12.0668    214.9001    225.4211   1.1183959046e+02  -2.6446365266e+00     2.784156     1.410834 -53.24   0.01135462    4.727    0.788
         5 -11.9211    205.6820    205.6326   1.1020401430e+02   1.5886843091e+00     2.711385     1.417381   2.75  0.008530594    5.601    0.821
         6 -10.9411    239.9930    218.2942   1.0616558716e+02  -5.8160083255e+00     1.888552     0.775033 -17.14  0.007332205    4.172    0.760
         7 -11.6047    229.1084    200.0567   1.0483836797e+02  -1.7408517111e+00     2.158771    0.6964226 -24.30   0.00610299    6.766    0.852
         8 -10.9726    224.3302    191.7544   1.0415606727e+02   2.3192712484e-01    0.6274157    0.4538662 -24.36  0.002252372    1.423    0.297
         9 -11.3322    248.6494    213.9634   1.0391446870e+02  -6.6545660207e+00    0.9141692    0.3793106 -32.19  0.004549996    2.532    0.605
        10 -13.0186    240.9584    201.6009   1.0301140364e+02  -3.9296390173e+00     2.227607     1.189243 -40.16   0.01147091    2.303    0.566
        11 -11.7114    249.3125    181.5688   9.7732593368e+01  -2.7207796420e+00     1.060865    0.7080773 -33.53  0.005321849    1.576    0.366
        12 -12.5524    248.7511    243.2518   1.0880431628e+02  -9.8431991533e+00      1.41931     0.307869 -33.77  0.005647421    5.182    0.807
        13 -12.4954    242.2070    243.0269   1.0986857594e+02  -8.8816582560e+00    0.8983024     0.427206 -31.94   0.00502061    2.425    0.588
        14  -9.4398    210.7684    244.8130   1.1559694176e+02  -4.3219220780e+00    0.3802964     0.211512   8.17  0.001928323    2.600    0.615
        15  -8.6413    213.7967    240.9692   1.1448334036e+02  -4.3508505776e+00    0.2145327    0.1627511  -2.57 0.0009546583    1.374    0.272
        16  -8.7557    200.7522    249.4577   1.1804912757e+02  -3.2905098096e+00    0.2584748     0.146799  20.56  0.001341127    1.873    0.466
        17  -8.7009    166.4844    249.7388   1.2426953852e+02   2.1619446234e+00    0.2295689    0.1783825  54.04  0.001566468    1.323    0.244
        18  -8.0514    150.8689    250.6724   1.2723156746e+02   4.5502629951e+00    0.2456995   0.08696602  36.43  0.001074195    2.534    0.605
        19  -9.2891    140.9814    249.3352   1.2888216347e+02   6.3210820122e+00    0.3484459    0.2180614  18.64  0.001859325    2.478    0.597
        20  -8.4116     40.8456    248.1240   1.4642620856e+02   2.0628808731e+01    0.1297298    0.1106125  71.17  0.001080764    1.335    0.251
        21  -9.7928    192.0434    245.0063   1.1898416042e+02  -1.3647206781e+00    0.3456843    0.2889309 -11.22  0.002469168    1.402    0.287
        22  -9.0509    131.6062    246.4241   1.3027573846e+02   8.2403514147e+00    0.3045194     0.195589  51.36  0.001911205    1.256    0.204
        23  -9.3681    103.6559    244.5618   1.3521106653e+02   1.2843206041e+01    0.3472994    0.1723676 -60.46  0.001979804    2.461    0.594
        24  -9.0714    177.7450    245.3042   1.2163102049e+02   9.1837953998e-01    0.3225059    0.1805159  33.89  0.001844337    1.460    0.315
        25  -8.7296    112.6939    245.3613   1.3363808087e+02   1.1350545518e+01    0.2381295    0.1401653 -67.57  0.001436627    2.144    0.534
        26  -9.4576    146.5965    241.6608   1.2693599100e+02   6.5347053583e+00    0.3424531    0.2176816 -60.80  0.002045139    2.151    0.535
        27  -9.3140    120.2789    242.8173   1.3197690182e+02   1.0578226272e+01    0.3126036    0.1862876 -48.93  0.001858607    2.254    0.556
        28  -8.7312    169.1250    242.3216   1.2281989263e+02   2.7323205373e+00    0.1830486    0.1584733   0.45 0.0009073565    1.374    0.272
        29  -8.3095     67.8068    243.6096   1.4155112472e+02   1.8048108918e+01    0.1666808   0.07385445  49.65 0.0009533048    1.678    0.404
        30  -8.4099     57.8351    243.3426   1.4326684825e+02   1.9376976053e+01    0.1570587    0.1070411  69.61 0.0008986766    1.162    0.140
        31  -8.6906     49.8882    242.8037   1.4459527997e+02   2.0451253461e+01    0.2000768    0.1039932  85.03  0.001244146    1.913    0.477
        32  -8.9720    201.5954    241.2119   1.1670772425e+02  -2.4364616600e+00    0.2091171    0.1737319  -0.35 0.0007725451    1.291    0.226
        33 -10.0492    203.9957    233.7583   1.1514966812e+02  -1.9018732257e+00    0.4266806    0.2971985 -21.20  0.002681781    1.681    0.405
        34  -9.4366    159.5639    238.5412   1.2410593844e+02   4.8487714915e+00    0.3637706     0.230358 -52.48  0.002162826    2.093    0.522
        35  -8.7329    162.5111    235.4227   1.2313381718e+02   4.8066175813e+00    0.2135937    0.1264326 -47.04  0.001210821    2.166    0.538
        36  -7.9926      9.3353    241.6730   1.5119097707e+02   2.5089563529e+01    0.1107783   0.04706693  63.29    0.0005917    1.721    0.419
        37  -9.7200    138.5319    237.6933   1.2797160559e+02   8.4528427640e+00    0.2818339    0.1807232  74.87  0.001523499    2.270    0.559
        38  -9.6820    189.8208    236.9371   1.1823171009e+02   2.7388588381e-02    0.2575677    0.2077423 -41.62 0.0007587537    1.625    0.385
        39  -9.2902    183.5892    237.6550   1.1948953149e+02   9.6647252817e-01     0.295607    0.1726043  27.06  0.001563855    1.652    0.395
        40  -8.5316    112.2389    238.5694   1.3302602877e+02   1.2508205379e+01    0.1652077   0.09717444  36.68    0.0007425    1.589    0.371
        41  -9.1546     90.1136    237.2336   1.3700983319e+02   1.6046339529e+01    0.2558605    0.1350577 -47.02  0.001347865    3.026    0.669
        42  -9.0144     49.8287    235.8213   1.4415453312e+02   2.1664042575e+01    0.1547724    0.1252166  63.32 0.0005065031    1.186    0.157
        43  -8.6201     25.8635    236.1270   1.4826558646e+02   2.4348506186e+01    0.1768108    0.1009489  65.14  0.001249405    1.288    0.224
        44 -10.1296    173.8176    231.1088   1.2038551025e+02   3.5135658766e+00    0.4219683    0.3203914   2.08   0.00199204    1.638    0.390
        45  -8.3944    152.9114    233.6386   1.2472287590e+02   6.6846838666e+00    0.1845472    0.1672901  -6.83 0.0009112301    1.381    0.276
        46  -9.8935    195.1112    230.5562   1.1629646922e+02  -1.5190719340e-02    0.3739099    0.2537508  -1.37  0.002035569    1.866    0.464
        47  -9.2521    199.4476    224.3150   1.1451316826e+02   8.4443357468e-02    0.4311619    0.2173835  25.34  0.002034375    2.200    0.545
        48  -9.1963     99.4662    232.7164   1.3482967756e+02   1.5435723697e+01    0.2150926    0.1871417  -4.66  0.001247125    1.848    0.459
        49  -9.3031     56.5182    231.4233   1.4266343625e+02   2.1613755479e+01    0.2683388     0.128943 -75.26  0.001571858    2.145    0.534
        50  -9.4943    186.4125    229.0727   1.1770031377e+02   1.6545938929e+00    0.2971531    0.2568469 -31.21  0.002020836    1.425    0.298
        51  -9.2307    157.8122    230.4692   1.2335785731e+02   6.3340124673e+00     0.295359    0.1908904  35.13 0.0008389132    1.325    0.245
        52  -9.9186    161.6560    225.1974   1.2187766108e+02   6.4752131947e+00    0.3675144    0.2170107 -42.71  0.001527975    2.115    0.527
        53  -9.2588    195.4899    237.2863   1.1723940332e+02  -9.5290463633e-01    0.2703619    0.1879545  34.76  0.001459042    1.112    0.101
        54  -8.5776    123.1466    230.8267   1.3009690877e+02   1.2053627275e+01    0.1648464    0.1312263  32.14 0.0008338588    1.344    0.256
        55  -8.0903     67.5048    231.5046   1.4067618225e+02   2.0179977027e+01    0.1172932    0.0857384  63.08 0.0008104044    1.035    0.034
        56  -9.6244    110.4001    228.5561   1.3230102702e+02   1.4466807526e+01    0.3163646    0.1449794  33.19   0.00146069    2.451    0.592
        57  -8.0111     41.0000    237.9833   1.4581590320e+02   2.2336210051e+01    0.1557461   0.05322467 -75.03  0.000802743    2.945    0.660
        58  -9.1011     79.9965    229.1535   1.3816160853e+02   1.8892257508e+01    0.1747182    0.1350547  18.24  0.001096795    2.029    0.507
        59  -8.9286    141.3188    227.7282   1.2618831689e+02   9.5563488672e+00    0.2686384    0.1493518  35.09  0.001407845    1.655    0.396
        60  -8.6285    149.1851    225.8019   1.2439613393e+02   8.5276321620e+00    0.2806404    0.1474219 -59.42  0.001385569    2.683    0.627
        61  -8.7233    149.5831    220.1097   1.2353153791e+02   9.3718104935e+00    0.2544226    0.1879286  22.98  0.001478091    1.517    0.341
        62  -9.7466    128.6039    223.6048   1.2815770950e+02   1.2364954396e+01    0.4707903    0.2242944 -36.07  0.001873011    4.387    0.772
        63  -9.2698    174.1142    220.1598   1.1870530757e+02   5.0651039845e+00    0.3289965    0.2026602  30.51   0.00135549    1.506    0.336
        64  -9.0716    182.1493    221.2798   1.1732054647e+02   3.4915075787e+00    0.4892398    0.2992015  36.80  0.002712957    1.334    0.250
        65  -9.1262    178.6269    216.4353   1.1724595513e+02   4.8277637163e+00    0.2963679    0.2186486  10.47   0.00170064    1.575    0.365
        66  -8.9509    140.8230    220.4521   1.2532187845e+02   1.0828328964e+01    0.2568566    0.1916534 -37.72  0.001535727    1.751    0.429
        67  -8.5454    113.4745    222.0175   1.3095741614e+02   1.5111731636e+01    0.1657866    0.1223558 -66.34 0.0005801823    1.580    0.367
        68  -8.4655     67.1044    222.1889   1.3998526759e+02   2.1917453808e+01    0.1610717    0.1417375  58.53  0.000584527    1.263    0.208
        69  -9.0780    162.3314    217.4397   1.2061179715e+02   7.5634913885e+00    0.3140596    0.2907162  19.61  0.002096321    1.175    0.149
        70  -9.7558    169.0451    214.1130   1.1877105070e+02   6.8933235987e+00    0.4930309    0.2756476 -25.57  0.002246842    2.864    0.651
        71  -8.6601     28.4873    219.4664   1.4690036159e+02   2.7062534835e+01    0.1102569   0.07913366  69.76  9.32553e-05    1.009    0.009
        72 -11.1135    216.5961    206.8566   1.0836714168e+02  -5.0036537879e-01    0.9649953    0.5355865  -0.54  0.004151275    2.989    0.665
        73 -10.5112    132.8031    212.0391   1.2579365716e+02   1.3647272078e+01    0.5040352    0.3862262 -36.36  0.002978747    1.723    0.420
        74  -9.1575    120.1138    215.7920   1.2887204793e+02   1.5129034785e+01    0.3075481    0.1532387  36.50  0.001485642    1.904    0.475
        75  -9.6987     52.5673    215.0057   1.4215824010e+02   2.5127975556e+01    0.3062035    0.1981574  67.00  0.002008869    1.261    0.207
        76  -8.3745     84.4944    214.5132   1.3589142175e+02   2.0926034264e+01    0.1236492   0.09857902  62.24 0.0008105197    1.005    0.005
        77  -9.3231    185.6007    212.1718   1.1519635961e+02   4.2238788262e+00    0.2925313    0.2198853  -2.45  0.001312769    1.587    0.370
        78  -8.6072    154.2025    212.9083   1.2156283396e+02   9.7401543838e+00    0.2556449    0.1604427  21.14  0.001243357    2.100    0.524
        79  -8.8841    143.2623    212.4873   1.2372088562e+02   1.1747568962e+01    0.2291681    0.1992919  56.56  0.001457607    1.111    0.100
        80  -8.9178    124.9818    210.9916   1.2725612589e+02   1.5171780518e+01    0.2103864    0.1398284  66.31  0.001131624    1.654    0.395
        81  -9.4461    162.1787    209.3330   1.1940290341e+02   8.8971421114e+00    0.4854616     0.259862  25.02  0.002089347    2.519    0.603
        82  -8.1185    107.6627    210.3252   1.3073153480e+02   1.8159006704e+01    0.1361873   0.08419511  66.06 0.0007051393    1.721    0.419
        83 -10.0060    197.4264    201.3560   1.1103933788e+02   3.7046506518e+00    0.6612694    0.2953997  34.82  0.002886131    2.078    0.519
        84  -9.5628    191.9208    208.3059   1.1331806447e+02   3.6652807773e+00    0.3585759    0.2580662   0.17   0.00130907    1.668    0.401
        85  -8.9029    195.5251    206.9952   1.1239367920e+02   3.2102564942e+00    0.3075165    0.1996002  -2.36  0.001532255    2.125    0.529
        86  -9.8144    175.1553    207.0658   1.1642420685e+02   6.9015326688e+00    0.4285811    0.3033853  23.39  0.002359667    1.450    0.310
        87  -9.0583    148.2934    205.6994   1.2168432602e+02   1.2022160158e+01    0.3412004    0.2515579  -1.75  0.001776321    2.072    0.517
        88  -9.8582    124.6053    206.0279   1.2666195687e+02   1.6138323964e+01    0.3351627    0.1785505  43.49  0.001665261    1.583    0.368
        89  -8.6726     32.3200    207.3193   1.4543413875e+02   2.8951999058e+01   0.09671828   0.08281755 -55.48 0.0006644045    1.665    0.399
        90  -8.8814     85.9990    205.9961   1.3468595594e+02   2.2333328023e+01    0.1945111    0.1621601  66.17 0.0006452309    1.035    0.034
        91  -9.5919    185.1658    201.5157   1.1348521096e+02   5.9364946184e+00    0.4568196    0.2942613  12.14  0.002204527    2.078    0.519
        92  -9.1326    139.4979    202.9587   1.2310255309e+02   1.4086985834e+01    0.2428576    0.1991333 -43.29  0.001068615    1.467    0.318
        93  -9.3201    141.5261    198.0431   1.2192422806e+02   1.4611756448e+01    0.3097226    0.2575353   3.92  0.001350782    1.554    0.357
        94  -9.3235    131.6145    201.0876   1.2448641995e+02   1.5829379620e+01      0.46464    0.3201075  12.57  0.002243726    2.339    0.572
        95  -8.5433     57.3237    202.3132   1.4016505623e+02   2.7001005524e+01    0.1032909   0.09302036 -39.13 0.0007040706    1.660    0.397
        96  -9.1258     40.9613    201.1363   1.4332519023e+02   2.9204696743e+01    0.2665501    0.1132364  74.33  0.001239893    2.758    0.637
        97  -9.9612    163.9415    199.6010   1.1747319361e+02   1.0199580761e+01    0.5725485    0.2941775  26.97  0.002354649    2.547    0.607
        98  -9.0110     72.5963    200.7515   1.3689484305e+02   2.5287090288e+01    0.2228843     0.107447 -63.67  0.001143531    2.136    0.532
        99  -9.2569    100.2417    199.4432   1.3093358448e+02   2.1428104292e+01    0.2473751    0.1166248  36.93  0.001135767    2.069    0.517
       100  -7.8430     67.6103    199.7079   1.3782011526e+02   2.6177149177e+01    0.1088766    0.0969681 -14.28 0.0007010142    1.772    0.436
       101  -9.4294    177.1759    196.8587   1.1428701306e+02   8.1771201394e+00    0.3922291    0.2575363  19.54  0.001429019    1.811    0.448
       102  -9.2937    149.0575    194.6965   1.1978899444e+02   1.3835195545e+01    0.3104568     0.240279  22.04  0.001451361    1.450    0.310
       103  -9.3460    194.7074    193.9594   1.1024177883e+02   5.3414428589e+00    0.3436952    0.2165418  33.43  0.001764956    1.416    0.294
       104  -8.7867    124.1836    195.1978   1.2521090837e+02   1.8245960303e+01    0.1958987    0.1459583  64.39  0.001085051    1.346    0.257
       105  -8.7079     54.0234    193.4895   1.4003642681e+02   2.9195455484e+01    0.1764806    0.1066307  40.97  0.001033004    1.593    0.372
       106  -8.5176    114.4590    192.4843   1.2693091911e+02   2.0455823542e+01    0.1353956    0.1160495  58.64 9.606467e-05    1.011    0.011
       107  -9.1560    105.6334    192.0194   1.2879589970e+02   2.2027568295e+01     0.254194    0.1867226  38.12  0.001263595    1.348    0.258
       108  -9.5069    208.3875    189.0445   1.0664821597e+02   3.5358296897e+00    0.5937256    0.2316311  31.73  0.002155942    3.057    0.673
       109  -9.9107     79.2601    188.8913   1.3416940509e+02   2.6756610631e+01    0.3943413    0.2608463  37.05   0.00221402    1.555    0.357
       110  -9.6473     64.8526    190.1569   1.3742510425e+02   2.8493554168e+01    0.1563459    0.1474555 -69.39 0.0008655242    1.342    0.255
       111 -10.0845    217.5667    185.8362   1.0428029949e+02   2.3118395718e+00    0.4405031    0.2280882  23.56  0.001874099    2.386    0.581
       112  -8.5244    191.3418    185.4107   1.0932298626e+02   7.3493777561e+00    0.2549933    0.1773024 -40.48  0.001334364    1.622    0.383
       113 -11.3813    229.8894    216.4427   1.0762616092e+02  -3.9787116861e+00     1.017789    0.5650612  11.58  0.005057985    2.231    0.552
       114  -8.6332     33.5407    183.9348   1.4346718383e+02   3.3524719197e+01    0.1567404   0.07684136 -53.82 0.0008082467    2.504    0.601
       115 -10.4006    234.2609    228.5814   1.0890599784e+02  -6.1185997896e+00     1.055616    0.4169476  45.43   0.00488642    2.631    0.620
       116 -11.4578    247.0366    193.2707   1.0039279855e+02  -3.8679465777e+00    0.7212367    0.4670675 -13.54   0.00303567    1.516    0.340
       117  -8.2487    183.5562    181.2032   1.1011247589e+02   9.5725171055e+00    0.1896532    0.1332923 -22.19  0.000944579    1.693    0.409
       118  -7.8187    156.3096    181.6752   1.1599190974e+02   1.4847380043e+01    0.1412764    0.1083731  73.70  2.36956e-05    1.654    0.395
       119  -7.8685     73.2855    175.3394   1.3385956345e+02   3.0481619633e+01    0.1197566    0.0992082 -38.23 0.0003590841    1.634    0.388
       120  -8.5824     24.7486    171.9966   1.4436373564e+02   3.6927716155e+01    0.1592113   0.08286957 -77.92 0.0009048292    1.637    0.389
       121  -7.6411    227.3053    170.3297   9.9358861183e+01   2.8035118587e+00    0.1431251   0.09686293   8.62  0.000289781    1.655    0.396
       122  -8.1270    175.6728    170.6840   1.0971576790e+02   1.3002659435e+01    0.1490211     0.109566  11.28 0.0004002769    1.674    0.403
       123 -11.8029    234.0485    246.6332   1.1181534502e+02  -8.0638774879e+00    0.7359143    0.5116615   4.30  0.003655957    1.341    0.255
       124  -8.0996    206.4651    166.5512   1.0253570090e+02   7.4583448885e+00    0.1436971    0.1266049  18.35 0.0001757829    1.018    0.018
       125  -9.0138    240.8177    163.5152   9.5522670416e+01   1.2896197667e+00    0.2467811    0.1804934 -24.48  0.001381163    1.306    0.234
       126  -7.8188    184.6614    164.6897   1.0658738632e+02   1.2233000328e+01    0.1520367    0.1095074  12.55 0.0007044697    1.688    0.408
       127  -8.7872    200.5880    161.7488   1.0269168971e+02   9.4538007580e+00     0.194169    0.1370916 -46.15 0.0009503618    1.626    0.385
       128  -9.4238    249.9683    160.5211   9.3330723550e+01   5.5494427951e-02    0.2944815    0.1548237 -13.53  0.001270361    2.429    0.588
       129 -11.0924    249.3981    148.7539   9.0916696938e+01   1.8509655015e+00    0.6975095    0.3948855 -39.82  0.003405858    1.824    0.452
       130 -11.0041    242.9351    154.4959   9.3242320925e+01   2.2163049887e+00    0.5912426    0.4502946  60.67   0.00187017    1.777    0.437
       131 -11.2556    240.4783    149.0108   9.2475141579e+01   3.5000601512e+00    0.6184317    0.3020553  36.62   0.00198443    2.131    0.531
       132  -8.4090    196.9938    154.7441   1.0190779104e+02   1.1409007233e+01    0.2139269    0.1863936  34.52 0.0007937186    1.077    0.072
       133 -10.5251    230.9748    152.7302   9.4955519520e+01   4.7804446902e+00    0.5373592    0.2483812  34.93   0.00219653    2.343    0.573
       134  -9.3156    230.4975    147.9278   9.3985740376e+01   5.6221701786e+00    0.2137332    0.1321166 -31.46  0.001029081    1.578    0.366
       135 -10.3059    224.7622    145.3049   9.4437613106e+01   7.1969907853e+00    0.3810053    0.2382014 -39.65  0.001822864    1.650    0.394
       136  -9.5711    235.0118    143.8073   9.2272961490e+01   5.3642934258e+00    0.2607633    0.1702683 -16.01 0.0008724492    1.645    0.392
       137  -8.3807    202.3195    144.3221   9.8504011477e+01   1.2091413776e+01    0.1547124    0.1116977  10.89 0.0007044404    1.671    0.401
       138 -10.7544    242.0035    138.9143   8.9983322048e+01   4.7327831204e+00    0.3478687    0.2469948  72.17  0.001670664    2.252    0.556
       139 -10.4511    248.7437    134.0105   8.7777338098e+01   4.1558130140e+00    0.4330354    0.2662563  15.52  0.001968989    2.186    0.543
       140  -9.1938    215.6900    135.3430   9.3840346483e+01   1.0740549128e+01    0.2613045     0.211864 -64.91 0.0006754402    1.632    0.387
       141  -8.6518    212.5505    134.4760   9.4230732393e+01   1.1567294846e+01     0.256431    0.2147936  54.36 0.0005737442    1.293    0.226
       142 -11.2739    237.9732    130.9773   8.8864099128e+01   6.7635555545e+00    0.6252188    0.3597148  67.12   0.00252802    2.919    0.657
       143  -8.2701    226.3045    132.3325   9.1198171346e+01   8.9711612191e+00    0.1499425    0.1074599   8.55 0.0002899346    1.660    0.398
       144  -8.3459    187.0248    127.9414   9.7781424908e+01   1.8461507316e+01    0.2521262    0.1869605  11.01  0.001130757    1.694    0.410
       145 -10.5255    231.3532    130.1359   8.9801104930e+01   8.2635594249e+00    0.3696637     0.276535 -31.19  0.001046128    1.282    0.220
       146  -8.8867    201.0126    125.0026   9.4203218630e+01   1.5788530956e+01    0.2357631    0.2252626   6.59 0.0009902738    1.009    0.009
       147 -10.7285    248.8484    123.2908   8.5337336960e+01   5.7482959004e+00    0.3167937    0.2497174 -14.94   0.00176859    1.217    0.178
       148  -9.4367    218.5693    126.5844   9.1243062535e+01   1.1582732942e+01     0.252114    0.2455355 -66.50  0.001439008    1.175    0.149
       149  -9.0730    232.3799    121.7528   8.7664455536e+01   9.3859250858e+00    0.2064745    0.1305038 -22.13 0.0009492522    1.657    0.396
       150  -8.0103    226.4765    116.5146   8.7424228061e+01   1.1508421900e+01    0.1440518    0.1371465 -22.00 0.0006918529    1.050    0.048
       151 -10.4140    243.4625    113.7094   8.3965422618e+01   8.3103461598e+00    0.2653423    0.2385822 -17.81 0.0006277077    1.025    0.025
       152 -10.1082    249.6110    105.2135   8.1042285812e+01   8.3254762066e+00    0.2562849    0.2297116 -19.56 0.0006721951    1.038    0.037
       153 -10.1314    246.8151    102.3127   8.0773407820e+01   9.3494892221e+00    0.2757481     0.179217 -46.80   0.00070162    1.578    0.366
       154  -9.2278    228.6763    104.0549   8.4021431688e+01   1.3034365452e+01    0.2373784      0.20402  72.88 0.0005381178    1.337    0.252
       155  -7.9141    205.6722     98.9720   8.6732079457e+01   1.9239130516e+01    0.2529181    0.1295949 -11.79 0.0006698657    4.479    0.777
       156  -8.1406    221.4410     97.5132   8.3593206501e+01   1.5744660215e+01    0.1464655    0.1396566 -11.81 6.657338e-05    1.034    0.033
       157  -8.9400    234.4948     94.5372   8.0758822223e+01   1.3230550890e+01    0.1423302    0.1344379 -15.46 5.638468e-05    1.043    0.042
       158  -9.9151    244.5221     93.5019   7.9013936113e+01   1.1174913530e+01    0.2432123    0.1724011 -40.40  0.001256353    1.320    0.242
       159  -8.0741    236.3075     86.3385   7.8471281134e+01   1.4084427594e+01    0.1450941    0.1096395  13.47 0.0007042492    1.681    0.405
       160  -8.9675    244.5867     80.7632   7.5942324435e+01   1.3064225870e+01    0.2018308    0.1174618 -42.25 0.0009414928    1.599    0.375
       161  -7.8372    245.5099     71.4778   7.3580772645e+01   1.4210596718e+01    0.1379618    0.1268076 -46.97 0.0001750578    1.003    0.003
       162  -9.1741    245.0465     65.7983   7.2269755820e+01   1.5123968695e+01    0.2338716    0.1875326 -38.02 0.0006032604    1.155    0.134
       163  -9.2843    248.3539     37.9427   6.5260450217e+01   1.8095836081e+01    0.2201513    0.1701268 -78.70 0.0009667702    1.272    0.214
       164  -8.6400    229.1537     37.3760   6.7161537404e+01   2.2691848549e+01     0.190715    0.1243715  86.21 0.0006934046    1.628    0.386
       165  -8.9486    163.1352     29.1989   7.4115017314e+01   4.0841272689e+01     0.230704    0.1893314  43.61 0.0006931576    1.200    0.167
       166  -8.3245    240.5323     18.4749   6.1430337407e+01   2.2227690320e+01    0.1294365    0.1155058 -73.97 7.090854e-05    1.049    0.046
