#   1 NUMBER                 Running object number                                     
#   2 MAG_AUTO               Kron-like elliptical aperture magnitude                    [mag]
#   3 X_IMAGE                Object position along x                                    [pixel]
#   4 Y_IMAGE                Object position along y                                    [pixel]
#   5 X_WORLD                Barycenter position along world x axis                     [deg]
#   6 Y_WORLD                Barycenter position along world y axis                     [deg]
#   7 A_WORLD                Profile RMS along major axis (world units)                 [deg]
#   8 B_WORLD                Profile RMS along minor axis (world units)                 [deg]
#   9 THETA_WORLD            Position angle (CCW/world-x)                               [deg]
#  10 FWHM_WORLD             FWHM assuming a gaussian core                              [deg]
#  11 ELONGATION             A_IMAGE/B_IMAGE                                           
#  12 ELLIPTICITY            1 - B_IMAGE/A_IMAGE                                       
         1  -8.2106    101.2317     29.2081   4.9316627934e+01   5.5250736540e+01    0.1829155    0.1582965 -74.39 0.0006949573    1.378    0.274
         2  -8.4440     55.8060     10.0077   5.4981578072e+01   6.7082083007e+01    0.1704838    0.1676178 -47.26 0.0008102964    1.363    0.266
         3  -8.3846     90.8499      8.7321   4.3717331421e+01   5.9764155030e+01    0.2364204    0.1498616 -52.98    0.0007843    2.100    0.524
         4  -9.3666      6.0611      8.2158   8.0651379240e+01   7.4739309907e+01     0.199309    0.1488156  29.74  0.001348013    1.607    0.378
         5  -8.4038     33.3384      4.8904   6.2126843053e+01   7.1614523004e+01    0.1706835     0.141221 -31.20 0.0008386701    1.500    0.333
         6  -8.1022     79.1950      4.0186   4.4610670054e+01   6.2775969569e+01    0.1885337    0.1305295 -49.30  0.001053964    1.887    0.470
         7  -8.1589     62.2831      1.3861   4.8317538616e+01   6.6595624952e+01    0.1638107    0.1094818  63.73 0.0005496962    1.601    0.376
         8  -8.9811    243.1965    245.7209   7.1874368415e+01  -8.7496528131e+00    0.4093927    0.1721403 -24.67  0.002201856    2.262    0.558
         9  -8.7393    249.1394    249.0742   7.1417982911e+01  -9.7708688919e+00    0.2451454    0.1151944 -23.77  0.001462647    1.856    0.461
        10  -8.6876     25.9988    250.4703   1.1589182026e+02   1.7721625899e+01    0.1720574   0.09553806  34.54  0.001032535    1.596    0.373
        11  -9.3999    248.6117    241.9453   7.0385516175e+01  -8.8520814509e+00    0.2751894    0.1683078 -34.11  0.001181912    1.663    0.399
        12  -8.5498    218.5049    247.4622   7.6410017848e+01  -6.2378504958e+00     0.248395    0.1003822 -36.90  0.001286413    2.438    0.590
        13  -8.9639    156.1765    248.1210   8.8522415964e+01   1.5915980684e+00     0.183428    0.1467892   8.03 0.0004878946    1.126    0.112
        14  -8.9614    132.1626    247.7773   9.3470410436e+01   4.9384098875e+00    0.2149726    0.1716303  58.24 0.0007064245    1.518    0.341
        15  -9.0350     21.4660    247.9782   1.1665271977e+02   1.8664852046e+01    0.1790244    0.1222419  42.94 0.0005603285    1.243    0.195
        16  -9.1402    233.0030    246.0509   7.3649108545e+01  -7.6931156848e+00     0.355854    0.1520231 -27.18  0.001910377    2.216    0.549
        17  -9.9923    223.7437    243.7395   7.4899654902e+01  -6.3525168452e+00    0.4141971    0.1936091 -43.69  0.002183485    2.670    0.626
        18  -9.2592    210.9013    246.5741   7.7648137793e+01  -5.2245532734e+00    0.2042552    0.1554393 -32.98 0.0008667907    1.506    0.336
        19  -9.4280    146.4884    245.9215   9.0224565282e+01   3.2728559458e+00    0.2893347    0.2199172 -17.92  0.001157266    1.445    0.308
        20  -9.2545    120.1985    245.3812   9.5715434732e+01   7.0050812845e+00    0.3389806    0.2269122  67.62  0.001803863    2.191    0.544
        21  -7.9652     76.4787    247.4548   1.0529886423e+02   1.2461470178e+01    0.1219913    0.1028866  43.12  0.000357927    1.043    0.041
        22  -9.1042     34.3034    247.5763   1.1407205647e+02   1.7404206650e+01    0.2283335   0.08377251  36.86  0.001130407    2.122    0.529
        23  -8.8762     67.9321    245.4630   1.0693772674e+02   1.3913485672e+01    0.2934538    0.1509197  62.56  0.001457389    2.222    0.550
        24  -8.8994     49.9957    243.9638   1.1060278370e+02   1.6356991666e+01    0.2990875    0.1232715  78.10  0.001142166    4.168    0.760
        25  -9.0118     77.5913    243.1048   1.0465733818e+02   1.3149497460e+01     0.326278     0.168685  60.68  0.001580089    2.275    0.561
        26  -8.3318     45.3173    244.4205   1.1161109079e+02   1.6803443207e+01     0.174933    0.0874524  42.50 0.0009531163    1.598    0.374
        27  -8.3377     34.8047    243.9848   1.1374941572e+02   1.8052918199e+01    0.2001897    0.1003016  65.75  0.001017921    1.954    0.488
        28  -8.4941    168.9147    243.1321   8.5223937360e+01   6.5140223286e-01    0.1779192    0.1533104  35.74 0.0005948622    1.331    0.249
        29  -9.2629    194.3704    240.1467   7.9752751488e+01  -2.2656336123e+00    0.2879044    0.2064004 -57.20   0.00142079    2.358    0.576
        30  -9.7363    182.3744    240.5353   8.2147712289e+01  -7.5363193839e-01    0.5005661    0.2746143  32.60  0.001993138    1.629    0.386
        31  -9.6848    159.9353    239.9429   8.6596911836e+01   2.3925160747e+00    0.3144489    0.2434189 -79.30  0.001322756    2.304    0.566
        32  -7.9069     88.1926    242.2705   1.0228066612e+02   1.1927272180e+01     0.169975   0.09753591 -79.80 0.0007128291    2.370    0.578
        33  -8.6536    214.2788    240.9933   7.6164135611e+01  -4.8687882998e+00    0.1707443    0.1278747 -10.63 0.0008221911    1.119    0.107
        34  -9.0368     29.7030    241.4609   1.1463906242e+02   1.9097092083e+01    0.2176957   0.08894674  36.66 0.0007041002    1.983    0.496
        35  -8.7794      3.3598    240.1391   1.1983317206e+02   2.1936121911e+01    0.2168559     0.113871  61.84 0.0006254514    1.533    0.348
        36  -8.7049    240.5976    239.6111   7.1341576229e+01  -7.7056370417e+00    0.2873366    0.1063176 -26.14  0.001357188    2.802    0.643
        37 -10.3219    203.2854    237.4316   7.7634337968e+01  -3.0093378293e+00    0.3931697    0.1994614 -40.18  0.001172414    2.076    0.518
        38  -8.4725    146.3757    239.2981   8.9341696432e+01   4.3982074932e+00    0.1514256    0.1241848 -62.49 0.0005729618    1.622    0.384
        39  -8.5800    135.5361    238.7237   9.1573954596e+01   6.0305660502e+00    0.1484266    0.1276975 -75.44 0.0006773131    1.550    0.355
        40  -8.2829    125.2516    239.3535   9.3875786840e+01   7.3737663871e+00    0.1876701   0.09974648  38.88 0.0008140145    1.631    0.387
        41  -9.4196    230.9629    236.8432   7.2540163218e+01  -6.2692581721e+00    0.2589879    0.2048068 -45.52  0.001320101    1.960    0.490
        42  -9.0092     71.8613    238.1807   1.0543863718e+02   1.4843866404e+01    0.2256977     0.153005  30.47 0.0009120221    1.382    0.277
        43  -8.3509     52.2216    238.1992   1.0969345971e+02   1.7243572173e+01     0.182922    0.1153212  54.34  0.001068252    1.376    0.274
        44  -8.0578     19.2184    237.9714   1.1657935260e+02   2.0868513473e+01     0.147552   0.08457099 -84.31  0.000592638    1.693    0.409
        45  -7.8702     13.9595    238.0000   1.1764254060e+02   2.1375996660e+01    0.1801956   0.05738394  28.93   0.00080415    2.954    0.662
        46  -9.9946    214.7005    232.9931   7.4808400162e+01  -3.8029947514e+00    0.4216541    0.3417865 -83.18  0.002267229    3.467    0.712
        47  -9.9119    175.3562    232.7454   8.2357390011e+01   1.4183411857e+00    0.4955849    0.3100673 -61.73   0.00242498    2.895    0.655
        48  -8.2665     57.9769    237.0000   1.0835621189e+02   1.6800145163e+01    0.2037503   0.06168682  31.09 0.0006529428    2.936    0.659
        49  -8.8802    247.7714    234.6684   6.9355967559e+01  -7.8516471313e+00    0.1877724    0.1121898 -36.16 0.0009446001    1.723    0.420
        50  -9.4743    108.8232    234.4392   9.6864930437e+01   1.0602593907e+01    0.4128752    0.2179408  50.30  0.001251149    2.016    0.504
        51  -8.9652     78.8330    234.5020   1.0354603681e+02   1.4677882767e+01    0.2471964     0.155422  79.37  0.001290512    2.016    0.504
        52  -8.1780    122.9481    234.0232   9.3687840786e+01   8.6739687401e+00    0.2057555    0.1440524  58.75 0.0009125841    1.745    0.427
        53  -8.2203     99.7575    234.1555   9.8848193065e+01   1.1923286355e+01    0.2231202    0.1185572  62.91 0.0009503945    2.840    0.648
        54  -8.6235     94.0571    233.1446   1.0000544832e+02   1.2906575017e+01    0.4068314    0.1850923  59.01  0.001561198    3.429    0.708
        55  -9.8800     68.3138    232.2248   1.0566225550e+02   1.6492901334e+01    0.4747994     0.216776  63.92  0.001959536    3.059    0.673
        56  -8.4752    194.3244    232.4911   7.8557734458e+01  -1.1168018412e+00    0.1717424    0.1501486 -53.52 0.0005904033    1.711    0.415
        57  -8.6557    132.6796    232.7060   9.1375204717e+01   7.5156211495e+00    0.2264654    0.1612443  89.84  0.001151334    2.404    0.584
        58  -9.4899    186.3877    230.6049   7.9809837161e+01   2.4115159907e-01    0.2825364    0.2269217 -67.26  0.001196042    2.166    0.538
        59  -9.2683    152.5366    242.3333   8.8472187797e+01   3.0275601215e+00    0.3284343     0.152494  25.37  0.001534611    2.068    0.516
        60  -9.0613    235.9289    230.2386   7.0611053370e+01  -5.9567397957e+00    0.2815917    0.1393344 -37.41 0.0008532942    1.958    0.489
        61  -9.4441    246.6388    228.6556   6.8557999202e+01  -6.9523720646e+00    0.3616827    0.1517195 -34.39  0.001510466    2.081    0.519
        62  -8.8130    151.4671    228.9715   8.6767134190e+01   5.4564250608e+00    0.2537115    0.2032305  73.57  0.001380558    1.936    0.483
        63  -9.6479    148.6526    224.4956   8.6700919480e+01   6.6677042304e+00    0.3561207    0.3314984  78.53  0.001821144    1.411    0.291
        64  -8.9726    140.2118    230.1051   8.9365871910e+01   6.8940975890e+00     0.241591     0.147428  51.43 0.0008233169    2.000    0.500
        65  -9.3242    170.1680    237.4371   8.4127676324e+01   1.3821668839e+00    0.3340571     0.190551 -45.86 0.0008471984    2.009    0.502
        66  -9.1728    127.8922    227.2569   9.1678636086e+01   9.2228585132e+00    0.3057016     0.251785  74.58  0.001221128    1.584    0.369
        67  -8.3666     32.2282    229.6377   1.1336356235e+02   2.1246295210e+01    0.1602283    0.1091298  22.34  0.000947635    1.687    0.407
        68  -8.8437    162.0346    227.7146   8.4330954958e+01   4.1418765468e+00    0.2335132    0.2167242  73.75  0.001274833    1.510    0.338
        69  -8.7867     49.1724    227.1964   1.0947813456e+02   1.9870121230e+01    0.3014158     0.216396  53.58  0.001844077    1.194    0.162
        70  -8.1566    119.9939    227.2323   9.3443532171e+01   1.0382928853e+01    0.1802613    0.1447695  77.49 0.0006070041    1.612    0.380
        71  -9.0650     59.2343    227.5847   1.0726375108e+02   1.8585069293e+01    0.1714719    0.1158631  22.81 0.0007893755    1.622    0.384
        72  -8.0782    200.1252    226.1392   7.6409986708e+01  -9.1925773367e-01    0.1531593    0.1429136  -2.91 0.0005136047    1.348    0.258
        73  -8.8932     94.4109    224.3765   9.8906062951e+01   1.4618950944e+01    0.3878425    0.2042749  65.44  0.001579576    3.031    0.670
        74  -8.1085     73.0141    225.4841   1.0394015303e+02   1.7284692554e+01    0.1737107    0.1118248   2.09 0.0008100443    2.515    0.602
        75  -8.9006    206.0676    226.3296   7.5314594270e+01  -1.7323726391e+00    0.1872131    0.1713625 -39.84 0.0008010159    1.550    0.355
        76  -8.0399      6.4457    225.5008   1.1856700324e+02   2.4647923693e+01    0.1188682   0.09043186  66.14 0.0001282883    1.032    0.031
        77  -8.9299    216.3785    223.4168   7.2920641341e+01  -2.6305192331e+00    0.2195015    0.1939054 -34.67 0.0008495084    1.507    0.336
        78  -8.0406    113.6186    223.7719   9.4424013670e+01   1.1988808877e+01    0.1682468    0.1289176 -76.62 0.0004581569    1.640    0.390
        79  -8.6441    104.8909    223.7583   9.6420433121e+01   1.3256765498e+01    0.2770711    0.2007949  74.66  0.001484597    1.773    0.436
        80  -8.7013    173.0304    222.8626   8.1268850818e+01   3.3791775058e+00    0.2039705    0.1693378 -57.02 0.0007370042    1.637    0.389
        81  -9.2367    160.4077    221.3226   8.3674483003e+01   5.4935644991e+00    0.5053643     0.274703  55.48  0.002015152    3.450    0.710
        82  -9.0422    139.5970    222.2558   8.8352617166e+01   8.4281016634e+00    0.2559845    0.2005907  49.26 0.0007878611    1.403    0.287
        83  -8.4156     59.7336    223.5972   1.0678655613e+02   1.9367606340e+01    0.1835073   0.09949905  42.78 0.0006495551    1.581    0.367
        84  -9.0049    238.8867    221.2731   6.8613463676e+01  -5.0796099379e+00    0.2292851     0.141506 -37.44 0.0007868377    1.650    0.394
        85  -9.5471    225.3867    221.5086   7.0982548989e+01  -3.4851604627e+00    0.2183896       0.2016  -6.59  0.001174947    1.439    0.305
        86  -9.1018     82.8308    220.5377   1.0113966080e+02   1.7018805150e+01    0.2527509    0.1665892  81.26  0.001289323    1.906    0.475
        87  -8.3299     73.4857    220.9878   1.0336311334e+02   1.8173633331e+01    0.1859765    0.1027396  77.59 0.0008104587    2.578    0.612
        88  -8.7067     55.0518    221.2705   1.0764217527e+02   2.0438034983e+01     0.182266    0.1439912  45.86  0.000478299    1.120    0.107
        89  -7.8739     27.6161    220.7652   1.1377264709e+02   2.3619198154e+01    0.1687259    0.1010721  84.47 0.0003932454    1.611    0.379
        90  -8.4270    202.5381    220.0434   7.4930672645e+01  -3.0233629486e-01    0.1784494    0.1130267 -36.00 0.0005874379    1.554    0.356
        91  -7.9964    135.3024    218.6330   8.8770041847e+01   9.7615829447e+00    0.1830588     0.170698  -2.67 0.0009935184    1.092    0.084
        92  -9.3474    132.1399    215.2562   8.8977638473e+01   1.0898843648e+01    0.5616218    0.2708615 -63.92  0.002176301    3.213    0.689
        93  -9.1813    120.2521    219.1527   9.2270680370e+01   1.1925844460e+01    0.3898133    0.2136474  60.73  0.001569996    3.011    0.668
        94  -8.8111    180.2426    224.1157   7.9995737580e+01   2.1381979153e+00    0.2129267    0.1737946  30.90 0.0006451766    1.271    0.213
        95  -9.2707    192.3209    221.2347   7.7109188744e+01   9.1076712394e-01    0.2606965    0.2344817 -65.81 0.0009286785    1.739    0.425
        96  -8.4583    210.0345    219.0417   7.3348088660e+01  -1.1517603064e+00    0.1600225    0.1565978 -59.99 0.0004842865    1.633    0.388
        97  -8.9188     62.3600    217.6306   1.0560871143e+02   2.0328415614e+01    0.3190403    0.1809268  71.71  0.001524579    2.115    0.527
        98  -8.5468    248.8145    217.9903   6.6416341011e+01  -5.7763837136e+00    0.2087748    0.1598911  57.07  0.001224506    3.041    0.671
        99  -8.7736    142.9651    216.6385   8.6746541509e+01   8.9782579487e+00    0.2621625    0.1936502 -63.77 0.0009351835    1.763    0.433
       100  -9.0196     51.7170    217.4482   1.0806448648e+02   2.1669541261e+01    0.2861103     0.164851  88.86 0.0008229676    1.941    0.485
       101  -8.8156    169.2320    215.9307   8.0926370607e+01   5.1334446256e+00    0.2636528    0.2082342 -70.36  0.001132266    1.990    0.498
       102  -8.0813    111.5373    217.0304   9.3990688759e+01   1.3652334896e+01    0.1823144    0.1180734  85.47 0.0008093355    2.559    0.609
       103  -8.9575    232.4491    214.7815   6.8599348639e+01  -3.3905175354e+00    0.2405073    0.1859497 -42.58  0.001165034    1.673    0.402
       104  -8.3045    107.9808    217.0000   9.4816566740e+01   1.4184513246e+01    0.2253332   0.07034422  33.14 0.0005792357    2.888    0.654
       105  -7.8532    154.5009    215.0085   8.3938309567e+01   7.5237900299e+00    0.1657396    0.1234501 -83.08 0.0008082232    2.384    0.581
       106  -7.8376     41.6828    215.3681   1.1020058350e+02   2.3288396517e+01    0.1416274   0.07821383  62.18  0.000703727    1.782    0.439
       107  -8.0404     12.7754    215.6031   1.1670713682e+02   2.6194045059e+01    0.1614507   0.09313786  43.61 0.0003854528    1.502    0.334
       108  -8.3089    197.0165    214.4907   7.5046095065e+01   1.3406195893e+00     0.188538   0.09872248  11.09 0.0008105813    2.618    0.618
       109  -8.6410    185.3381    214.0404   7.7283915840e+01   3.0849427498e+00    0.1788157    0.1535304 -20.31 0.0006560795    1.155    0.134
       110  -9.4064     93.0983    213.9653   9.7929293825e+01   1.6985362523e+01    0.3455888    0.1910567  53.18  0.001593945    1.952    0.488
       111  -9.8415     73.0653    211.8935   1.0246924924e+02   2.0205816979e+01    0.7800428    0.2775854  51.79  0.002759104    3.387    0.705
       112  -9.3759    213.8958    212.0649   7.1428701990e+01  -5.9553438542e-01    0.2983624    0.2446373  47.24  0.001869927    1.787    0.440
       113  -8.5810     32.3277    210.0259   1.1193558884e+02   2.5501908617e+01    0.3358618     0.132427  64.03  0.001206187    3.073    0.675
       114  -7.7667    224.6679    212.3154   6.9528666666e+01  -2.0487821648e+00    0.1025687    0.1007403 -60.29 0.0004086114    1.684    0.406
       115  -9.4300    175.6583    210.0975   7.8593221060e+01   5.1978281280e+00    0.3757572     0.273867  66.79  0.001690916    2.561    0.610
       116  -8.5460    161.5206    212.1698   8.1946245559e+01   6.9737190313e+00    0.2040575     0.178367  45.49 0.0007827547    1.334    0.250
       117  -7.7987    106.5074    212.5578   9.4556320725e+01   1.5327679379e+01    0.1375987    0.1220385  44.05 0.0004343156    1.058    0.055
       118  -9.0444    204.2444    210.6213   7.2981784510e+01   9.5193076505e-01    0.2296571    0.1869486 -42.22 0.0006188932    1.479    0.324
       119  -8.2568    192.1716    210.5920   7.5321379090e+01   2.6721768665e+00    0.2071781    0.1654865 -38.78 0.0006236761    1.374    0.272
       120  -8.8819    147.8268    210.1885   8.4631325159e+01   9.4606146177e+00    0.2654556    0.1997685 -70.25 0.0008393181    1.888    0.470
       121  -8.8779    116.2190    210.4716   9.1961108883e+01   1.4301071237e+01    0.2874856    0.2058985  65.47 0.0008767545    1.780    0.438
       122  -7.9532      3.5458    211.5356   1.1849695217e+02   2.7906417248e+01    0.1206613   0.09440698  69.94 0.0001130655    1.018    0.017
       123  -9.0751    236.5037    208.3043   6.6778572732e+01  -2.9552308357e+00    0.2371735      0.21041 -53.70  0.001096904    1.837    0.456
       124  -9.0217     85.4510    209.1271   9.9154858130e+01   1.9122043858e+01    0.3613784    0.2030227  79.25  0.001287736    2.926    0.658
       125  -9.4330    246.3826    207.2088   6.4950418845e+01  -4.0018903435e+00    0.2463105    0.1675373 -31.74 0.0007068607    1.328    0.247
       126  -8.5365    139.0228    207.9781   8.6265792963e+01   1.1269537327e+01    0.2105152    0.1920675  34.46  0.000560225    1.107    0.096
       127 -10.0733    124.2246    206.1924   8.9425158866e+01   1.3953620189e+01    0.2889839    0.2123632  62.01  0.001474877    1.692    0.409
       128  -7.9239     25.4849    208.4492   1.1339968912e+02   2.6562216510e+01    0.1257159    0.1047255  68.42 0.0001610004    1.005    0.005
       129  -7.7186    156.3175    207.6908   8.2330738986e+01   8.6113229372e+00    0.1298768    0.1073772  63.24 0.0004212842    1.637    0.389
       130  -9.0946     99.3711    206.1475   9.5382121070e+01   1.7762968137e+01    0.3502949    0.2313739  70.30   0.00114163    2.014    0.503
       131  -8.9951     79.3756    206.0315   1.0025093104e+02   2.0658322724e+01    0.3051009    0.1608967  40.67  0.001051246    1.706    0.414
       132  -8.6376     56.2252    205.2193   1.0581970849e+02   2.3868888595e+01    0.2833001    0.1446726  62.84  0.001147307    2.269    0.559
       133  -8.2179    109.2195    205.2358   9.2865528086e+01   1.6477179703e+01    0.2029404    0.1159979 -72.03 0.0008643835    2.424    0.587
       134  -9.5417    194.8318    203.5636   7.3551209457e+01   3.4656538149e+00    0.3193595    0.2355235 -36.98  0.001230614    1.362    0.266
       135  -9.4649    192.6486    197.4444   7.2871444879e+01   4.8435011876e+00    0.3759347    0.2893499 -63.13  0.001497554    2.002    0.500
       136  -8.9020    183.6286    203.8655   7.5854781756e+01   5.0898160794e+00    0.2671791    0.2049236  51.47 0.0009691822    1.747    0.428
       137  -9.6046    163.7227    202.8105   7.9870359270e+01   8.3677389507e+00    0.3792061    0.2951403  60.34  0.001187039    1.801    0.445
       138  -9.0190    131.3210    203.9643   8.7403073819e+01   1.3296075628e+01    0.2752594    0.2158844  51.57  0.001411832    1.388    0.280
       139  -9.5584    250.1115    201.7397   6.3388104951e+01  -3.6725852073e+00    0.4734744    0.1736041 -41.26  0.002205316    2.630    0.620
       140  -9.6580    245.2099    193.0668   6.2615878128e+01  -1.8107397759e+00    0.2722524    0.2108601 -54.10 0.0006665363    1.991    0.498
       141  -8.9631    140.6880    201.3276   8.4787513403e+01   1.2337431313e+01    0.3730475     0.260658  76.49  0.001505481    2.552    0.608
       142  -9.1880     11.5922    202.8421   1.1621976674e+02   2.9152675000e+01     0.287764    0.1399536  35.68  0.001512438    1.892    0.471
       143  -9.2068    243.0257    200.9367   6.4388038436e+01  -2.6928342823e+00    0.2841427    0.1509035 -35.69 0.0008834788    1.634    0.388
       144  -8.5041     79.9412    201.0261   9.9484892867e+01   2.1714490193e+01    0.3029541    0.1766428  79.26  0.001048722    2.506    0.601
       145  -8.2978     48.2769    201.9570   1.0743289500e+02   2.5576038096e+01    0.2081355   0.08961267  81.88 0.0006874698    3.954    0.747
       146  -9.4265    149.4690    198.4112   8.2273460102e+01   1.1503853546e+01    0.3970955    0.2929731 -88.49  0.001239636    2.368    0.578
       147  -8.7078    123.8817    199.0497   8.8375538464e+01   1.5509083617e+01    0.2745146    0.2044745 -87.24 0.0009791224    1.910    0.476
       148  -8.9758    112.7989    198.3551   9.0955624716e+01   1.7416081019e+01    0.4682365    0.2813274  65.01  0.001894698    2.561    0.609
       149  -9.1299    236.9796    198.2341   6.4902695396e+01  -1.5288569127e+00    0.2747813    0.1483629 -43.02 0.0009324477    1.944    0.486
       150  -8.5381    177.0549    198.7151   7.6290644155e+01   7.0266299231e+00    0.2172847    0.1813167 -46.06 0.0005139704    1.366    0.268
       151  -9.0740     88.7387    198.5263   9.6954232083e+01   2.1030090317e+01    0.3480352    0.2304152  75.84  0.001472157    1.968    0.492
       152  -8.6246     23.8188    199.6167   1.1314401025e+02   2.8752814933e+01    0.1813761   0.09691849  42.87 0.0001450155    1.678    0.404
       153  -8.3954    202.2794    197.6120   7.1019847979e+01   3.3728386753e+00    0.2227325    0.1489679 -46.24 0.0007494348    1.687    0.407
       154  -8.1974    104.3116    198.5781   9.3080117054e+01   1.8685395399e+01    0.2000997    0.1323154  22.86 0.0009550981    1.613    0.380
       155  -9.2615     61.3557    196.9846   1.0365793784e+02   2.5139536415e+01    0.4405834    0.2200188  69.82   0.00172345    2.886    0.654
       156  -8.4249     12.9245    197.4537   1.1557025243e+02   3.0273332424e+01    0.2784199   0.09515818  64.41  0.001033802    3.497    0.714
       157  -8.6418    215.9202    195.4885   6.8077164094e+01   1.7494874136e+00    0.2294743    0.1645224 -46.97  0.000859822    1.669    0.401
       158  -7.9155    132.9919    195.9499   8.5683854679e+01   1.4693252621e+01    0.2147079    0.1708895  70.03 0.0005547669    1.644    0.392
       159  -7.9884     53.3315    196.6638   1.0564113132e+02   2.6213265373e+01    0.1477832    0.0889634  62.53 0.0007052133    1.735    0.424
       160  -7.9907     36.3002    196.6852   1.0988035333e+02   2.8157719958e+01    0.1391795   0.08414146  62.93 0.0003544526    1.612    0.380
       161  -8.9097    224.4763    193.7908   6.6233639864e+01   8.2350265932e-01    0.2984053     0.149148 -45.95  0.001434717    2.254    0.556
       162  -8.7900    185.3293    194.8343   7.3865640865e+01   6.4334866870e+00    0.2189312    0.2117292  70.57 0.0007037556    1.410    0.291
       163  -8.6317    160.8141    194.1013   7.8956270513e+01   1.0503526904e+01    0.2631859    0.2051632 -70.58 0.0007955933    1.845    0.458
       164  -8.0948    231.1570    194.4134   6.5191147208e+01  -1.8268684274e-01    0.1469348    0.1150295  38.12 0.0004131814    1.608    0.378
       165  -8.7540     76.9793    193.8263   9.9299772558e+01   2.3796494001e+01     0.231847    0.1964604 -82.01 0.0005075475    1.206    0.171
       166  -8.8506     43.6837    193.2651   1.0771855018e+02   2.8153566471e+01    0.4161597    0.1886474  68.54  0.001605077    2.999    0.667
       167  -8.2186      5.8000    193.6458   1.1700555223e+02   3.1769384890e+01     0.170659   0.09454627  41.52 0.0005543331    1.661    0.398
       168  -8.4096    211.0270    202.0058   7.0169389088e+01   1.3874384139e+00    0.1742764    0.1622312 -72.60 0.0007002566    1.708    0.414
       169  -8.2012    198.8641    191.7060   7.0581660666e+01   4.8944126670e+00    0.2194082    0.1723872 -63.78 0.0007833906    1.962    0.490
       170  -8.3877    172.6399    191.8905   7.5972904730e+01   8.9995728358e+00    0.2487014    0.1760689 -59.10  0.001238747    1.884    0.469
       171  -7.9794    178.8463    191.5932   7.4603621359e+01   8.0529228718e+00    0.1830492    0.1247362  44.14 0.0005826018    1.649    0.393
       172  -9.0787    139.4547    190.3126   8.3170837755e+01   1.4811380592e+01    0.3373674    0.2576918  75.88  0.001341796    1.931    0.482
       173  -7.7092    117.6793    191.6928   8.8685174034e+01   1.8103598850e+01    0.1455798     0.110632 -10.99 0.0006654027    1.639    0.390
       174 -10.3873     92.3130    188.8176   9.4650976978e+01   2.2743109285e+01     0.968838    0.2910431  45.22  0.003053166    3.564    0.719
       175  -7.7625     16.6885    191.3122   1.1424860341e+02   3.1375330023e+01    0.1364819   0.07811116  62.16  0.000413078    1.630    0.387
       176  -8.8112    216.6244    187.9975   6.6549595340e+01   2.8724801991e+00    0.2352029    0.2099883 -67.05 0.0007990864    1.714    0.416
       177  -9.1861    155.9844    187.4945   7.8823784965e+01   1.2616337176e+01    0.3427624    0.2286591 -59.63 0.0008637415    1.904    0.475
       178  -8.0517    148.4022    189.1614   8.0868662385e+01   1.3551932229e+01    0.1896185    0.1382539 -60.58 0.0006391222    1.670    0.401
       179  -8.8580    129.1617    188.5261   8.5326647002e+01   1.6910829136e+01    0.2873313    0.2219892  84.33 0.0008416815    1.828    0.453
       180  -9.5254    120.7094    186.3522   8.7030598244e+01   1.8793385879e+01    0.5213949    0.3038123 -74.74  0.002011362    2.855    0.650
       181  -8.0575    205.2429    191.9057   6.9394010802e+01   3.8975761954e+00    0.1681646    0.1016662 -38.80 0.0007651094    1.565    0.361
       182  -8.2412    237.3746    188.3046   6.3018557974e+01  -7.3396795924e-02    0.1653403    0.1007175 -39.30 0.0005946376    1.539    0.350
       183  -8.8531    191.4793    187.2127   7.1186858414e+01   6.8362937322e+00    0.2909465    0.2202374 -64.51  0.001345691    2.023    0.506
       184  -9.0604     54.7205    186.7840   1.0418624099e+02   2.8411312718e+01    0.4165935    0.2167174  69.22  0.001382367    2.518    0.603
       185  -8.4412     34.2465    188.1286   1.0961393991e+02   3.0420369589e+01     0.272455    0.1313564  54.71  0.001145085    2.080    0.519
       186  -8.2393    230.4386    187.2627   6.3987813492e+01   1.0309463120e+00    0.1703494    0.1066598 -42.85  0.000788917    1.641    0.391
       187  -8.7641    165.0270    186.9838   7.6706179842e+01   1.1200059790e+01     0.243216    0.2257366 -82.46 0.0009694305    1.402    0.287
       188  -9.1681    109.5690    186.0891   8.9792197425e+01   2.0675283467e+01     0.393334    0.2669543  67.67    0.0012647    1.991    0.498
       189  -9.0026     27.1798    185.8370   1.1120393536e+02   3.1695345866e+01     0.388759    0.1895233  54.37  0.001817524    2.012    0.503
       190  -9.1576    249.2800    185.4605   6.0579740104e+01  -1.1992673426e+00    0.2254973    0.1619913 -37.48 0.0006781201    1.363    0.266
       191  -8.6529    202.8132    184.5835   6.8465156571e+01   5.5258674283e+00    0.2417421     0.170231 -54.06 0.0008631667    1.854    0.461
       192  -8.8823    182.8741    184.8963   7.2493416190e+01   8.6453032814e+00    0.2382361    0.1829537 -45.29 0.0008384369    1.389    0.280
       193  -9.2389     66.6161    184.4624   1.0076817854e+02   2.7451599165e+01    0.3928214    0.2277186  66.47 0.0009629108    2.135    0.532
       194  -8.4570    223.9968    183.4770   6.4382742557e+01   2.5455606567e+00    0.2048037    0.1445489 -29.82 0.0005671917    1.217    0.178
       195  -8.5413    210.0568    184.0994   6.7008737615e+01   4.5004365451e+00    0.2005939    0.1677976 -19.02 0.0005311224    1.045    0.043
       196  -8.9771    174.3250    183.3714   7.3997204665e+01   1.0347098659e+01    0.2923022    0.2323001 -58.52 0.0008331128    1.575    0.365
       197  -8.2631    196.9910    183.2376   6.9331048915e+01   6.6749022798e+00    0.1837481    0.1493661 -56.95 0.0005651327    1.613    0.380
       198  -8.9729     44.3447    182.5569   1.0643491061e+02   3.0674625255e+01    0.3033082    0.1828732  64.66 0.0008787635    1.756    0.430
       199  -7.8324      1.7997    183.6022   1.1735508954e+02   3.4451404110e+01    0.1723211   0.09626256  42.71 0.0009426115    1.680    0.405
       200  -7.8849    235.3069    181.6521   6.2115081190e+01   1.2419261388e+00    0.1152014   0.09605489 -55.19 0.0007043038    1.702    0.413
       201  -9.0505    147.5103    180.4338   7.9449050237e+01   1.5520592972e+01    0.3220657    0.2440763  68.98  0.001108419    1.893    0.472
       202  -9.4956     25.7358    179.1790   1.1098495801e+02   3.3462704730e+01    0.5975316    0.2346037  70.81  0.002056614    3.818    0.738
       203  -8.7434    137.6601    179.2727   8.1579568533e+01   1.7476948543e+01    0.2987629    0.2335739  74.13  0.001109174    1.770    0.435
       204  -9.6559    248.5236    176.4101   5.9014625160e+01   2.6237376798e-01    0.4283057    0.2194232 -44.79  0.001916586    2.013    0.503
       205  -8.7018    250.5094    172.8316   5.8037479826e+01   5.4323575087e-01    0.2242213     0.139306 -36.34  0.000696027    1.352    0.260
       206  -9.3405    191.3973    178.2818   6.9468010860e+01   8.4738803232e+00    0.2641307     0.234758 -56.48 0.0005943877    1.410    0.291
       207  -8.6680     36.7784    178.1641   1.0797329208e+02   3.2594255724e+01    0.3666713    0.1637623  64.33  0.001410481    2.885    0.653
       208  -8.1556     34.6931    174.3600   1.0813561722e+02   3.3761822598e+01    0.2813824    0.1421064  66.88   0.00119286    2.336    0.572
       209  -8.6016    217.7694    177.3984   6.4309851039e+01   4.4691802446e+00    0.2485506    0.1585847 -50.18 0.0008703755    1.883    0.469
       210  -8.9118    205.0165    177.5324   6.6674376695e+01   6.4155325966e+00    0.2537974    0.1765729 -49.96  0.000762617    1.668    0.401
       211  -7.9909    169.4702    178.5227   7.4100055756e+01   1.2114781244e+01    0.1403706    0.1329849  -5.25 0.0008081885    1.081    0.075
       212  -9.0489    129.4622    177.4848   8.3256939512e+01   1.9290266669e+01    0.3191838    0.2200832  74.48 0.0009526936    2.347    0.574
       213  -8.5458    231.1169    176.8041   6.1888496058e+01   2.6032523385e+00    0.2191748    0.1486165 -40.49 0.0007130158    1.418    0.295
       214  -9.1414    183.0837    175.9285   7.0691865809e+01   1.0297766611e+01    0.2903917    0.2232297 -58.88 0.0007491916    1.665    0.399
       215  -8.7086     89.0589    176.9101   9.3663218397e+01   2.6074388889e+01    0.3129839    0.1933971  66.33 0.0009308168    2.177    0.541
       216  -9.9893     57.3724    173.1422   1.0177920955e+02   3.1453892723e+01    0.8837841    0.4056779  76.85  0.002588056    4.896    0.796
       217  -8.7314     12.8735    176.5414   1.1409949205e+02   3.5269458057e+01    0.2679787    0.1212271  64.08  0.001103662    2.343    0.573
       218  -8.5469    211.5359    176.0318   6.5167911819e+01   5.6560614559e+00    0.2034741    0.1175498 -38.21 0.0007066453    1.565    0.361
       219  -9.1642    158.7501    175.0519   7.5802001989e+01   1.4678729685e+01    0.3319438    0.2632877  85.59  0.001049846    1.948    0.487
       220  -9.3641    104.3601    174.6740   8.9200168113e+01   2.4183951975e+01    0.5836976    0.3055862  60.60  0.001872245    3.132    0.681
       221 -10.6831     75.9357    170.0719   9.6175746861e+01   2.9710594014e+01     1.314937    0.5156337 -74.21  0.003874761    4.314    0.768
       222  -8.1517    224.3910    174.2382   6.2533786792e+01   4.0045517859e+00      0.17914    0.1090371 -43.22 0.0007490817    1.611    0.379
       223  -9.7715    175.7913    171.9884   7.1431111928e+01   1.2308703043e+01    0.4192308    0.2329863 -38.98   0.00126314    1.734    0.423
       224  -8.1157    142.8685    172.7812   7.9070875465e+01   1.7972258178e+01    0.1949467    0.1773448  74.88 0.0004970607    1.314    0.239
       225  -8.5201    134.7820    171.6741   8.0827548600e+01   1.9652659970e+01    0.2620484    0.1978349 -86.63 0.0008931539    1.941    0.485
       226  -9.1468     45.1362    170.9356   1.0488963239e+02   3.3482874465e+01    0.3941085    0.2146854  79.07  0.001440768    2.315    0.568
       227  -8.9662    230.7972    170.2096   6.0663851786e+01   3.7193607177e+00    0.2396761    0.1959306 -34.64  0.000735994    1.193    0.162
       228  -9.4122    121.3154    170.2812   8.3960345906e+01   2.2340545163e+01    0.3580871      0.27249 -89.14 0.0008740299    1.798    0.444
       229  -8.4778    237.2131    169.3177   5.9442119909e+01   2.9314358343e+00    0.2518187    0.1476794 -42.62  0.001032758    1.613    0.380
       230  -8.4014    205.6949    170.1984   6.5087667033e+01   7.6034935613e+00    0.2060095    0.1601379 -49.80 0.0006615537    1.469    0.319
       231  -8.6880    198.3655    170.0324   6.6446975072e+01   8.8347098903e+00     0.217822    0.1979459  85.82 0.0007662304    1.567    0.362
       232  -8.4414    244.4112    169.2933   5.8300613959e+01   1.9189702974e+00    0.1718179    0.1594955  88.42 0.0006604014    1.693    0.409
       233  -9.2124    166.8861    168.4294   7.2638855111e+01   1.4590190232e+01    0.3118816    0.2454219  71.67 0.0008957135    1.867    0.464
       234  -8.3249    149.7197    169.2443   7.6731141210e+01   1.7507359285e+01    0.2211567    0.1901429 -75.51 0.0008463967    1.455    0.313
       235  -9.0871    111.7422    167.8809   8.6009558202e+01   2.4557819438e+01    0.4299297    0.3280531 -83.61  0.001642654    1.662    0.398
       236  -8.4868     38.2136    169.6932   1.0666331379e+02   3.4563732558e+01    0.2934354   0.09317939  35.06  0.001103372    2.827    0.646
       237  -8.3536    218.7791    168.1605   6.2309870406e+01   5.8802226223e+00    0.1931768    0.1634299 -35.92  0.000529415    1.192    0.161
       238  -8.1315    211.4494    168.0279   6.3590867008e+01   7.0598688913e+00    0.2069524    0.1185833 -40.21 0.0008093586    1.590    0.371
       239  -8.1918     88.6664    168.3966   9.2366126473e+01   2.8216738483e+01    0.2322954    0.1680084  67.78 0.0008190309    1.641    0.391
       240  -8.8680    191.9454    166.6223   6.7008130882e+01   1.0546587511e+01    0.2620051    0.1906743 -45.57 0.0006844644    1.400    0.286
       241  -8.8892    184.9745    166.4340   6.8374499889e+01   1.1786237353e+01    0.2647225    0.1866048 -52.95 0.0006423775    1.625    0.385
       242  -9.1137     20.6479    166.3872   1.1116562105e+02   3.7121223606e+01    0.3395402    0.1367024  49.90  0.001277065    2.543    0.607
       243  -9.7034    136.8165    164.3421   7.8860255488e+01   2.0922659285e+01    0.6631832    0.3260026  55.62  0.002171873    3.217    0.689
       244 -10.0128     95.1158    162.9915   8.9624822301e+01   2.8522619637e+01     0.839463    0.4614651  72.65  0.002573492    4.183    0.761
       245  -8.2221    233.9733    165.0146   5.9124441064e+01   4.0982062094e+00    0.1823645    0.1463845 -54.32 0.0005157238    1.590    0.371
       246  -9.3840     33.5611    163.4392   1.0725729153e+02   3.6639228819e+01    0.5546494    0.2000552  51.43  0.001988408    3.238    0.691
       247  -8.9197    246.0294    162.9828   5.6836617366e+01   2.6811528895e+00    0.2443404    0.1447111 -35.81 0.0004777052    1.382    0.277
       248  -8.2134    240.0244    164.0216   5.7965336245e+01   3.3739373552e+00    0.1804521    0.1451178 -56.38 0.0004478424    1.652    0.395
       249  -8.6372    213.0124    163.4713   6.2386857616e+01   7.6059122198e+00    0.2485027    0.1672136 -47.67 0.0005954168    1.574    0.365
       250  -8.5929    159.3891    164.0759   7.3422296133e+01   1.6844053948e+01    0.2527583    0.2110437  70.60  0.001013297    1.579    0.367
       251  -8.9954     60.5343    160.0368   9.9024949205e+01   3.4376787360e+01    0.4795585    0.2806489 -57.23  0.002193835    1.627    0.385
       252  -8.8470    205.0389    162.6597   6.3675661118e+01   9.0604937063e+00    0.2272253    0.1734179 -42.69 0.0005045149    1.294    0.227
       253  -9.2160      3.4140    162.3592   1.1550987204e+02   3.9506139753e+01    0.4056359    0.1749803  54.32  0.001426382    2.352    0.575
       254  -7.7670    222.2686    161.6466   6.0398968325e+01   6.4442704012e+00    0.1258565    0.0984925 -56.52 0.0002838501    1.630    0.386
       255  -9.0192    177.3667    160.4509   6.8705233661e+01   1.4304963671e+01    0.3118576    0.2368934 -59.02 0.0008280243    1.599    0.375
       256  -8.7223    151.6637    160.8366   7.4535292208e+01   1.8956080164e+01    0.2778657    0.2252381 -81.84 0.0008860728    1.690    0.408
       257  -8.7638    227.3937    159.0413   5.9012627227e+01   6.0832888216e+00      0.26787    0.1716249 -49.94  0.001203827    1.750    0.429
       258  -9.7585    250.1940    157.7138   5.5194474032e+01   2.9182383049e+00    0.3263785    0.1427176 -38.29 0.0009056547    1.855    0.461
       259  -8.6526    246.5928    155.5054   5.5296371837e+01   3.7789865130e+00    0.1833529    0.1533181   5.50 0.0005069403    1.271    0.213
       260  -8.8790    243.5004    159.0366   5.6453337539e+01   3.6662654402e+00    0.2683945    0.1506964  19.64  0.001299737    2.590    0.614
       261  -8.2703    237.0100    158.9860   5.7449043164e+01   4.6281562512e+00      0.16034    0.1262959 -27.30 0.0005134735    1.037    0.036
       262  -8.1183    128.0652    158.9631   7.9969288757e+01   2.3745528488e+01    0.2392006    0.1879845  79.88  0.000633648    1.714    0.417
       263  -9.6925    105.8634    157.9306   8.5686904214e+01   2.7957359877e+01     0.485711    0.3185965  69.14  0.001210626    2.239    0.553
       264  -8.5729    196.8032    158.0565   6.4275104827e+01   1.1307867555e+01    0.2117443    0.1841512 -58.05 0.0009938618    1.377    0.274
       265  -9.0526    167.5179    157.0770   7.0111798768e+01   1.6794637255e+01    0.2986239    0.2390915 -73.93 0.0007235474    1.707    0.414
       266  -9.7123     81.3798    155.2802   9.2141895311e+01   3.2625828766e+01    0.5466033    0.4192616 -64.48  0.001638823    1.295    0.228
       267  -8.5118    217.8985    156.5276   6.0106453195e+01   8.0235087567e+00      0.26993    0.1578034 -51.29   0.00108334    1.993    0.498
       268  -8.0787    187.8695    157.3879   6.5889978857e+01   1.3011530812e+01    0.1966971    0.1684915 -43.14 0.0004780929    1.186    0.157
       269  -8.5561    157.7031    155.9666   7.2086145990e+01   1.8865986175e+01    0.2659538    0.2048214 -62.02 0.0008365094    1.547    0.354
       270  -9.1597    119.4150    154.8240   8.1378654233e+01   2.6293860622e+01    0.4336316    0.2835621 -78.69  0.001314833    2.397    0.583
       271  -9.1976     49.6231    155.0714   1.0150801270e+02   3.7022447724e+01    0.4155252    0.2216603  63.15  0.001669174    2.437    0.590
       272  -8.0525     42.0108    157.0000   1.0402746503e+02   3.7397445719e+01    0.2136236   0.08018269  25.98 0.0007901447    2.858    0.650
       273  -9.3284    241.8191    154.1738   5.5751527417e+01   4.6904698660e+00    0.3538325    0.2536054  85.39  0.001706792    3.306    0.698
       274  -7.8673    204.5856    155.5074   6.2271901251e+01   1.0431464357e+01    0.1383274    0.1213932 -29.47 0.0001984713    1.061    0.058
       275  -8.3575    144.8504    154.9271   7.4905825215e+01   2.1522145164e+01    0.2381993    0.1901699  83.29  0.001114537    1.748    0.428
       276  -9.6487     67.7482    153.5454   9.5861431627e+01   3.5069533275e+01    0.4117715    0.2744889  72.27  0.001229922    1.881    0.468
       277  -8.4820     23.9779    155.3368   1.0910717075e+02   3.9634573603e+01    0.2060826    0.1013427 -14.89 0.0007047171    4.318    0.768
       278  -9.5698    132.8870    152.9232   7.7455826778e+01   2.4235129358e+01    0.4425602    0.3279631  75.28  0.001197732    1.950    0.487
       279  -9.0230    133.8658    147.7318   7.6070109403e+01   2.5234482809e+01    0.4175847    0.2296378 -37.58  0.001652495    1.970    0.492
       280  -9.7523     29.4337    150.5661   1.0694868511e+02   4.0359173548e+01    0.5100458     0.233437  66.71  0.001853679    3.105    0.678
       281  -8.7310      8.9563    153.0000   1.1320628334e+02   4.1458736232e+01    0.1908876   0.07544669  19.84 0.0007986496    2.916    0.657
       282  -9.5510    248.8271    149.2996   5.3750567818e+01   4.4346178136e+00    0.3228551    0.1663536 -38.36 0.0007872874    1.575    0.365
       283  -8.8366    189.4228    150.0308   6.3997236030e+01   1.4142766361e+01    0.2811941    0.1947245 -54.79 0.0008061555    1.663    0.399
       284  -8.0115    182.3594    151.1575   6.5665494084e+01   1.5224510915e+01    0.2067418    0.1278214 -50.39  0.000567864    1.715    0.417
       285  -9.0004     98.2540    150.7383   8.6393839654e+01   3.1028708001e+01     0.291926    0.2299111  87.75 0.0008232156    1.554    0.356
       286  -8.4344      3.3897    151.1573   1.1463376638e+02   4.2316255883e+01     0.195926     0.104443  87.62 0.0009507869    1.760    0.432
       287  -8.8348    243.0882    149.8811   5.4708190632e+01   5.1911305281e+00    0.2331989    0.1499482 -36.18 0.0007972379    1.274    0.215
       288  -7.9369    212.8669    149.8072   5.9583009284e+01   1.0040700997e+01     0.170873    0.1534123 -53.05 0.0002883884    1.281    0.219
       289  -8.0567    162.4110    150.2261   6.9755188942e+01   1.9181031997e+01    0.2108687     0.139461 -53.88 0.0007320618    1.656    0.396
       290  -8.4119    198.8905    148.9030   6.1926826403e+01   1.2643270180e+01    0.2066146    0.1690819 -69.69 0.0005622602    1.636    0.389
       291 -10.2535     89.2163    146.1218   8.8096591539e+01   3.3696272259e+01    0.6955559    0.4082071 -89.45  0.002351614    3.303    0.697
       292  -8.8160     52.5884    148.8745   9.9685075388e+01   3.8272839845e+01    0.3082038    0.1638943  45.68   0.00132159    1.973    0.493
       293 -10.5063     60.0358    125.0097   9.3032452371e+01   4.3522918585e+01    0.7651712    0.4518262  78.23  0.002266862    2.923    0.658
       294 -10.1960     73.1751    129.4229   8.9617976013e+01   4.0491738463e+01    0.3917068    0.3058118 -84.71   0.00106104    1.476    0.323
       295 -10.8200     69.5081    141.0158   9.3095602597e+01   3.8052664635e+01    0.6095517    0.4743833 -63.79  0.002514156    1.240    0.193
       296  -9.7722     39.6516    147.8402   1.0349577110e+02   4.0032165332e+01    0.5134825    0.2469704  62.36  0.001927814    2.903    0.655
       297  -9.6733    233.5982    147.5593   5.5688388325e+01   7.0285727854e+00    0.2555027    0.1334341 -38.74 0.0007270059    1.609    0.378
       298  -8.1771    223.4882    146.9570   5.7183620510e+01   8.7596511618e+00    0.1999735    0.1147069 -38.99 0.0003982494    1.501    0.334
       299 -10.1915    148.9276    144.7760   7.1670361621e+01   2.2966208058e+01    0.5551955      0.38522 -80.91  0.001649635    2.471    0.595
       300  -9.9606    139.2262    145.2135   7.4149235960e+01   2.4767699795e+01    0.4993814    0.3127486 -67.95  0.001265694    2.358    0.576
       301  -8.9982    139.4292    137.6819   7.2365624970e+01   2.6417986974e+01    0.4454755    0.2545004 -18.73  0.001433744    3.452    0.710
       302 -10.4161    106.4695    144.0337   8.2654223190e+01   3.1237107240e+01    0.7607338    0.4920102  82.30  0.002325738    2.816    0.645
       303  -8.7267     78.0294    146.9843   9.1607204046e+01   3.5251171446e+01    0.2482838    0.1783486  73.82 0.0007748138    1.740    0.425
       304  -9.9406     13.4151    146.2033   1.1125451058e+02   4.2860635976e+01    0.4122188    0.2248119  63.52  0.001217253    2.010    0.503
       305  -9.8068    240.3751    145.1976   5.4175164391e+01   6.3601717061e+00    0.2656835    0.1696323 -43.84 0.0006493248    1.427    0.299
       306  -8.8253    242.6858    143.2997   5.3450886384e+01   6.3121775921e+00    0.1742087    0.1557931 -14.74  0.000610357    1.137    0.121
       307  -8.0122    206.7288    146.0668   5.9875871735e+01   1.1773494988e+01    0.1782926    0.1098299 -40.11 0.0008688218    1.454    0.312
       308  -8.2279    175.3410    146.0119   6.5990211658e+01   1.7568515765e+01    0.2100819    0.1793762 -41.41 0.0005765621    1.132    0.117
       309  -9.6993    125.0736    142.8234   7.7265609339e+01   2.8056672514e+01    0.5051782    0.3504687 -87.96  0.001301878    2.393    0.582
       310  -8.9374    247.0691    143.6976   5.2894740285e+01   5.5829593258e+00    0.2410965    0.1473762 -33.34 0.0006024086    1.336    0.251
       311  -8.6983    165.7006    144.0486   6.7634416618e+01   1.9832823025e+01    0.2404402    0.2090819  62.44 0.0008132627    1.351    0.260
       312 -10.0509     69.9934    133.9035   9.1561936762e+01   3.9817359490e+01    0.5172849    0.2909048  10.74    0.0019198    2.771    0.639
       313  -8.2751    182.1478    141.5186   6.3570570041e+01   1.7159134046e+01    0.2316835    0.1913154 -60.13 0.0005639396    1.386    0.279
       314  -9.4321      2.4427    141.2195   1.1405245933e+02   4.4897481267e+01    0.4304469    0.1943146  72.85  0.001818283    2.583    0.613
       315  -8.3282    250.4897    140.9230   5.1859545405e+01   5.5105694123e+00    0.1941068    0.1008219 -38.49 0.0006875877    1.546    0.353
       316  -7.5436    194.3232    143.7059   6.1659819810e+01   1.4447153146e+01    0.1359301    0.1130871 -75.97 0.0005631572    1.617    0.382
       317 -10.0970     23.2138    138.2296   1.0733515218e+02   4.4129177936e+01    0.5623052    0.3200977  52.74   0.00225104    1.933    0.483
       318  -8.6610    242.8555    139.1565   5.2590422220e+01   6.9549427106e+00    0.2387927    0.1633624  77.75  0.001183823    2.915    0.657
       319  -8.6945    172.4519    138.3349   6.4861478794e+01   1.9679827271e+01    0.3004495    0.2248759 -73.84 0.0008618907    1.905    0.475
       320 -10.4025     61.7386    135.0775   9.4440437613e+01   4.0682517856e+01    0.7026711    0.3343624  31.90   0.00199863    2.164    0.538
       321  -7.5185    218.5326    138.4718   5.6212777161e+01   1.1064821064e+01    0.1362601    0.1174731 -38.15  0.000807655    1.086    0.079
       322  -8.2777    207.5073    137.5977   5.7902425128e+01   1.3168805653e+01    0.2413189    0.1172548 -48.36 0.0009617555    2.114    0.527
       323  -8.6465    197.5683    137.5400   5.9683218333e+01   1.5003832753e+01    0.2788329     0.194394 -52.82 0.0007815317    1.543    0.352
       324  -8.6606    150.4809    136.2607   6.9328247652e+01   2.4510185950e+01    0.4224483    0.2591362 -17.95  0.001571067    2.591    0.614
       325  -8.4436    246.8882    130.1568   5.0200435500e+01   7.7689832450e+00    0.2256693    0.1389228 -42.92 0.0007039928    1.376    0.273
       326  -9.1268    248.3713    135.3873   5.1050101767e+01   6.7067735574e+00    0.2778849    0.1619889 -36.49 0.0007297623    1.381    0.276
       327  -9.1077    250.6942    129.8026   4.9613237385e+01   7.2326104452e+00    0.4319783    0.0969895 -38.19  0.001489937    3.569    0.720
       328  -8.2529    162.6198    136.3397   6.6544334998e+01   2.2047381589e+01    0.2197541    0.1789556 -79.65 0.0006954834    1.613    0.380
       329  -8.3291    110.6541    136.7213   7.9842742997e+01   3.2242434684e+01    0.1581958     0.122927  -7.35  0.000700855    1.634    0.388
       330  -9.4305     38.9720    135.6642   1.0192179977e+02   4.3287629374e+01    0.3313186    0.2189059  87.23  0.001034015    1.702    0.412
       331 -10.4379     83.4148    132.8279   8.7095684199e+01   3.8007181969e+01    0.5765889    0.3904769 -77.69  0.001263498    1.858    0.462
       332  -8.4933    179.7564    134.0556   6.2352897785e+01   1.9094754973e+01    0.2284446    0.1919585 -60.37 0.0008972098    1.326    0.246
       333  -9.1159    112.8621    133.2654   7.8418329845e+01   3.2654827071e+01    0.3713861    0.2761267  80.85    0.0010481    1.909    0.476
       334  -7.9364    237.5365    133.4888   5.2206572231e+01   8.7225875672e+00    0.1310422     0.107621 -37.43 0.0008086583    1.063    0.059
       335  -9.1480    143.2145    131.7158   7.0005312733e+01   2.6978489460e+01    0.3417298     0.248115 -74.95 0.0007693677    1.945    0.486
       336 -10.0861    132.2609    131.0557   7.2621122362e+01   2.9352186527e+01    0.7154645    0.3538161 -56.84  0.002114092    2.448    0.592
       337  -8.6033    135.5091    124.4715   7.0165192664e+01   3.0167408914e+01    0.4932289    0.2022934 -49.23  0.001684446    2.487    0.598
       338 -10.2588     98.0474    130.2897   8.2044336432e+01   3.6125650995e+01    0.6696215    0.3296931 -53.85   0.00162207    2.010    0.503
       339 -10.1914     13.0397    129.2294   1.0949200167e+02   4.7266829476e+01    0.5670344    0.2816427  70.77  0.002268621    2.585    0.613
       340  -7.7571    204.7024    130.3392   5.6790197249e+01   1.4999792781e+01    0.1397892    0.1059077 -65.16 0.0007033025    1.660    0.398
       341  -7.9285    192.6532    130.2033   5.8944328007e+01   1.7315998513e+01    0.2005343    0.1245786 -32.95 0.0003975098    1.555    0.357
       342  -9.1076    168.3495    129.5363   6.3678752172e+01   2.2290483006e+01    0.3057441    0.2353877 -77.40 0.0008572486    1.787    0.440
       343  -9.4061    152.8050    128.3006   6.6872279052e+01   2.5745717324e+01    0.5881629    0.2396113 -49.92   0.00127267    2.623    0.619
       344  -7.9552      1.6702    130.3243   1.1326436172e+02   4.7722202024e+01    0.1370824   0.08561304  64.39 0.0004744775    1.700    0.412
       345  -7.5675    220.6799    129.7383   5.3988692465e+01   1.2206827548e+01    0.1287523     0.099728  -2.05 0.0005677846    1.550    0.355
       346  -8.2684    211.4713    128.9735   5.5326916665e+01   1.3994703462e+01    0.1939142    0.1071437 -56.77 0.0007490784    2.393    0.582
       347  -7.6655    186.3085    129.6231   6.0022753124e+01   1.8666348654e+01    0.1500159    0.1126668 -70.31 0.0007028704    1.782    0.439
       348 -10.8437     44.7852    123.3184   9.7893614087e+01   4.5873121874e+01     1.155694    0.5945267  73.26  0.003792108    3.912    0.744
       349  -9.8288    118.0305    125.3053   7.5050183694e+01   3.3529799587e+01    0.5763559    0.3854986  78.31  0.001494744    2.623    0.619
       350  -7.9820    228.5061    125.5029   5.1869819325e+01   1.1562367432e+01    0.1342095    0.1128232 -39.33 6.891122e-05    1.049    0.047
       351  -8.7938    179.3537    124.7512   6.0251759949e+01   2.1003877801e+01    0.2662334    0.2245312 -80.05 0.0007248117    1.467    0.318
       352 -10.4160     28.7256    122.4630   1.0328416162e+02   4.7749638032e+01    0.7620268    0.3837321  72.96  0.002815287    3.213    0.689
       353  -7.7267    188.6737    124.2808   5.8324586353e+01   1.9218863187e+01     0.140784    0.1133039 -76.55 0.0003553624    1.597    0.374
       354  -8.7724     85.5192    122.3052   8.4058655104e+01   4.0297729208e+01     0.487771     0.257245  15.73  0.001601784    3.318    0.699
       355  -8.4065    171.9484    121.5077   6.0983616862e+01   2.3165418575e+01    0.2331868    0.1877016 -42.22 0.0004292529    1.173    0.147
       356  -9.1202    158.5233    121.3453   6.3848784842e+01   2.6011633675e+01    0.3451046    0.2317319 -60.71  0.000982634    1.802    0.445
       357  -9.2730    130.7551    118.3671   6.9851144540e+01   3.2514514046e+01    0.4392014    0.2940258 -76.56  0.001079833    2.433    0.589
       358  -9.9094      2.8766    117.0824   1.1144991104e+02   5.1034889473e+01    0.5197045    0.2389934  72.57  0.002109045    2.916    0.657
       359  -8.2790     21.3257    118.3129   1.0521617123e+02   4.9463920417e+01    0.1460648   0.08990464 -40.68 0.0003804916    1.663    0.399
       360  -8.1433    185.6421    115.8217   5.6892854674e+01   2.1433792682e+01     0.211533     0.124494 -48.35 0.0005101856    1.664    0.399
       361  -9.7092    109.5138    114.4380   7.4725555586e+01   3.7753017968e+01    0.4600116    0.3244218 -79.53  0.001378685    2.107    0.525
       362 -10.5160     55.1374    144.4412   9.8186700361e+01   3.9110076007e+01    0.9595307    0.5516142  85.75  0.003425142    2.476    0.596
       363  -8.2117    192.9921    115.2900   5.5411634994e+01   2.0035186782e+01    0.1959633    0.1812096 -45.99 0.0004800726    1.043    0.041
       364  -9.9110    141.5561    118.5840   6.7155754191e+01   3.0190502378e+01    0.4752137    0.3053759 -60.54  0.001359655    1.898    0.473
       365 -10.0199     92.7627    112.6636   7.9374449648e+01   4.1375171472e+01    0.4963527    0.3457747 -71.14  0.001148167    1.819    0.450
       366  -9.8283     79.0271    112.4998   8.3808927672e+01   4.3817317371e+01    0.5033792     0.360322  88.43  0.001594564    2.039    0.510
       367  -8.7504     26.0317    129.4993   1.0525103406e+02   4.6158477518e+01    0.2017212    0.1396239  20.99  0.001049147    1.639    0.390
       368  -8.0273    167.4769    114.4979   6.0190703869e+01   2.5499511046e+01     0.150422    0.1421935 -46.98 0.0001203538    1.030    0.030
       369 -10.4248    133.6683    108.8032   6.6582424846e+01   3.3984852252e+01    0.7215899    0.3173817 -49.07  0.002124802    2.358    0.576
       370 -10.0086    128.6448    102.0352   6.6040410922e+01   3.6516287869e+01    0.3770184    0.2854967 -81.38 0.0009924329    1.823    0.451
       371 -10.1354    121.9257    112.4603   7.0679586926e+01   3.5676276060e+01    0.3578792    0.2964119 -72.19 0.0008154057    1.410    0.291
       372 -10.7772    248.6374    107.5829   4.5368851993e+01   1.1045624420e+01    0.4244372    0.2255691 -45.79  0.002243406    1.589    0.371
       373  -8.4806    159.1836    111.7134   6.1272284397e+01   2.7839001955e+01    0.2653062    0.1939489 -52.34 0.0006425266    1.396    0.283
       374  -9.6751     71.1772    119.7633   8.8162490824e+01   4.3255843442e+01    0.4199598    0.2690071 -78.73   0.00127979    2.086    0.521
       375 -10.4794     66.4868    109.8497   8.7455948317e+01   4.6456887832e+01    0.6160382    0.3468969 -64.52  0.002384022    1.944    0.486
       376  -8.4077     51.0952    112.5330   9.3533470544e+01   4.7898619814e+01    0.2084612     0.146007  26.11 0.0006157007    1.540    0.350
       377 -10.2581     13.8374    111.1232   1.0681004476e+02   5.1876544216e+01    0.4058615    0.2600164  56.15  0.001563835    1.836    0.455
       378  -9.6898     43.2968    109.2400   9.5668961812e+01   4.9673373295e+01    0.3625152    0.1869015  14.99  0.001483139    2.450    0.592
       379  -8.2784    189.3733    107.6848   5.4243199012e+01   2.2174613660e+01    0.2840618    0.1230554 -43.80 0.0007192366    2.129    0.530
       380  -9.7083    110.7729    106.7762   7.2311043153e+01   3.9254718304e+01    0.4848245    0.2140746  32.04  0.001576967    2.975    0.664
       381  -9.8719    139.9261    104.1049   6.3744161442e+01   3.3610821695e+01    0.4665252    0.2879738 -55.22  0.001317709    1.817    0.450
       382 -10.7938    109.2984     98.9182   7.0551274130e+01   4.1307557631e+01    0.8847277    0.4853159  65.43  0.002828744    3.554    0.719
       383  -9.0755    108.2941     92.1841   6.8892429076e+01   4.2973195136e+01    0.5851772    0.3229404  27.87  0.002164117    2.466    0.594
       384  -8.5314     78.0905    105.3249   8.2297645582e+01   4.5722809011e+01    0.3550418    0.2173445 -27.98  0.001429924    2.108    0.526
       385 -10.5855     45.4149    101.9349   9.3287454098e+01   5.1273153886e+01    0.8099717     0.473827  77.02  0.002977959    3.301    0.697
       386 -10.6494     22.6088    102.2820   1.0208794835e+02   5.3470655174e+01    0.7389856     0.412264  76.06  0.002703371    2.750    0.636
       387  -8.3013    166.7705    104.1215   5.7702465353e+01   2.7682532956e+01    0.2311349    0.1920671 -63.30 0.0005991504    1.288    0.223
       388  -9.4711    150.4415    102.7718   6.0893171615e+01   3.1555741132e+01    0.4280464     0.246076 -55.53  0.001052991    2.032    0.508
       389  -9.1058      6.7676    102.8503   1.0820439539e+02   5.4429664012e+01    0.2521411    0.1646805  84.71 0.0007936592    1.676    0.403
       390  -7.5353    175.6363    102.2886   5.5465096048e+01   2.6095473196e+01    0.1507262    0.1141662 -78.84 0.0003024457    1.697    0.411
       391  -8.6048    174.8239    111.7219   5.7991685127e+01   2.4478061438e+01     0.278356    0.1786172 -61.82  0.000802333    1.981    0.495
       392  -9.3009     82.1942    100.0451   7.9481549483e+01   4.6273393709e+01    0.3645053    0.2611387 -73.78 0.0008888888    1.843    0.457
       393  -9.5006     95.0331     97.0111   7.4389396802e+01   4.4593879526e+01    0.3320112    0.2416461 -60.83 0.0005421016    1.552    0.356
       394 -10.2003     63.8743     95.8460   8.4836913433e+01   5.0274361464e+01    0.5572391    0.3607064 -82.05  0.001757058    2.513    0.602
       395  -8.8223     93.7561    104.2180   7.6816634599e+01   4.3187038118e+01      0.22309    0.1820465 -11.66  0.001067857    1.419    0.295
       396  -8.2322    159.9697    101.0317   5.8323575032e+01   2.9781276148e+01    0.2389765    0.1780723 -70.18 0.0005308657    1.664    0.399
       397  -8.1138    164.9496     94.1971   5.5479227411e+01   2.9968392178e+01    0.2161342    0.1502464 -57.18  0.000462286    1.559    0.358
       398  -7.7012    188.3212     93.3205   5.0903222747e+01   2.4972645827e+01    0.1411425    0.1131568   6.80 0.0007044479    1.671    0.401
       399  -8.0906    176.4660     93.0059   5.2936361121e+01   2.7617827908e+01     0.226209    0.1352168 -42.24 0.0005943141    1.568    0.362
       400  -9.2991    139.0984     92.1841   6.0637732881e+01   3.6206987498e+01    0.3819477    0.2889743 -80.51 0.0005895045    1.765    0.433
       401 -10.0650    123.7119     91.1536   6.4247008666e+01   3.9861007235e+01    0.6061629    0.4578668  25.29  0.001299146    1.547    0.354
       402  -9.5412     47.0230     92.2693   9.0341802563e+01   5.3460282433e+01     0.492464    0.2386093  14.60  0.001879502    2.827    0.646
       403  -9.4742      5.4332     92.0021   1.0705855065e+02   5.7218240700e+01    0.3171613    0.1986892  72.11  0.001457797    2.028    0.507
       404  -9.6278     34.9375     89.9445   9.4619004514e+01   5.5405763185e+01    0.4525959     0.277356 -89.33  0.001373542    2.547    0.607
       405  -9.2450     22.8210     90.0863   9.9618947098e+01   5.6502143777e+01    0.3292388    0.2380902 -17.51  0.001166126    1.504    0.335
       406  -8.1718    151.0000     89.0012   5.7004585945e+01   3.4108049246e+01    0.2463655   0.08421939 -39.45  0.000445164    2.867    0.651
       407  -9.8777     86.4220     86.5365   7.4123373909e+01   4.8565253704e+01      0.45463    0.3495508  88.84  0.001117747    1.940    0.484
       408  -8.8938     64.7846     87.7221   8.2232839872e+01   5.2043811651e+01    0.3416195    0.2056354   4.95  0.001329738    2.608    0.617
       409  -9.9045     48.5120     83.9422   8.7532876267e+01   5.5254557356e+01       0.5699    0.3883159  87.24  0.002186869    2.494    0.599
       410  -8.3478    158.0282     83.9954   5.4125191242e+01   3.3414858567e+01    0.2282105    0.1727407 -70.26 0.0003966634    1.554    0.356
       411  -9.6465    104.7661     82.8851   6.7124468736e+01   4.5654410816e+01     0.447898    0.3011841 -63.37 0.0009172615    1.971    0.493
       412  -8.7641    106.1545     76.7805   6.4782507883e+01   4.6574698850e+01    0.4869263    0.2319214  31.97  0.001662211    2.938    0.660
       413  -9.7476     10.0436     81.4223   1.0323892390e+02   5.9540435382e+01    0.4295227    0.2686898  85.63  0.002128135    2.092    0.522
       414  -8.3070     63.8609     82.3809   8.1006665470e+01   5.3405062426e+01     0.197891    0.1805502 -58.53 0.0006655275    1.186    0.157
       415  -8.0335    157.5650     91.5121   5.6283287863e+01   3.2138832525e+01    0.1498442    0.1417156 -60.24 6.705121e-05    1.036    0.035
       416  -9.5667     24.7539     80.5462   9.6661178481e+01   5.8650914604e+01    0.4551804    0.2960162  81.60  0.001478463    2.379    0.580
       417  -8.3534    150.3352     80.6390   5.4792912361e+01   3.5800666985e+01    0.2269022    0.1702739 -74.53  0.001060919    1.646    0.392
       418  -8.3616    132.4358     81.4518   5.9137501952e+01   3.9796032206e+01    0.1491903    0.1456718 -76.37  2.12677e-05    1.036    0.035
       419  -8.6851    119.4855     80.3499   6.2138388052e+01   4.2946788658e+01    0.3187011    0.2319372 -73.35 0.0009575646    1.912    0.477
       420  -8.8523     74.6995     80.4748   7.6361495466e+01   5.2020887174e+01    0.3398159    0.2012804 -57.39 0.0009183763    1.965    0.491
       421  -8.6567    249.6888     80.3352   3.9658019818e+01   1.4981595284e+01    0.1294886   0.07755268 -59.26 0.0007044448    1.682    0.405
       422  -8.1430    166.8277     79.7918   5.1246799135e+01   3.2129147102e+01     0.198868    0.1612577 -65.04 0.0004056152    1.289    0.224
       423  -8.2995    184.0000     78.0944   4.7781860905e+01   2.8516444869e+01    0.2311326   0.07642346 -36.77 0.0007344567    2.863    0.651
       424  -7.9271    157.3562     76.2314   5.2095766578e+01   3.4940289286e+01    0.2103903     0.127657 -47.74 0.0004465306    1.653    0.395
       425  -9.2449    128.1827     75.2452   5.8309710068e+01   4.1926606009e+01    0.3457897    0.2376102 -58.80 0.0006223551    1.726    0.420
       426  -8.4791    140.4820     75.1179   5.5352829685e+01   3.9087851312e+01    0.2235143    0.1449122 -40.39  0.000701442    1.537    0.350
       427  -9.8558     63.2905     73.5267   7.8454875744e+01   5.5438620426e+01    0.4565787     0.282504 -60.68 0.0009641952    2.014    0.504
       428  -9.2666    140.9271     82.5385   5.7433551632e+01   3.7635799948e+01    0.3333044    0.2079656 -45.24  0.001165861    1.602    0.376
       429  -8.2956    163.4820     73.4240   5.0130279241e+01   3.3987542836e+01    0.2605445    0.1219169 -47.21   0.00102073    2.173    0.540
       430  -9.6960     82.3787     72.6072   7.1064615321e+01   5.2259634542e+01     0.398026    0.2998264 -72.73 0.0009390821    1.915    0.478
       431  -8.3253    151.4133     73.1675   5.2424869089e+01   3.6860111202e+01    0.2108473    0.1305919 -49.59 0.0006244656    1.668    0.400
       432  -8.7839    115.6909     72.3552   6.0655096356e+01   4.5308201780e+01    0.4117599    0.1834073 -38.32  0.001414243    2.296    0.564
       433  -7.6399    175.4701     72.5116   4.7746677787e+01   3.1364239612e+01    0.1424423    0.1322194 -65.23 5.831927e-05    1.007    0.007
       434  -9.1478    105.9368     71.4842   6.3129299717e+01   4.7634824538e+01    0.2803503    0.2038699 -56.72 0.0006892998    1.606    0.377
       435  -9.2167     95.1852     70.8995   6.6220212783e+01   5.0038326290e+01    0.4110675     0.241228 -53.70  0.001080188    2.054    0.513
       436  -7.9207     42.5415     72.5362   8.6730092458e+01   5.8622988203e+01    0.1366411    0.1274863 -32.55  6.98263e-05    1.085    0.079
       437  -9.4606     51.4158     69.4771   8.1971342022e+01   5.8110331763e+01     0.425736    0.2583747 -68.68  0.001465249    2.543    0.607
       438  -9.0635     28.1625     71.0287   9.2688410846e+01   6.0557967710e+01    0.2499482    0.1202429 -36.01  0.001084779    2.098    0.523
       439  -9.1171     16.7930     69.9003   9.7629562277e+01   6.1802520259e+01     0.360783    0.2237689 -80.92  0.001381033    2.105    0.525
       440  -8.5281    147.1244     68.1929   5.1859607694e+01   3.8713778048e+01    0.2604602    0.2035808 -57.06 0.0004643122    1.340    0.254
       441  -8.6288    138.5956     65.8414   5.2978488200e+01   4.1128505437e+01    0.2589224    0.1738422 -45.57  0.000667568    1.518    0.341
       442  -8.7369    121.5100     65.8079   5.7015790633e+01   4.5146117106e+01    0.2775834     0.226259 -74.19 0.0007327929    1.480    0.324
       443  -8.8555     37.4092     64.2327   8.6428710405e+01   6.1069975444e+01     0.296228    0.2221141  87.37  0.001470892    2.196    0.545
       444  -8.8837    110.0920     63.5636   5.9310595482e+01   4.8144784097e+01       0.2698    0.1997724 -54.88 0.0006664087    1.549    0.354
       445  -8.5968     64.7216     63.0487   7.4329329646e+01   5.7358285847e+01    0.4098729    0.2280723   5.69  0.001367676    3.874    0.742
       446  -9.5056     97.7616     61.2291   6.2104491314e+01   5.1273171218e+01     0.387109    0.3304841 -41.22  0.001523074    1.221    0.181
       447  -8.1224     85.9714     63.7623   6.6791551787e+01   5.3271331095e+01    0.1990187    0.1191779  42.47  0.000887327    1.639    0.390
       448  -7.9684    158.4194     61.9155   4.7829416506e+01   3.7043555726e+01    0.2071565     0.106452 -56.00 0.0005951179    2.406    0.584
       449  -9.5930     73.3907     59.5329   6.9735820036e+01   5.6492053416e+01    0.3715295     0.254538 -50.71  0.001084688    1.654    0.395
       450  -8.2313     88.6604     58.9048   6.4164620871e+01   5.3604977033e+01    0.2040053    0.1303184 -47.97 0.0005896048    1.741    0.426
       451  -8.0707    130.8170     57.7706   5.2195835905e+01   4.4286637760e+01    0.1984027    0.1664739 -72.84 0.0004608182    1.334    0.251
       452  -9.9575     23.4005     56.2549   9.0561341763e+01   6.4276108937e+01    0.4237768    0.2940393  84.68  0.001918109    2.676    0.626
       453  -9.5804      7.5587     57.2305   9.8857388887e+01   6.5304325463e+01    0.2829121    0.2101727  89.19  0.001004352    1.823    0.451
       454  -9.2794    118.7075     55.4727   5.4320852153e+01   4.7508693679e+01    0.4323486    0.2641854 -34.06  0.001730804    1.711    0.416
       455  -8.0300    140.1510     56.1275   4.9659910604e+01   4.2310112197e+01     0.200707    0.1623295 -65.85 0.0005095737    1.345    0.257
       456  -8.7782     43.9442     55.4552   8.0433371794e+01   6.2057851343e+01    0.2378317    0.1891212 -60.39 0.0006720879    1.548    0.354
       457  -8.9599     62.9084     54.6312   7.1966976208e+01   5.9278456945e+01    0.2577509    0.1964631 -46.95 0.0005731091    1.425    0.298
       458  -8.9822     53.9918     53.5237   7.5257531154e+01   6.0954384323e+01      0.38674    0.1943624 -54.18  0.001603002    2.562    0.610
       459  -8.5462    148.2391     53.0266   4.7116509384e+01   4.0830339690e+01    0.1933502    0.1820497 -55.81 0.0004420232    1.074    0.069
       460  -9.4687     92.4983     50.4212   5.9832120807e+01   5.4226200471e+01    0.3939321    0.2341951 -49.20  0.001348654    2.016    0.504
       461  -8.1275    129.6383     48.8339   4.9573560133e+01   4.5923567002e+01    0.1956296    0.1274332 -44.59 0.0004465604    1.613    0.380
       462  -8.4474    164.0000     47.9561   4.2907691719e+01   3.7772386410e+01    0.2223122   0.07741787 -32.65 0.0008004155    2.928    0.659
       463  -8.4722    120.8451     47.2017   5.1014276009e+01   4.8259222581e+01    0.2080384    0.1895685 -80.84 0.0004915989    1.183    0.155
       464  -8.2077    112.2902     46.9607   5.3014222960e+01   5.0306616138e+01    0.1932269    0.1809257 -27.22 0.0005513423    1.125    0.111
       465  -8.9844     82.1393     46.4951   6.1692229949e+01   5.7032946794e+01    0.2624254    0.2106446 -62.76 0.0005911295    1.661    0.398
       466  -8.0578    222.1796     45.2235   3.4966385888e+01   2.5133930480e+01    0.1694425    0.1183999 -60.44 0.0004147479    1.252    0.202
       467  -8.2326     45.0700     44.6688   7.5772219630e+01   6.3947823010e+01     0.210801    0.1743369 -45.18  0.000591465    1.354    0.262
       468  -9.2341     16.7669     44.6684   9.0133239703e+01   6.7282975811e+01    0.2308592    0.1677381 -63.74 0.0007816223    1.638    0.389
       469  -9.2390     69.5548     41.3557   6.4113346664e+01   6.0342140457e+01    0.3345905    0.2335747 -57.18  0.001061405    2.064    0.515
       470  -8.7535     58.0679     42.3106   6.9063372833e+01   6.2278955990e+01    0.2965713    0.1849972 -55.87  0.001367959    2.382    0.580
       471  -9.9019      5.2019     41.7166   9.5580727240e+01   6.8761548017e+01    0.3402365    0.2044402 -76.06  0.001737291    2.404    0.584
       472  -8.4086    105.6834     53.0500   5.6913753546e+01   5.0892260146e+01    0.2249086    0.1744557 -53.66 0.0007240348    1.479    0.324
       473  -7.4171    140.3048     41.6106   4.5104827625e+01   4.4352601196e+01    0.1504706    0.1006368 -66.17 0.0007014039    1.807    0.447
       474  -8.3293    105.8898     41.1580   5.2583832480e+01   5.2621663257e+01    0.2110238    0.1877059 -72.92 0.0006538609    1.304    0.233
       475  -8.4723     36.7213     40.5816   7.8107331716e+01   6.5855355382e+01    0.1909042    0.1633711 -63.48 0.0005596359    1.637    0.389
       476  -8.8502     95.6660     37.9515   5.4170317123e+01   5.5389065683e+01    0.2372318    0.1811742 -47.20 0.0007362937    1.503    0.335
       477  -8.1704     80.6306     36.8289   5.8342673733e+01   5.8800948111e+01    0.1843949    0.1240588 -42.73 0.0003541972    1.685    0.406
       478  -9.4210     26.0738     35.3272   8.1437335875e+01   6.8126444229e+01    0.2660098    0.2224544 -52.18 0.0008348357    1.480    0.324
       479  -7.8127    133.2919     35.6877   4.4540792004e+01   4.6821542550e+01    0.1395257    0.1020834 -69.89 0.0004957566    1.590    0.371
       480  -8.1534    125.9722     35.3302   4.5872405391e+01   4.8638102043e+01    0.1917451    0.1689268  64.47 0.0004278171    1.055    0.052
       481  -8.7706    111.8595     34.5380   4.8698465686e+01   5.2109805198e+01    0.2659135      0.16629 -48.39 0.0007544043    1.856    0.461
       482  -7.8477     88.4424     34.2091   5.4816371863e+01   5.7493295420e+01    0.1823832    0.1271915 -43.04  0.000847305    1.632    0.387
       483  -8.7677     48.6627     33.2903   6.9255602211e+01   6.5313365048e+01    0.2035434    0.1929739 -25.45 0.0006537809    1.289    0.224
       484  -8.2949    119.3480     33.1577   4.6521507471e+01   5.0501623166e+01    0.1954706    0.1185551 -42.63 0.0006148048    1.787    0.440
       485  -8.7994     60.7460     32.5750   6.3779585716e+01   6.3325068358e+01    0.2363299    0.2123475 -41.01 0.0008126021    1.345    0.257
       486  -7.7154    139.2943     31.6410   4.2146077237e+01   4.5858581675e+01    0.1433926   0.09764248 -65.83 0.0007031309    1.699    0.411
       487  -8.6098     72.1164     31.0483   5.8826039136e+01   6.1349074668e+01    0.1927898    0.1657463 -72.80 0.0006072306    1.650    0.394
       488  -9.2287     12.9126     29.9860   8.6702623697e+01   7.0449730550e+01    0.3022488     0.173482 -61.23  0.001551492    2.355    0.575
       489  -8.1950    191.4631    249.5133   8.1727557062e+01  -3.2468928318e+00    0.1192302   0.09494904   9.58 0.0008087166    1.057    0.054
       490  -9.1147      3.7652     27.6422   9.1389210172e+01   7.1619992144e+01    0.2174242    0.1566677 -60.14 0.0007724437    1.628    0.386
       491  -8.7512     91.8553     26.3187   5.0661558550e+01   5.7730556386e+01     0.282065      0.17482 -44.32 0.0009145753    1.910    0.476
       492  -8.3139     34.6666     23.3276   7.1341615710e+01   6.8992424065e+01    0.1673032    0.1551745  67.06 0.0008593585    1.706    0.414
       493  -8.8413     81.5743     27.3763   5.4113882884e+01   5.9859577090e+01    0.2670948    0.2005632 -65.86 0.0008620004    1.968    0.492
       494  -8.8707     63.6172     20.9782   5.7381197909e+01   6.4330830510e+01    0.2886814    0.1953461 -51.59  0.001015835    2.155    0.536
       495  -8.6857     48.4126     21.5411   6.3842600992e+01   6.7062674493e+01     0.210113    0.1819132 -18.89 0.0006971037    1.222    0.182
       496  -7.9954     19.5102     21.4984   7.8882599699e+01   7.1241698509e+01    0.1233634   0.09936988  -8.82 -8.126026e-05    1.018    0.018
       497  -8.7263     74.0923     19.3032   5.2982421112e+01   6.2399367558e+01    0.2272711     0.184317 -33.60 0.0005382188    1.399    0.285
       498  -8.0134     87.8552     17.7558   4.8239994978e+01   5.9578297488e+01    0.1661814    0.1516812 -75.10 0.0005432914    1.325    0.245
       499  -7.8351     38.7063     18.3259   6.6776662012e+01   6.9095614155e+01    0.1069347    0.1028362 -75.74 0.0004456607    1.622    0.383
       500  -8.3145    112.6185     16.8279   4.2104871198e+01   5.3924263547e+01    0.1674319    0.1201424 -40.13 0.0003105383    1.545    0.353
       501  -8.0381     30.3629     16.1515   6.9954667291e+01   7.0649945686e+01    0.1591565    0.1076288 -41.32 0.0005910219    1.744    0.427
       502  -8.0599     97.1778     15.1722   4.4831375070e+01   5.7716551923e+01    0.1703428     0.151113 -68.79 0.0003967384    1.324    0.244
       503  -9.0422    175.6460    247.6200   8.4528559534e+01  -9.3511975571e-01    0.2675337    0.2102513  60.22  0.001130207    2.126    0.530
       504  -7.9507     47.6832     10.3061   5.8431880288e+01   6.8563788786e+01    0.1082195    0.1009421 -83.80 0.0005432188    1.628    0.386
       505  -8.3023    113.1204    248.5807   9.7603020836e+01   7.4104712263e+00     0.197206    0.1645176 -84.90  0.001179916    1.525    0.344
       506  -9.1631    104.0008    247.2076   9.9395529277e+01   8.8928757593e+00    0.3553652     0.214558  90.00  0.001731499    2.826    0.646
       507  -8.3537     93.8505    249.3152   1.0178489498e+02   9.8646544698e+00    0.2072039    0.1241803  48.98  0.001154457    1.537    0.349
       508  -9.1468     64.6307    248.6873   1.0790491717e+02   1.3702100466e+01    0.2439337    0.1533165  47.70 0.0007526508    1.317    0.241
