#   1 NUMBER                 Running object number                                     
#   2 MAG_AUTO               Kron-like elliptical aperture magnitude                    [mag]
#   3 X_IMAGE                Object position along x                                    [pixel]
#   4 Y_IMAGE                Object position along y                                    [pixel]
#   5 X_WORLD                Barycenter position along world x axis                     [deg]
#   6 Y_WORLD                Barycenter position along world y axis                     [deg]
#   7 A_WORLD                Profile RMS along major axis (world units)                 [deg]
#   8 B_WORLD                Profile RMS along minor axis (world units)                 [deg]
#   9 THETA_WORLD            Position angle (CCW/world-x)                               [deg]
#  10 FWHM_WORLD             FWHM assuming a gaussian core                              [deg]
#  11 ELONGATION             A_IMAGE/B_IMAGE                                           
#  12 ELLIPTICITY            1 - B_IMAGE/A_IMAGE                                       
         1 -12.3684    213.3009     38.6913   3.6839999830e+01   2.8072575042e+01    0.9764912     0.796771 -45.31  0.004559232    1.236    0.191
         2 -11.7865    230.7250     23.1535   3.1890709346e+01   2.6326715442e+01    0.6875751    0.5330877 -65.11  0.002882344    1.049    0.047
         3  -9.9687      2.1403      8.5733   8.6135312983e+01   7.3687213255e+01     0.381175   0.06085414 -46.98  0.001302583    5.736    0.826
         4  -9.9098    249.7066      3.6059   2.6824120947e+01   2.4783324744e+01    0.3687562    0.1794662 -42.67   0.00226256    1.748    0.428
         5 -12.5604    111.2220    230.1781   9.9487868149e+01   1.0598821289e+01      2.05348    0.5825358  38.35  0.007396537    2.943    0.660
         6  -9.4988     81.0938    249.6449   1.0826599580e+02   1.1042788757e+01    0.2924053    0.1832169  43.68  0.001057167    1.331    0.249
         7 -13.3186      8.9509    207.6964   1.2019181909e+02   2.8368279335e+01     1.864442    0.9584371 -78.97  0.004452224    1.683    0.406
         8 -11.5780     28.1048    201.7040   1.1550954038e+02   2.7911981952e+01    0.5056526    0.4266182  -1.57  0.001021395    1.650    0.394
         9 -14.0905     37.1991    190.8820   1.1236511307e+02   2.9534574969e+01     10.05022     3.935592  82.51   0.03036599    5.040    0.802
        10 -11.2408     72.8535    219.2535   1.0691343958e+02   1.8489868774e+01    0.7597558    0.3805591  50.28  0.003538937    1.902    0.474
        11 -10.0844     43.5864    217.4367   1.1336233406e+02   2.2596832822e+01    0.4795657     0.237704 -79.51  0.001959129    2.033    0.508
        12 -12.2668     10.6072    233.4556   1.2135709468e+02   2.2614754787e+01     1.060549    0.6221148  63.52  0.005145428    1.396    0.284
        13 -13.9109     18.5091    247.6172   1.2061380181e+02   1.8945117036e+01     4.718948     1.407453  25.84   0.01792132    4.903    0.796
        14  -9.7572     41.4688    207.9442   1.1298827057e+02   2.5007869859e+01    0.4305342    0.2440581 -71.74  0.001208515    1.661    0.398
        15 -10.0505     22.9619    223.7106   1.1828519037e+02   2.3463345670e+01    0.4049729    0.1792778  68.92  0.001919434    2.342    0.573
        16  -8.2873     32.2664    222.5880   1.1624676310e+02   2.2725505777e+01    0.1528147    0.1170824  23.51 0.0009429004    1.596    0.374
        17  -9.5978     20.6769    194.9019   1.1666446937e+02   3.0250587679e+01    0.2392264    0.1907609  34.65 0.0008569255    1.396    0.284
        18  -7.6106     99.2301    181.0127   9.5089129796e+01   2.3542309453e+01     0.189141    0.1218344 -58.51 0.0005343234    1.560    0.359
        19 -10.3190     57.5422    175.4888   1.0535028596e+02   3.0973591643e+01    0.4436402    0.3044926 -30.96   0.00113853    1.945    0.486
        20 -10.1870     63.0029    170.3378   1.0314579888e+02   3.1576338463e+01    0.3674736     0.287418 -27.38 0.0007830869    1.593    0.372
        21  -9.9313      9.6911    168.3468   1.1711022727e+02   3.7641979310e+01    0.2971328    0.1722609  88.19 0.0008372175    1.573    0.364
        22  -7.6264     47.2744    168.3118   1.0717008269e+02   3.4036879777e+01    0.1378624   0.09933511 -42.74 0.0001870836    1.556    0.357
        23 -10.2338     73.3774    161.1851   9.8806947233e+01   3.2492748069e+01    0.4130493    0.2961884 -57.77  0.000476141    1.324    0.245
        24 -11.3921     80.5849    154.9798   9.5646560729e+01   3.3021935950e+01       1.0941    0.8273653 -64.06  0.002640554    1.283    0.220
        25 -11.9627     68.4804    144.6191   9.7317239242e+01   3.7460397791e+01     1.218544     0.771423  73.92  0.004479263    2.258    0.557
        26 -11.3331     57.6004    130.7321   9.8080378092e+01   4.2497982332e+01     1.057131    0.4233934 -70.71  0.003440981    3.299    0.697
        27  -9.3258     33.4539    157.9810   1.0966892595e+02   3.8161156212e+01    0.3599641     0.201323  68.63  0.001612127    2.155    0.536
        28  -8.6842     31.7954    233.5197   1.1713695233e+02   2.0422172223e+01    0.2551105    0.1440972  46.61  0.001472261    1.503    0.335
        29  -8.7244     23.2319    147.6676   1.1130070254e+02   4.1742713846e+01    0.2405303    0.1608558 -81.39 0.0009474514    1.357    0.263
        30  -9.1147     95.8465    141.1917   8.8416972804e+01   3.4064643842e+01     0.355929    0.2943861 -38.27  0.001118089    1.231    0.188
        31  -8.7598     98.6537    138.6793   8.7038929611e+01   3.4207739562e+01    0.3633085    0.2650421  -8.96  0.001571484    1.880    0.468
        32 -10.6909     83.8781    139.7478   9.1688029510e+01   3.6412121252e+01    0.3429447    0.2938992 -46.51 0.0004355587    1.132    0.117
        33 -10.4848     69.6660    131.3400   9.4347356684e+01   4.0711790408e+01     0.572341    0.3615935  78.44  0.002255039    2.549    0.608
        34  -9.3548    106.7719    130.9098   8.2865260972e+01   3.4660259318e+01    0.4422745    0.3442838  24.50  0.001729401    1.403    0.287
        35  -8.1865    105.6846    119.0756   8.0274279585e+01   3.7722219720e+01    0.2178104    0.1915163 -40.04 0.0002988813    1.108    0.097
        36 -10.7847     83.2748    217.4808   1.0429420632e+02   1.7431497226e+01    0.4919138     0.326006 -69.41  0.001508663    1.593    0.372
        37  -8.2379    205.3628    110.2289   5.4586420864e+01   1.8386335498e+01     0.185557    0.1848652  -4.72  0.001103787    1.110    0.099
        38 -12.0198     56.0436    240.7030   1.1268279322e+02   1.6086357700e+01    0.8515369    0.6652327  -2.66  0.001252823    1.982    0.496
        39 -11.6832     60.1639    157.0503   1.0191650761e+02   3.5358909208e+01    0.5263547     0.322857 -39.90  0.001239196    1.876    0.467
        40  -9.8848      7.3485     61.8704   1.0209451908e+02   6.3575340121e+01     0.325369   0.09241017 -60.18  0.001215773    2.819    0.645
        41  -9.7359     13.3724     60.3408   9.8931865085e+01   6.3525942750e+01    0.2244008    0.1949244 -40.37 0.0006359164    1.131    0.116
        42  -9.5422      1.9030     59.6805   1.0405412935e+02   6.4328082456e+01    0.2324949    0.1249368 -49.27  0.001251812    1.410    0.291
        43  -8.5099     32.2369     54.8139   8.8537230632e+01   6.3029394011e+01    0.1797741    0.1662337 -30.61 0.0006250815    1.232    0.188
        44 -10.0334      2.2806     48.8474   1.0106614066e+02   6.6559330037e+01    0.3393379    0.1395911 -54.16  0.001727598    1.880    0.468
        45 -11.0510    197.1584     50.4020   4.1491444867e+01   3.0072072853e+01    0.5918892    0.2771565  75.82  0.002478785    2.537    0.606
        46  -9.3132     11.7787     52.9836   9.7604745916e+01   6.5155692301e+01    0.1620519    0.1318278  38.81 0.0007035306    1.640    0.390
        47 -10.7906    221.1317     31.7947   3.4540058548e+01   2.7272442086e+01    0.3953822    0.3192056  41.86  0.001105121    1.730    0.422
        48 -11.6816    204.4396     44.3493   3.9135340178e+01   2.9270467601e+01    0.5581546    0.4135099 -55.01  0.001940813    1.229    0.187
        49 -11.6375     96.9047    228.5208   1.0251038782e+02   1.3075774015e+01    0.7862567    0.7040088  49.53  0.004857827    1.010    0.010
        50  -9.8687      2.2291     37.8018   9.7771815475e+01   6.8725570826e+01    0.3763135    0.0948275 -59.81  0.001378717    4.210    0.762
        51  -8.5055    130.0399     37.4922   4.9095230895e+01   4.7670197815e+01    0.2315329      0.18362 -58.59 0.0006271905    1.444    0.307
        52  -9.1645    101.4787    237.9961   1.0263564727e+02   1.0472339005e+01    0.1810231    0.1300649 -65.95  0.001024601    1.574    0.365
        53 -10.0734     83.6659    229.9597   1.0565703374e+02   1.4673997281e+01    0.3119187    0.2444973   9.58  0.001774899    1.638    0.390
