#   1 NUMBER                 Running object number                                     
#   2 MAG_AUTO               Kron-like elliptical aperture magnitude                    [mag]
#   3 X_IMAGE                Object position along x                                    [pixel]
#   4 Y_IMAGE                Object position along y                                    [pixel]
#   5 X_WORLD                Barycenter position along world x axis                     [deg]
#   6 Y_WORLD                Barycenter position along world y axis                     [deg]
#   7 A_WORLD                Profile RMS along major axis (world units)                 [deg]
#   8 B_WORLD                Profile RMS along minor axis (world units)                 [deg]
#   9 THETA_WORLD            Position angle (CCW/world-x)                               [deg]
#  10 FWHM_WORLD             FWHM assuming a gaussian core                              [deg]
#  11 ELONGATION             A_IMAGE/B_IMAGE                                           
#  12 ELLIPTICITY            1 - B_IMAGE/A_IMAGE                                       
         1 -12.9670      1.9228     83.4474   2.9226597462e+02   6.7035301084e+00    0.1249476   0.01126912 -62.86  0.004919127   11.192    0.911
         2 -14.5072      4.3832     18.6479   2.9186038476e+02   7.4195237831e+00    0.2585979   0.05486508 -59.70   0.01680763    4.044    0.753
         3 -14.0238    188.5253     22.6295   2.8975601753e+02   6.3822700421e+00   0.09583089   0.05129329 -50.37  0.007286753    1.798    0.444
         4 -13.7255    195.2334     17.3932   2.8964800359e+02   6.4047530099e+00   0.06366781   0.04844416 -84.46  0.004807485    1.555    0.357
         5 -14.0739    201.5514      9.5522   2.8952923869e+02   6.4585775677e+00   0.07906076   0.04917506   1.09  0.001467654    1.989    0.497
         6  -9.1823    158.1117    241.8561   2.9138478094e+02   4.0797670782e+00  0.009078853   0.00719193 -31.10  0.000401962    1.297    0.229
         7 -10.2882    205.1329    249.7883   2.9088977944e+02   3.7369684384e+00  0.009658523  0.008780494  54.63 0.0006190322    1.186    0.157
         8 -11.8620    145.5306    241.3316   2.9152657747e+02   4.1534458160e+00   0.02596969   0.01860892 -30.40 0.0007973636    1.496    0.332
         9 -11.1144    143.4277    249.3716   2.9159745856e+02   4.0742312125e+00   0.02142412   0.01701328  51.53  0.002359346    1.384    0.278
        10 -11.1543    151.1038    247.8685   2.9150036599e+02   4.0498177279e+00   0.02684527   0.01456892  37.11  0.002604394    1.838    0.456
        11 -10.3335    152.7076    244.0181   2.9145954788e+02   4.0845366520e+00   0.01523624   0.00921083 -62.03 0.0009127641    1.661    0.398
        12 -11.1313    134.0514    249.4835   2.9170605773e+02   4.1234524498e+00   0.02324106   0.01197503  36.81   0.00219833    1.925    0.480
        13 -12.0187    106.2738    240.2907   2.9197261979e+02   4.3764566898e+00   0.03417567   0.02294588  16.43            0    1.546    0.353
        14 -11.4369     96.4109    239.2010   2.9207991021e+02   4.4417674240e+00    0.0229963   0.01926909  82.59  0.001703944    1.390    0.280
        15 -12.4573    110.2686    248.7326   2.9197556186e+02   4.2598800687e+00   0.07154856   0.02050863  27.90  0.005215806    3.215    0.689
        16 -11.3273     99.5295    247.6925   2.9209321195e+02   4.3293452972e+00   0.02744223   0.02125254  45.38  0.003153712    1.371    0.271
        17 -11.3128     87.8027    249.3192   2.9223770554e+02   4.3740522726e+00   0.02462063   0.02367558 -15.99  0.001944305    1.005    0.005
        18 -11.3059     81.5402    246.9811   2.9229629508e+02   4.4340422628e+00   0.03277998   0.01825003 -75.78  0.003010842    2.255    0.557
        19 -10.4066     84.7638    241.5551   2.9222772425e+02   4.4778500595e+00   0.02339725   0.01343838 -14.70  0.002066579    2.488    0.598
        20 -11.8438     86.3875    237.1709   2.9218361106e+02   4.5185159911e+00   0.04078009   0.01807252  12.35  0.002895532    3.042    0.671
        21 -11.2066    121.6229    244.9744   2.9182300857e+02   4.2411272612e+00   0.02762955   0.01400209  52.44  0.002185912    2.639    0.621
        22 -12.4478    126.2563    240.9110   2.9174607654e+02   4.2619573376e+00   0.04304679   0.02069421 -65.11  0.003867513    2.184    0.542
        23 -13.0113     61.9618    246.0254   2.9251629873e+02   4.5499516441e+00    0.0633206   0.03655987  22.70  0.005006318    1.744    0.427
        24 -13.7500     46.0857    246.2173   2.9270031342e+02   4.6329812058e+00   0.04486211   0.03652478  14.41  0.002976254    1.239    0.193
        25 -14.7986     57.7206    217.5636   2.9240032581e+02   4.8934106364e+00    0.1328537     0.120768  88.67   0.01658146    1.213    0.176
        26 -10.9317    136.2016    227.8585   2.9155577276e+02   4.3554190160e+00   0.01304737   0.01195024  49.07 0.0008094195    1.159    0.137
        27 -11.3607    135.4989    241.4895   2.9164300142e+02   4.2056875128e+00   0.01516599   0.01138711  34.55  0.001641979    1.335    0.251
        28 -12.1604    134.8005    236.7584   2.9162358184e+02   4.2627304817e+00   0.02293507   0.01582523 -49.97  0.002057547    1.409    0.290
        29 -10.6202    173.3886    240.0972   2.9119871467e+02   4.0172383561e+00   0.01560599   0.01138102 -85.30  0.000895159    1.667    0.400
        30 -10.4600    115.7647    240.1312   2.9186238045e+02   4.3271990832e+00   0.01201334    0.0108958  74.19  0.001369239    1.227    0.185
        31 -11.3038     72.9384    238.0856   2.9234385813e+02   4.5804680558e+00   0.02766571   0.01697455 -87.60  0.002446125    2.321    0.569
        32  -9.0427    150.7435    239.3919   2.9145529683e+02   4.1472103229e+00  0.008719513   0.00618177   9.17 0.0008544412    1.515    0.340
        33 -10.6345     74.1453    249.3873   2.9239541330e+02   4.4466559004e+00   0.02295635    0.0148282 -77.46    0.0023251    1.853    0.460
        34 -10.8640     90.8571    226.4154   2.9206975923e+02   4.6156615441e+00   0.03509558   0.01476393  27.06  0.003024491    2.300    0.565
        35 -10.7785    117.4168    224.4324   2.9175225527e+02   4.4951372913e+00   0.01277689    0.0119155  -5.81 0.0005901988    1.056    0.053
        36 -10.2394    110.7776    222.3712   2.9181677876e+02   4.5540821988e+00   0.01421648   0.01181428 -35.94  0.001195468    1.200    0.166
        37 -12.4616    110.4292    230.1080   2.9186568810e+02   4.4688062334e+00   0.04071689   0.02574934  15.75  0.003721556    1.673    0.402
        38 -11.2054     98.5795    231.4200   2.9200980901e+02   4.5177618847e+00   0.02179163    0.0165445 -37.24  0.000880055    1.334    0.250
        39 -11.3719     98.5461    223.1324   2.9196212242e+02   4.6113029494e+00   0.02032622   0.01749102  37.33 0.0003094666    1.188    0.158
        40 -10.1121     93.8072    217.1908   2.9198225901e+02   4.7037210773e+00    0.0161676   0.01027215 -79.91  0.001596793    1.965    0.491
        41 -10.3151    105.0985    222.8513   2.9188499574e+02   4.5792270363e+00     0.011785  0.009315299  -6.09 0.0006324879    1.360    0.265
        42 -11.5714    105.0343    218.9789   2.9186326408e+02   4.6231939514e+00    0.0120035   0.01137221 -83.26  0.001521731    1.131    0.116
        43 -11.1867    121.6057    232.8438   2.9175282255e+02   4.3778493698e+00   0.01657231   0.01391033 -41.00 0.0005767782    1.172    0.147
        44 -11.7024    246.5960    232.5712   2.9031279312e+02   3.7068968475e+00   0.03001993   0.01209794  23.54  0.002479262    2.533    0.605
        45 -10.6051    156.5816    231.5937   2.9134278516e+02   4.2035686285e+00   0.01379459    0.0110492 -43.33  0.000798607    1.228    0.186
        46  -9.5791     92.4832    231.7332   2.9208185978e+02   4.5470104155e+00   0.01360111  0.006241592 -61.17  0.001203078    2.146    0.534
        47 -10.1013    180.8215    229.6166   2.9105224700e+02   4.0951568015e+00   0.01220443  0.009613105  88.46  0.001019304    1.520    0.342
        48 -10.6296     83.7795    230.5140   2.9217507215e+02   4.6075287468e+00   0.01975797   0.01091056  25.75  0.001289235    1.786    0.440
        49 -11.3671     78.5772    229.3732   2.9222840193e+02   4.6483353120e+00   0.02181468    0.0120649  15.12  0.002059485    2.003    0.501
        50 -13.2944     48.6091    228.5329   2.9256888054e+02   4.8187110930e+00   0.04535352   0.02561387   5.83  0.001612877    2.235    0.553
        51 -13.1451     42.5007    237.3111   2.9269008599e+02   4.7525668195e+00   0.04193171   0.02266635  14.98 0.0009163512    2.071    0.517
        52 -10.3468    190.9113    228.1289   2.9092747031e+02   4.0574825519e+00   0.01011135  0.009126536 -58.12 0.0002990855    1.117    0.105
        53 -11.4131    246.1380    227.7292   2.9028986696e+02   3.7638436451e+00   0.01917642   0.01030213  42.21  0.001817366    1.969    0.492
        54 -11.4988    142.1574    229.3238   2.9149569254e+02   4.3068406606e+00   0.02241034   0.01242619 -60.78  0.001759857    1.785    0.440
        55 -10.6123    164.9237    226.8907   2.9121941195e+02   4.2115635938e+00   0.01463482   0.00982726 -75.68 0.0009536533    1.721    0.419
        56  -8.9182    155.6791    223.3339   2.9130518392e+02   4.3014418476e+00  0.006801623  0.004882941  61.12 0.0007049704    1.702    0.412
        57 -10.6905    149.9512    222.3748   2.9136557135e+02   4.3431094395e+00     0.011762  0.009532634 -50.31 0.0002444367    1.207    0.172
        58  -9.4781    149.5458    218.5591   2.9134806786e+02   4.3882629668e+00     0.010836  0.009703913  68.86 0.0004545905    1.246    0.197
        59 -12.6226    141.9826    220.1533   2.9144443790e+02   4.4110588131e+00   0.02696875   0.01988601 -81.41    0.0029613    1.592    0.372
        60 -10.0421    141.8014    213.1947   2.9140609326e+02   4.4904021312e+00   0.01500272   0.01102842  48.72  0.001660383    1.490    0.329
        61  -9.6874    164.1752    220.9457   2.9119347504e+02   4.2825381200e+00   0.01563779  0.007108848 -45.52   0.00136241    2.223    0.550
        62 -10.3294     89.5682    218.8909   2.9204097032e+02   4.7073606256e+00   0.01388077   0.01184691  65.82  0.001122357    1.332    0.249
        63 -10.7239    246.3990    218.8826   2.9023534614e+02   3.8619613795e+00   0.01352253    0.0087163  -2.12   0.00133894    1.901    0.474
        64 -10.1964    177.0965    218.4651   2.9103028590e+02   4.2407936250e+00    0.0180427   0.01235601  80.82  0.001258018    2.002    0.501
        65  -9.1277    134.0973    217.8688   2.9152199105e+02   4.4792605001e+00   0.01027325   0.00858886  53.20 0.0006433284    1.310    0.237
        66  -9.9952    233.1207    216.8372   2.9037613283e+02   3.9567090536e+00  0.009894385  0.008707671  59.10 0.0003607678    1.253    0.202
        67  -8.7218    123.6939    217.2924   2.9163848913e+02   4.5417717158e+00  0.006552706  0.004888376  58.83 0.0002889204    1.578    0.366
        68 -10.0837    183.2685    214.1957   2.9093440050e+02   4.2555666301e+00   0.01346682  0.009604712  51.74 0.0008296333    1.587    0.370
        69 -10.6148     88.2072    213.3615   2.9202457881e+02   4.7769715713e+00   0.01681542   0.01281204 -28.02   0.00113407    1.387    0.279
        70 -11.0720    101.4791    212.2539   2.9186519959e+02   4.7180762697e+00   0.02231267   0.01467543  28.25  0.002382144    1.496    0.332
        71 -11.0953    131.5434    211.8398   2.9151638918e+02   4.5609183598e+00   0.01218721   0.01160864  81.82 0.0003090456    1.137    0.121
        72  -9.8996    134.9026    208.0732   2.9145580426e+02   4.5852470220e+00   0.01383915  0.009634527 -36.85 0.0008782407    1.489    0.328
        73  -9.4647    152.1776    211.9180   2.9127915874e+02   4.4488653716e+00  0.009733767  0.008740136  65.20 0.0005652659    1.234    0.190
        74  -9.1664     33.1186    211.4812   2.9264870018e+02   5.0939484436e+00  0.009176231  0.006325581  22.63 0.0003873087    1.449    0.310
        75  -9.6084    109.4918    210.4793   2.9176256318e+02   4.6949558677e+00   0.00644801  0.006216954 -17.12 0.0004348803    1.001    0.001
        76 -15.4228     12.3762    209.2525   2.9287495166e+02   5.2302307788e+00    0.2033526    0.1196907 -70.42   0.02001196    1.893    0.472
        77  -9.1998    197.7832    208.2080   2.9073248131e+02   4.2446428010e+00  0.008695419    0.0071219 -24.05 0.0003082626    1.265    0.210
        78 -10.6577    174.4860    206.1547   2.9098873865e+02   4.3934729147e+00     0.018743    0.0121221 -36.61  0.001060944    1.639    0.390
        79 -11.7678     93.0827    205.1977   2.9192101359e+02   4.8427270086e+00    0.0338744   0.01721571  34.14  0.001870565    1.914    0.478
        80 -11.3693    247.3231    204.6719   2.9014193216e+02   4.0168416798e+00    0.0198272    0.0130706  24.90  0.002112803    1.505    0.335
        81 -10.7942    166.0965    204.8662   2.9107785269e+02   4.4532298306e+00   0.02061908    0.0150921 -48.17  0.002317413    1.334    0.250
        82  -8.7626    183.2861    206.6194   2.9089012064e+02   4.3407642576e+00  0.006772537  0.004916226  66.57 0.0007013865    1.732    0.423
        83  -9.6004    149.0496    205.0230   2.9127510580e+02   4.5433697183e+00   0.01557071  0.007043142 -39.90  0.001294153    2.520    0.603
        84  -9.9082    126.0233    205.8611   2.9154525282e+02   4.6579836729e+00  0.009893937  0.008424425  49.91  0.000422347    1.263    0.208
        85  -8.9038    114.4231    206.5300   2.9168280540e+02   4.7129031112e+00  0.006489804  0.006094887 -26.76 4.238794e-05    1.037    0.036
        86 -10.7452    108.6147    203.5162   2.9173223904e+02   4.7781121312e+00   0.01886399  0.009373343 -51.24 0.0005164552    1.919    0.479
        87 -10.3939    133.0501    202.9632   2.9144745206e+02   4.6527764341e+00   0.01198984  0.008940291 -55.23  0.000338061    1.315    0.239
        88 -10.9569    134.2070    197.7326   2.9140372078e+02   4.7054534354e+00   0.01585962    0.0123555 -62.71 0.0002572416    1.303    0.232
        89 -10.0843    103.6564    203.2606   2.9178789955e+02   4.8076716069e+00   0.01432872   0.01030918 -31.71     0.000999    1.475    0.322
        90  -9.2035     75.5708    203.9500   2.9211563300e+02   4.9509245901e+00   0.02132304  0.009188824  13.67  0.001642799    3.058    0.673
        91  -9.6088    224.8958    202.5204   2.9038736362e+02   4.1622424352e+00  0.009224972  0.008577575 -51.49 0.0004361353    1.073    0.068
        92 -10.8184    197.5024    200.7995   2.9069258902e+02   4.3295510128e+00   0.01963891   0.01015892  36.65  0.001449365    1.915    0.478
        93  -9.6320    169.8685    200.5217   2.9100914134e+02   4.4818020993e+00  0.009455342  0.008494488 -55.24 0.0004609673    1.112    0.101
        94  -9.0915    115.4261    200.9276   2.9163870615e+02   4.7706089930e+00  0.008809554  0.005587637  80.25 0.0008034896    2.367    0.578
        95  -9.1397    122.6945    200.6828   2.9155352389e+02   4.7342341003e+00   0.00688022  0.004701365 -28.24  0.000325149    1.628    0.386
        96 -10.3579    250.5881    198.7638   2.9006995516e+02   4.0656583286e+00    0.0129385   0.00572551 -56.65 0.0008936043    2.129    0.530
        97  -9.8467    141.5283    198.4121   2.9132331668e+02   4.6583532932e+00   0.01365497  0.008205582 -21.08  0.001200458    2.160    0.537
        98 -10.3533    100.5705    198.2498   2.9179437052e+02   4.8807213033e+00   0.01160705   0.01076529 -25.25  0.000249687    1.056    0.053
        99 -10.1594     83.9048    193.9388   2.9196146060e+02   5.0189173697e+00   0.02151877   0.01661449  25.50  0.001272467    1.284    0.221
       100 -10.1951     52.6977    198.0506   2.9234513255e+02   5.1402448013e+00   0.01365107   0.01076189 -10.59 0.0006320542    1.369    0.270
       101  -9.8005     58.0000    199.0071   2.9228954021e+02   5.1009996146e+00   0.01201813  0.008285929 -56.13 0.0004245767    1.417    0.294
       102 -10.4916     56.6153    194.3158   2.9227830217e+02   5.1612936771e+00   0.02084349   0.01084736 -62.51  0.001967391    1.932    0.482
       103  -9.3865    192.0880    198.1145   2.9073928769e+02   4.3890032200e+00  0.009512468  0.008276491 -27.45            0    1.151    0.132
       104 -11.9628     76.9935    187.8872   2.9200601962e+02   5.1242481947e+00   0.01693624   0.01207534 -36.29 0.0008531778    1.450    0.310
       105 -12.0388     72.4631    194.6822   2.9209769195e+02   5.0720410003e+00    0.0268875   0.01592074 -30.26  0.001495591    2.002    0.501
       106 -10.6181     70.7776    190.2117   2.9209118539e+02   5.1314653338e+00   0.01117294  0.009950599 -26.35 0.0002667703    1.116    0.104
       107  -9.5898     86.1486    199.0618   2.9196532961e+02   4.9491389346e+00   0.01136204  0.007859867 -41.34 0.0003195727    1.456    0.313
       108  -9.6199    113.4764    196.0838   2.9163303704e+02   4.8356655812e+00   0.01397505  0.007141289  39.27  0.001297774    1.991    0.498
       109  -9.2356    107.6248    195.8344   2.9169903239e+02   4.8699708533e+00  0.009008347  0.006261657 -77.74  0.000940235    1.676    0.403
       110 -10.8780    132.3861    224.8729   2.9158238092e+02   4.4095909230e+00   0.01367742   0.01079755 -32.05 0.0009743321    1.298    0.230
       111 -14.6432     27.3061    248.3880   2.9292922876e+02   4.7092123326e+00   0.06456172   0.04115656  17.73  0.004688077    1.628    0.386
       112  -9.5585    177.1816    194.5067   2.9088992239e+02   4.5100692297e+00   0.01245696   0.00887124 -15.92  0.001326425    1.615    0.381
       113 -10.3552    172.9110    192.8745   2.9092960488e+02   4.5514871044e+00   0.01967908   0.01025919 -46.42  0.001197641    1.900    0.474
       114 -10.5393    159.4469    194.1566   2.9109214448e+02   4.6096777267e+00    0.0166357    0.0118796  41.55  0.001016599    1.455    0.313
       115 -10.2763    120.8303    194.6774   2.9154011103e+02   4.8119136086e+00    0.0199912  0.008302624  34.07  0.001521049    2.294    0.564
       116 -10.2650     38.6095    193.0791   2.9247877445e+02   5.2718648312e+00   0.01644044   0.01146816 -44.18  0.001374698    1.420    0.296
       117  -9.1915     47.4203    192.7478   2.9237524317e+02   5.2283219227e+00  0.008905033  0.005709548 -48.45 0.0004365238    1.520    0.342
       118 -10.6077    191.4615    191.4524   2.9070771422e+02   4.4673795287e+00   0.01239814   0.01195841 -16.92 0.0006008366    1.001    0.001
       119  -9.8592    113.0077    192.0782   2.9161516626e+02   4.8833076923e+00  0.009682572  0.009066035 -20.79 0.0002840333    1.044    0.042
       120  -8.9054    101.9623    192.2649   2.9174356891e+02   4.9406506830e+00  0.008891431  0.008247303   6.91 0.0004003124    1.065    0.061
       121  -9.8376    135.2438    190.3981   2.9134913406e+02   4.7824701150e+00   0.01124182  0.009078111 -73.47  0.000729678    1.337    0.252
       122 -11.4136    250.0601    187.9602   2.9001304950e+02   4.1900483016e+00   0.01957282    0.0111234 -52.98  0.001948882    1.687    0.407
       123  -9.4531     54.7277    188.9074   2.9226870159e+02   5.2323676480e+00    0.0106158  0.008348683   6.83 0.0002047347    1.326    0.246
       124 -10.3478     44.0740    188.6370   2.9239000134e+02   5.2926006545e+00   0.01898948   0.01154406   7.19   0.00185143    1.935    0.483
       125 -10.6424    132.4909    231.0013   2.9161675710e+02   4.3400056958e+00   0.01548242  0.008483397 -81.40  0.001008604    2.640    0.621
       126  -9.9350    175.8441    187.0072   2.9086167353e+02   4.6017174839e+00  0.009492459   0.00926201 -41.56 0.0004022193    1.039    0.037
       127  -9.3184    123.8350    185.8733   2.9145430898e+02   4.8948936273e+00   0.00850479  0.007438601  59.21 0.0002623298    1.263    0.208
       128  -9.2240     67.8092    186.5609   2.9210422931e+02   5.1885458843e+00  0.009270726  0.006302767  21.61 0.0006463738    1.477    0.323
       129 -10.9420    141.0526    183.8457   2.9124409144e+02   4.8249573803e+00   0.02680475  0.009610753  44.30  0.001963515    3.351    0.702
       130  -9.3756     38.3430    184.0658   2.9242959818e+02   5.3748585863e+00   0.01175076  0.008737379 -56.47 0.0007096023    1.322    0.244
       131  -9.8034     37.2056    180.1935   2.9242026502e+02   5.4245926764e+00  0.009341477  0.008452081 -21.77 0.0004463777    1.097    0.088
       132  -9.4829    217.2673    183.2580   2.9036292156e+02   4.4202245279e+00  0.008647789  0.007330996  59.59 0.0004005898    1.321    0.243
       133 -10.8279     17.6095    180.8122   2.9264991009e+02   5.5226910180e+00   0.01897296  0.009086775 -43.44  0.001631675    2.170    0.539
       134  -9.2072    115.8437    181.4608   2.9152077094e+02   4.9876285813e+00   0.01205694  0.007753278  80.18  0.001131606    2.293    0.564
       135  -8.7085     65.6558    182.2446   2.9210401287e+02   5.2487458304e+00  0.006569239  0.004718569  51.51 0.0002431124    1.569    0.363
       136  -9.7323    144.7013    180.8504   2.9118462071e+02   4.8390197290e+00   0.01347164  0.007394861  49.24  0.001238549    2.167    0.539
       137 -11.1099    104.3491    180.9292   2.9165019502e+02   5.0554975823e+00   0.01096048  0.009944232  13.85 0.0002376753    1.093    0.085
       138  -9.7622    242.7527    179.9816   2.9005058017e+02   4.3193224102e+00  0.008533782  0.005446057 -60.57 0.0006356286    1.559    0.359
       139 -10.1155     87.1165    183.6317   2.9186458561e+02   5.1177646341e+00   0.02203764   0.01071522  25.51  0.002020637    2.030    0.507
       140 -10.3610    129.0480    179.4443   2.9135684189e+02   4.9392172381e+00   0.01140413  0.009375701 -69.54 0.0003543989    1.281    0.219
       141  -9.7016     48.2890    179.8863   2.9229063602e+02   5.3685779665e+00   0.01005646  0.008282282  35.37 0.0003828327    1.229    0.186
       142 -11.0980    248.3632    178.0879   2.8997500051e+02   4.3102830870e+00   0.01546235   0.00670265 -50.42  0.001254226    2.190    0.543
       143 -15.4701      7.3170    246.8929   2.9315089193e+02   4.8331328595e+00   0.08872472   0.06865623 -65.68   0.01024547    1.332    0.249
       144 -10.6945    181.2049    176.5316   2.9073893664e+02   4.6907142166e+00   0.02331608   0.01387329  48.52  0.002285664    1.925    0.480
       145 -11.0087     80.5464    163.5963   2.9182397040e+02   5.3787965138e+00   0.02148832   0.01507208  -8.26  0.002230098    1.663    0.399
       146 -11.4370     96.4666    158.7539   2.9161219166e+02   5.3476986577e+00   0.02554116   0.01236648 -58.68  0.002356253    1.989    0.497
       147 -10.6520     85.0589    165.9469   2.9178557915e+02   5.3280503265e+00   0.02017351  0.009600048 -62.98  0.001081035    2.127    0.530
       148 -12.0234     86.0604    175.9725   2.9183227746e+02   5.2097268024e+00   0.02330672   0.01802241  27.43  0.001471561    1.282    0.220
       149 -12.7089     91.0128    167.3339   2.9172496970e+02   5.2804002612e+00   0.03625261   0.02740338 -49.30  0.002433675    1.291    0.225
       150  -9.6445    109.1191    175.9559   2.9156629478e+02   5.0858386865e+00  0.009641047  0.008760967  66.27 0.0003847349    1.215    0.177
       151  -9.1861     67.6205    174.8270   2.9203829451e+02   5.3217591612e+00  0.009537338  0.006380599 -62.81  0.000328827    1.512    0.339
       152 -10.4982     77.1305    175.6244   2.9193324031e+02   5.2616640276e+00   0.01102993  0.009925661 -71.70 0.0004044843    1.171    0.146
       153 -11.9461     71.9679    174.5317   2.9198643728e+02   5.3017229395e+00   0.02029377   0.01381009 -31.91 0.0007110161    1.592    0.372
       154 -12.3355     18.9657    173.0158   2.9258908022e+02   5.6032763206e+00   0.03205545   0.01731424 -74.82   0.00289877    2.313    0.568
       155 -12.0248    248.9231    171.7188   2.8993141252e+02   4.3789013836e+00   0.02366072   0.01848362  24.33  0.002747858    1.271    0.213
       156 -10.3115    154.6952    172.8942   2.9102315833e+02   4.8747166825e+00   0.01433891   0.01028645 -23.11 0.0007831482    1.556    0.357
       157  -9.8460     48.3789    169.7810   2.9223096726e+02   5.4819536923e+00   0.01237939   0.00854405 -42.82  0.001336465    1.446    0.309
       158 -11.1167     43.8168    169.4282   2.9228155204e+02   5.5104157448e+00   0.01863057   0.01323298 -19.64 0.0008502431    1.603    0.376
       159  -9.9476    100.3943    170.6142   2.9163584503e+02   5.1929704430e+00    0.0143279  0.007632143  31.74 0.0008176328    1.821    0.451
       160 -10.7240     68.8973    168.2237   2.9198522436e+02   5.3892905470e+00   0.01957217  0.009446432 -54.65 0.0006504945    1.958    0.489
       161  -8.5830    122.5040    169.4352   2.9137406277e+02   5.0871976024e+00  0.006407191  0.006211003  -6.66 6.647273e-05    1.015    0.014
       162 -10.0579    107.5024    168.3996   2.9154100566e+02   5.1796521321e+00   0.01142936  0.009263046  26.59 0.0005298193    1.225    0.184
       163  -9.5682     58.5157    167.8095   2.9210257942e+02   5.4497330249e+00  0.009974168  0.008539206  53.56 0.0006266502    1.274    0.215
       164 -11.3457    249.0423    149.6058   2.8980101647e+02   4.6269870484e+00   0.02759842   0.01960356 -72.82   0.00261965    1.556    0.357
       165 -12.2694    245.0963    162.1517   2.8991962510e+02   4.5072236076e+00   0.02544972   0.01765226 -58.32  0.002788538    1.422    0.297
       166 -11.3556    240.5208    150.7263   2.8990560366e+02   4.6605016300e+00   0.01644389   0.01338548  21.25  0.001355945    1.223    0.182
       167 -11.6611    248.5541    158.4332   2.8985814971e+02   4.5303405397e+00   0.02850641   0.01988582  56.08  0.003029199    1.704    0.413
       168 -12.0058    242.5096    154.9868   2.8990758138e+02   4.6018156365e+00   0.03993275   0.01509624  39.46  0.003219358    2.690    0.628
       169  -9.4821    175.8638    166.1826   2.9074018030e+02   4.8360485874e+00  0.009545075  0.008511734  58.30 0.0003294803    1.228    0.185
       170 -10.3671     47.1764    163.4754   2.9220824553e+02   5.5594512724e+00   0.01160635  0.009006786 -61.36 0.0006079552    1.297    0.229
       171 -14.3347     12.9428    238.9694   2.9304028347e+02   4.8923013325e+00   0.05884404   0.02528338  22.67  0.003942741    2.395    0.582
       172  -9.5628     36.9391    162.6823   2.9232176516e+02   5.6233281864e+00   0.01133087  0.008547459  30.24 0.0005517426    1.315    0.240
       173 -12.0734     34.8097    159.0635   2.9232533957e+02   5.6755255760e+00   0.03888256   0.01745769  16.74  0.003236198    2.593    0.614
       174 -11.6656     23.5446    149.4828   2.9239975780e+02   5.8438850085e+00    0.0219682   0.01283136 -37.45   0.00214565    1.856    0.461
       175 -12.1829     32.7162    154.3793   2.9232231601e+02   5.7395304869e+00   0.03224306   0.01792499 -17.68   0.00223961    2.646    0.622
       176 -12.4670     23.3283    154.9274   2.9243384491e+02   5.7837024978e+00   0.02529839   0.01992497  11.04 0.0009634224    1.304    0.233
       177  -9.9091     59.0987    159.7009   2.9204877134e+02   5.5379525578e+00  0.009786425  0.008860316 -87.48 0.0003303039    1.214    0.176
       178  -8.7151    124.2838    165.6538   2.9133154733e+02   5.1201944109e+00  0.006633509  0.004942639  65.23 0.0007017032    1.645    0.392
       179  -9.4354    119.9071    159.1261   2.9134403228e+02   5.2172883674e+00  0.009307029  0.008368475  55.83            0    1.206    0.171
       180  -9.4950     52.7023    158.4394   2.9211524836e+02   5.5865186949e+00   0.01022135  0.009076319  28.97 0.0006387603    1.130    0.115
       181 -10.1220     46.5714    158.3117   2.9218525155e+02   5.6208752757e+00   0.01214369  0.006520387 -68.28 0.0008962299    2.043    0.510
       182  -8.7555    115.6430    157.7549   2.9138522433e+02   5.2557017147e+00  0.006665432  0.004763676 -18.24  0.000578255    1.595    0.373
       183  -9.9707     89.0291    156.9868   2.9168770672e+02   5.4076228237e+00  0.009838442  0.009187767 -16.33 -0.003769674    1.050    0.048
       184 -10.9263     73.2546    156.7391   2.9186824273e+02   5.4952468041e+00   0.02291411   0.01165061  24.48  0.002142908    1.960    0.490
       185  -9.8571    134.5041    155.7282   2.9115595689e+02   5.1768857214e+00   0.01135445   0.01021721  -7.02 0.0005388826    1.114    0.102
       186  -9.9404    250.2875    165.9555   2.8988209858e+02   4.4363482095e+00  0.009492414   0.00820172 -52.03 0.0008130921    1.141    0.123
       187 -10.9848     12.4909    161.2407   2.9259553415e+02   5.7706542931e+00   0.01214825  0.009230987  24.09  0.001382075    1.307    0.235
       188  -9.5840     62.3254    153.4753   2.9197537949e+02   5.5907513013e+00   0.01509025  0.008358695 -71.73 0.0007803524    2.096    0.523
       189 -10.1092    113.5767    152.3072   2.9137735743e+02   5.3281831300e+00    0.0129257   0.01159215 -89.07 0.0008036395    1.235    0.190
       190  -8.9324    148.6994    152.6525   2.9097440429e+02   5.1349662163e+00  0.007018814  0.004642244 -30.09 2.958341e-05    1.686    0.407
       191 -10.8959    102.7835    151.1738   2.9149524816e+02   5.3990707423e+00   0.01499384   0.01333942 -43.15 0.0009478664    1.100    0.091
       192 -10.0107    105.6375    146.1899   2.9143333254e+02   5.4398318014e+00   0.01613735   0.01035453 -19.75  0.001106552    1.918    0.479
       193 -11.2001     56.1918    150.1282   2.9202671429e+02   5.6614071268e+00   0.02038113   0.01665079 -66.63   0.00104861    1.269    0.212
       194  -9.8092     46.6283    150.9356   2.9214176774e+02   5.7036683956e+00    0.0113396   0.00888198   2.31 0.0005999696    1.354    0.261
       195 -12.5702     66.1464    127.8681   2.9178244186e+02   5.8586511250e+00   0.03430397   0.02724348  75.54  0.003914476    1.523    0.343
       196 -13.3304     67.4094    144.1853   2.9186273172e+02   5.6680771754e+00   0.04290291    0.0289521  59.84  0.004418409    1.858    0.462
       197 -11.4504    133.5027    142.9356   2.9109301870e+02   5.3263280320e+00   0.04019988   0.01513231 -68.71  0.002980113    3.298    0.697
       198 -11.9295     35.1937    149.0814   2.9226297263e+02   5.7859265992e+00   0.02396586   0.01495612  58.43  0.002042537    2.081    0.519
       199 -10.4108     61.0587    137.3267   2.9189615899e+02   5.7794617127e+00   0.01290335  0.009223833  18.82  0.000467356    1.417    0.294
       200  -9.4722     40.3131    147.2977   2.9219352850e+02   5.7785502573e+00  0.006800727  0.004729048 -26.42 0.0003254092    1.603    0.376
       201 -10.9543    222.8325    244.7152   2.9065670668e+02   3.6985603267e+00   0.01327579  0.008546272 -11.83  0.001301519    1.956    0.489
       202  -9.6684     93.1149    244.8155   2.9215042112e+02   4.3962375786e+00  0.009778794  0.008622196  57.83 0.0005299486    1.244    0.196
       203 -13.1171      3.2955    141.1742   2.9258531172e+02   6.0460023059e+00   0.03890708   0.03398957 -59.22  0.003911924    1.152    0.132
       204  -8.5876    122.3330    144.2639   2.9122956065e+02   5.3715816193e+00  0.006683568  0.004768192 -21.75 0.0002615195    1.579    0.367
       205 -10.0071     95.1146    153.0854   2.9159482501e+02   5.4188204266e+00   0.01002911   0.00827199 -23.24 0.0002968674    1.254    0.203
       206 -10.2521     22.0384    143.9542   2.9238506170e+02   5.9142473918e+00   0.01160271   0.00740375 -27.56  0.001154721    1.822    0.451
       207 -10.7849    241.9741    130.5025   2.8977082371e+02   4.8801049845e+00   0.03338022    0.0162442  -6.96  0.002254152    4.365    0.771
       208 -11.5142    248.7158    141.2655   2.8975608787e+02   4.7225588459e+00   0.04473972   0.01849367  11.40  0.003154397    3.760    0.734
       209 -12.3026    248.3493    134.5516   2.8972110406e+02   4.8000503094e+00   0.04105563   0.02660552 -44.33   0.00433757    1.536    0.349
       210 -11.7798     59.0412    133.4850   2.9189711431e+02   5.8335736559e+00   0.01791731   0.01395625  -2.33  0.001070562    1.382    0.277
       211 -10.9294     47.9709    143.4442   2.9208276424e+02   5.7808519636e+00   0.01784777  0.006283376  24.79  0.001380917    2.833    0.647
       212 -11.3659     27.0729    141.0071   2.9230983753e+02   5.9204515054e+00   0.01782021    0.0139146  84.84  0.001394187    1.556    0.357
       213  -9.2167    164.0890    139.6869   2.9072147470e+02   5.1978756696e+00  0.008783809  0.008065028  10.67 0.0004255007    1.078    0.072
       214 -12.0641     48.7215    138.6631   2.9204632498e+02   5.8306791835e+00   0.02731408   0.01289519  14.01  0.002291199    2.582    0.613
       215 -10.1335    119.6524    137.8931   2.9122338661e+02   5.4577642064e+00   0.01833154   0.01043581 -28.26  0.001437104    2.206    0.547
       216 -10.1568     53.5465    140.4206   2.9200084425e+02   5.7849696052e+00   0.01001693  0.009741203 -20.42 0.0001467811    1.014    0.014
       217 -11.0736    112.8941    136.3794   2.9129252853e+02   5.5112236893e+00   0.01846389   0.01426824  12.69  0.001310007    1.328    0.247
       218 -13.3029      2.1630    126.4148   2.9251275784e+02   6.2183404781e+00   0.08821837   0.01451092 -59.10  0.005321261    4.663    0.786
       219 -10.5212     87.7446    133.2580   2.9156452450e+02   5.6817867184e+00   0.01306505   0.00928492 -41.94 0.0002028399    1.407    0.289
       220 -12.1895     32.8739    141.8371   2.9224769110e+02   5.8799851453e+00   0.02039136   0.01268625 -53.95  0.002089989    1.551    0.355
       221 -12.7289     45.4223    130.4729   2.9203682083e+02   5.9406501452e+00   0.02803683   0.02191992 -73.16  0.001807153    1.386    0.279
       222 -11.6916     32.7761    127.0117   2.9216271770e+02   6.0475128523e+00   0.01535058   0.01202963 -88.70 0.0009594252    1.514    0.339
       223 -10.2617     28.1909    126.3743   2.9221195866e+02   6.0792913086e+00   0.01422966  0.005678396  29.69  0.001148507    2.367    0.578
       224  -8.7934     93.2763    127.6842   2.9146825551e+02   5.7147838885e+00  0.006466697  0.004947339  64.00 0.0002633274    1.567    0.362
       225  -9.6803     86.1200    126.6940   2.9154507864e+02   5.7644491473e+00   0.01386442  0.009017242 -16.24  0.001111942    1.899    0.473
       226  -9.8964    118.3568    128.7928   2.9118533755e+02   5.5672117799e+00  0.009721302  0.005422132 -50.41 0.0006974325    1.727    0.421
       227 -12.2032      1.8132    109.2619   2.9241722222e+02   6.4134219388e+00   0.05994516   0.01071469 -61.99  0.003447377    5.205    0.808
       228 -12.1668    248.2049    101.9084   2.8953206904e+02   5.1678842920e+00   0.04153801   0.02256644 -60.64  0.004037923    1.820    0.451
       229 -10.1756    250.3506    125.2026   2.8964347699e+02   4.8943474632e+00   0.01583497  0.009734104 -62.45  0.001619631    1.642    0.391
       230 -11.1247    245.0214    121.4553   2.8968291626e+02   4.9653487234e+00   0.02788819     0.017762  30.51  0.002021741    1.542    0.351
       231 -10.2279    249.5306    117.5157   2.8960801007e+02   4.9852253130e+00   0.01238064   0.01002399  37.75 0.0008453882    1.259    0.206
       232 -11.4243    248.3530    113.1610   2.8959612040e+02   5.0405690305e+00      0.02436   0.01989955   2.81  0.002874174    1.274    0.215
       233 -10.3482    209.8535    125.7838   2.9011308519e+02   5.1070125469e+00   0.01106405   0.01009729 -60.66 0.0005365683    1.115    0.103
       234  -9.7429    159.7058    126.3504   2.9069425519e+02   5.3716546053e+00  0.006710092  0.004927887  64.40 0.0004420458    1.678    0.404
       235 -12.1356     17.6430    124.4069   2.9232233334e+02   6.1580137171e+00   0.02662662   0.01211346  48.21  0.002183605    2.765    0.638
       236  -9.5845    124.9215    125.5452   2.9109069421e+02   5.5683896213e+00   0.00943041  0.006323479  21.97 0.0003249886    1.496    0.332
       237  -9.4140    106.9955    129.9951   2.9132340907e+02   5.6148879949e+00   0.01768491  0.005263835  43.57  0.001143864    4.196    0.762
       238  -9.6806    238.8170    121.5955   2.8975514474e+02   4.9973701864e+00   0.01429518  0.007116849 -45.26   0.00130469    2.023    0.506
       239  -9.6566     50.3294    122.8545   2.9193588712e+02   6.0001056706e+00   0.01014737  0.008232065  83.88   0.00112968    1.463    0.317
       240 -12.5446     74.2261    138.6285   2.9175176287e+02   5.6940195255e+00   0.03315983   0.02507079  86.44  0.001555557    1.637    0.389
       241  -9.2934    143.3532    120.8995   2.9085103304e+02   5.5212736004e+00   0.01298311   0.00642868 -73.44  0.001094246    2.574    0.612
       242 -11.4757     66.2081    135.4875   2.9182603484e+02   5.7725033401e+00    0.0259401   0.01264114  52.31   0.00213721    2.820    0.645
       243 -10.7412     20.3614    120.9406   2.9227081053e+02   6.1824840251e+00   0.01379595  0.009322997  14.03 0.0007936468    1.560    0.359
       244  -8.7693    130.6942    119.2930   2.9098767575e+02   5.6076480249e+00  0.006551191  0.004891222  58.95 0.0002329207    1.579    0.367
       245 -11.6252     30.4625    117.5330   2.9213436101e+02   6.1666888366e+00   0.02297898   0.01273209 -22.90  0.002004142    2.514    0.602
       246 -10.1132     27.9973    114.7268   2.9214652358e+02   6.2115196533e+00  0.009597515  0.009421663 -46.73 0.0002807396    1.047    0.045
       247 -10.4064     72.8720    115.0776   2.9163039647e+02   5.9665306013e+00   0.01106891   0.00918939   7.68  0.001308874    1.229    0.186
       248 -10.6140     70.1153    111.1927   2.9163961405e+02   6.0250999404e+00   0.01196764  0.009895544  53.72 0.0002498352    1.332    0.250
       249 -10.9863     62.4637    107.4324   2.9170607909e+02   6.1085812119e+00   0.01127803   0.01049135  62.63 0.0007426209    1.169    0.144
       250 -11.2999     59.5880    110.7788   2.9175875562e+02   6.0863563074e+00   0.02124974    0.0137588 -85.68  0.002093312    2.046    0.511
       251 -10.3696     55.6222    111.0453   2.9180609902e+02   6.1046656730e+00   0.01220414   0.01007088 -12.10 0.0005920827    1.272    0.214
       252 -10.7699    168.1674    113.4261   2.9052132696e+02   5.4714079244e+00   0.01606172   0.01185807  59.28  0.001130407    1.609    0.379
       253 -10.4204    134.5375    105.2332   2.9086138064e+02   5.7451748620e+00   0.01631413  0.005814722 -58.93  0.001299397    2.623    0.619
       254  -9.5430    112.4817    104.4909   2.9111154391e+02   5.8724659954e+00  0.006399658  0.006263521  -9.56 0.0008102212    1.024    0.023
       255  -9.9208     63.1646     99.2159   2.9165016568e+02   6.1973279361e+00   0.01363953  0.007411202 -41.91  0.001288436    1.915    0.478
       256 -10.0565    236.3681    146.1646   2.8992677093e+02   4.7342864422e+00    0.0138131  0.008434613   3.24  0.001324334    2.013    0.503
       257  -9.2233     45.0126     90.2226   2.9180748276e+02   6.3961218488e+00  0.008454077  0.005267491  23.32 0.0003762443    1.604    0.376
       258  -9.5197    101.9858     87.9854   2.9113648725e+02   6.1148099532e+00  0.009255018   0.00894385 -28.17            0    1.016    0.015
       259  -9.5159    154.5217     76.4894   2.9046311296e+02   5.9607093123e+00  0.006484466  0.006177279 -20.60 4.106223e-05    1.018    0.017
       260 -12.6784    248.0842    240.6380   2.9034264449e+02   3.6081076102e+00   0.03280994   0.02756781   4.38  0.003940346    1.218    0.179
       261  -9.3138    166.0267    241.7890   2.9129328077e+02   4.0378722867e+00   0.01152292  0.007183571 -16.42  0.001095866    2.063    0.515
