#   1 NUMBER                 Running object number                                     
#   2 MAG_AUTO               Kron-like elliptical aperture magnitude                    [mag]
#   3 X_IMAGE                Object position along x                                    [pixel]
#   4 Y_IMAGE                Object position along y                                    [pixel]
#   5 X_WORLD                Barycenter position along world x axis                     [deg]
#   6 Y_WORLD                Barycenter position along world y axis                     [deg]
#   7 A_WORLD                Profile RMS along major axis (world units)                 [deg]
#   8 B_WORLD                Profile RMS along minor axis (world units)                 [deg]
#   9 THETA_WORLD            Position angle (CCW/world-x)                               [deg]
#  10 FWHM_WORLD             FWHM assuming a gaussian core                              [deg]
#  11 ELONGATION             A_IMAGE/B_IMAGE                                           
#  12 ELLIPTICITY            1 - B_IMAGE/A_IMAGE                                       
         1 -13.8336    218.6628     27.7410   3.9252297564e+00   2.7621019676e+01    0.9415438    0.7338755 -29.24   0.00396023    1.246    0.198
         2 -11.0549     60.6001     21.3079   3.0081594524e+01   6.7028213368e+01    0.2533632    0.2174763  53.37  0.000666734    1.185    0.156
         3 -11.9760    227.2688      9.6489   3.5909073069e+02   2.7760286468e+01    0.2660519    0.2048057 -53.70 0.0007269958    1.035    0.034
         4 -10.3544    248.9870     14.9818   3.5923472395e+02   2.3126715551e+01    0.1966505   0.09190879 -51.83  0.001115648    1.685    0.407
         5 -19.6654     17.7790    148.5665   8.2910470641e+01   4.1705994756e+01      18.6268     5.409371 -83.23   0.06315417    3.581    0.721
         6  -9.8751    152.5994    208.2515   5.4740400220e+01   1.1396713989e+01     0.160058    0.1095648 -27.91 0.0005575823    1.552    0.356
         7 -11.1859    146.1487    206.4294   5.5829884778e+01   1.2578945268e+01    0.2223579    0.1636854  65.65  0.001204264    2.307    0.567
         8 -10.3497    160.7500    200.0063   5.1793743958e+01   1.1589447383e+01    0.2303182    0.1727468 -54.03  0.001251577    1.804    0.446
         9  -9.8796    210.8740    198.7911   4.2173128003e+01   5.0796939695e+00    0.1773243     0.125124   0.06 0.0004917147    1.182    0.154
        10  -9.9908     69.1493    195.2023   7.2558979490e+01   2.5167368169e+01     0.329022    0.1740631 -72.49 0.0008005665    2.198    0.545
        11 -10.1853    192.5853    194.2415   4.4644952923e+01   8.0791098476e+00    0.3978318    0.2192508 -58.98   0.00135023    6.744    0.852
        12 -12.0884     54.6051    191.8156   7.5974705398e+01   2.7637570117e+01    0.4532232    0.2672139  75.79  0.002272075    1.968    0.492
        13  -9.2007     78.3118    184.2509   6.8967039487e+01   2.6353534184e+01    0.1270768    0.1022069  -5.85 0.0003556165    1.517    0.341
        14 -15.4200     70.3611    143.2876   6.5511899939e+01   3.7125909259e+01     2.185589     1.698061  65.60  0.007569209    1.357    0.263
        15 -10.1160     63.4843    181.4355   7.2598565992e+01   2.8890518417e+01    0.2189937    0.1920293  52.34  0.001326435    1.030    0.029
        16 -12.2194     57.2715    179.6048   7.4093005226e+01   3.0065310754e+01    0.4057711    0.3634413 -14.09  0.001353133    1.345    0.256
        17 -11.5641    179.7196    168.8833   4.2553444592e+01   1.3857995124e+01    0.5685924    0.4324329 -24.69  0.003036153    1.227    0.185
        18 -10.2885    174.9841    179.4969   4.5446023371e+01   1.2844015526e+01    0.2363046    0.1767889 -31.13 0.0006609824    1.313    0.238
        19 -11.9809    172.6151    174.3996   4.4995648096e+01   1.4043934062e+01    0.5241694    0.3721679 -16.05  0.001420182    1.422    0.297
        20  -9.8281     70.1281    235.4829   7.5875763823e+01   1.7239606088e+01   0.09912051   0.07189351 -49.46 0.0002286432    1.762    0.433
        21  -9.4788     74.0264    179.7449   6.9561668567e+01   2.7920528645e+01    0.1924805    0.1615281  38.08 0.0006248418    1.073    0.068
        22  -9.5281     71.5630    176.0169   6.9776668912e+01   2.9089174318e+01    0.2104511    0.1681878  36.87 0.0006317467    1.134    0.118
        23 -12.2148    110.7933    167.3142   5.7975377491e+01   2.5285022644e+01     0.515803    0.3672325 -79.03  0.001165837    1.938    0.484
        24 -12.2982    125.1981    172.3524   5.5207757779e+01   2.1941839464e+01    0.3914766    0.3287776  14.05  0.002232227    1.159    0.137
        25 -12.1786     59.5822    228.6797   7.7715072572e+01   1.9636557505e+01    0.2170299    0.1887849 -29.42 0.0008177756    1.497    0.332
        26 -11.6836     55.3062    236.2132   7.9170948770e+01   1.8731366652e+01    0.2811672    0.1498987 -78.29  0.001368925    2.305    0.566
        27 -11.9838     94.5162    158.4612   6.0867431478e+01   2.9823187363e+01    0.4259608    0.2907528  55.42 0.0009319852    1.604    0.377
        28 -11.7510    133.6098    143.8325   4.7689933486e+01   2.6379427255e+01    0.8617389    0.2816092 -54.68  0.002476874    4.493    0.777
        29 -11.0257     89.4122    148.7397   6.0659794202e+01   3.2904059642e+01     0.282151    0.2495993  32.69 0.0003580461    1.097    0.089
        30 -12.7411     95.2164    143.3856   5.7984158408e+01   3.3236677141e+01    0.8611528    0.6056954 -37.20   0.00269187    1.613    0.380
        31 -11.9343    109.0889    145.2202   5.4400889476e+01   3.0452928357e+01    0.3781686    0.3362986   8.12 0.0009437633    1.186    0.156
        32 -12.4548    105.9650    131.6852   5.2477975007e+01   3.4124005414e+01    0.6381294    0.4409971 -46.22  0.002016264    1.477    0.323
        33 -11.8601     95.1217    131.0602   5.5549968963e+01   3.6203443199e+01    0.3730789    0.2869398 -54.32 0.0004065715    1.321    0.243
        34 -11.1968    135.5738    131.1300   4.4406303581e+01   2.8668687853e+01    0.4622255    0.2657779 -55.65   0.00192504    2.038    0.509
        35 -10.4475    161.2539    125.8370   3.7249115807e+01   2.4732917136e+01     0.431386    0.1579566 -35.90  0.001483549    2.903    0.656
        36  -9.4407    130.8406    126.1524   4.4440532730e+01   3.0641324438e+01    0.2057432    0.1752454  -6.81 0.0003552298    1.300    0.231
        37 -11.0656    114.3677    125.5201   4.8701933414e+01   3.3976762876e+01    0.3072148    0.2622962  -3.70 0.0007351706    1.339    0.253
        38 -10.6253    102.0261    120.4354   5.1096204236e+01   3.7496243257e+01    0.3113531    0.2478265   9.69  0.001475264    1.516    0.340
        39 -10.0885    162.0125    119.6707   3.5617486763e+01   2.5742900811e+01    0.2604795    0.2010958 -45.40 0.0003996022    1.295    0.228
        40 -10.2890    158.8605    115.0671   3.5157687038e+01   2.7244537840e+01    0.2819272    0.2234799 -63.23 0.0004284418    1.522    0.343
        41  -9.9081    156.3165    111.6649   3.4851351667e+01   2.8413038866e+01    0.2606302    0.1932174 -51.30 0.0008495232    1.419    0.295
        42 -11.7726     68.1734    116.7013   6.1350268720e+01   4.4260591495e+01    0.4662355    0.3459641 -13.00  0.002010111    1.806    0.446
        43 -10.0504    109.8421    115.7875   4.7657886239e+01   3.7080413112e+01    0.2300499    0.2081631  -9.75  0.000375044    1.206    0.171
        44  -9.7096     92.0179    111.2327   5.2002748501e+01   4.1576327410e+01    0.2316061    0.2005707  70.01 0.0004912565    1.260    0.206
        45 -11.6332    115.5296    108.7309   4.4221205482e+01   3.7538624337e+01    0.4958337    0.2873255  56.40  0.001723866    2.094    0.522
        46 -10.5766    134.4387    105.7435   3.8391242745e+01   3.4205637030e+01     0.297971    0.1454761 -46.77  0.001063844    2.054    0.513
        47  -9.7383     78.4570    105.7207   5.5220404651e+01   4.5385176896e+01    0.2137164    0.1429683 -45.08 0.0006523388    1.534    0.348
        48  -8.9543    146.2886    104.6625   3.5267235198e+01   3.1883407635e+01    0.1512683    0.1188204 -73.84 0.0007020456    1.637    0.389
        49 -11.8385    118.8971    103.2432   4.1805429875e+01   3.8049973757e+01    0.3742316    0.2630565  63.53   0.00163384    1.740    0.425
        50  -9.5049     81.9694    102.7763   5.3246097417e+01   4.5497794966e+01    0.2598388    0.1718588  62.88 0.0008030545    1.932    0.483
        51 -12.2600     52.9960    231.7041   7.9390250039e+01   1.9792254919e+01    0.4365948    0.1578392 -67.79  0.002115744    3.159    0.683
        52  -8.9473     83.5003    221.4144   7.1678005677e+01   1.8207368570e+01    0.2779169     0.209077 -60.49   0.00152738    1.599    0.375
        53  -9.9843     89.9755    211.5173   6.9173615851e+01   1.9251883750e+01    0.1824363    0.1630909  83.71  0.001207563    1.303    0.233
        54  -9.2742    100.7611     96.5342   4.5294059689e+01   4.3352504713e+01     0.209979    0.1490595  54.96 0.0005178528    1.525    0.344
        55 -10.6509     88.0826    222.3469   7.0722809630e+01   1.7477438743e+01    0.4147622     0.188637  23.38  0.001546993    2.135    0.532
        56  -9.6360     97.8313     88.0293   4.3727365163e+01   4.5904972787e+01     0.262832    0.1866071 -81.12  0.001073877    2.052    0.513
        57 -10.7184     62.0163     86.7751   5.6506644059e+01   5.2950176684e+01    0.5655965    0.2510623  51.81  0.001868207    3.083    0.676
        58 -11.9068     89.0494    217.3304   6.9999037322e+01   1.8277473001e+01    0.3976747    0.3410949  33.12  0.001324899    1.040    0.039
        59  -8.7438    125.2819     82.6710   3.4084648077e+01   4.0950539443e+01    0.1568398    0.1213567 -74.47  0.000371227    1.604    0.377
        60  -8.7175    101.2985     76.2693   3.8872097921e+01   4.7737718819e+01    0.1515247    0.1241824   6.98 0.0002410165    1.522    0.343
        61 -13.1663    175.5458     66.9358   1.9107862728e+01   3.1951360158e+01    0.6810716    0.6575818 -23.50 0.0009046375    1.102    0.092
        62 -13.7831    192.2386     53.8230   1.3174137927e+01   3.0080962125e+01     1.150436    0.9199461  29.36  0.003989515    1.593    0.372
        63  -9.0429     97.4702     63.5384   3.5633505342e+01   5.1226618682e+01    0.1521874    0.1513942  73.50 0.0001548576    1.001    0.001
        64 -12.3134    198.4529     48.2833   1.0975779280e+01   2.9448541849e+01    0.4439839    0.3753901  -6.77  0.001164532    1.396    0.284
        65  -9.4483    163.6253    237.2442   5.6546709728e+01   5.7207795835e+00    0.1382742   0.09583142 -21.28 0.0003557137    1.502    0.334
        66 -10.5852     71.8730     52.8394   4.0710230670e+01   5.9011966269e+01    0.2258529    0.2022377   0.21 0.0004111685    1.197    0.165
        67  -8.8174    179.0000    248.9698   5.5190189164e+01   2.4526871873e+00    0.1422338   0.05859539 -40.58 0.0005059008    2.804    0.643
        68 -11.6089     67.8433    214.2248   7.4670209478e+01   2.1444781417e+01    0.1898526    0.1640855  40.49 0.0002683504    1.051    0.049
        69 -10.4275     91.3526    243.2617   7.1936252246e+01   1.3497306305e+01    0.1649355    0.1435904 -31.26  0.000724046    1.439    0.305
        70 -11.4091     61.6045    241.7427   7.8168827503e+01   1.7087239048e+01    0.1772134    0.1267118 -53.05  0.000907117    1.812    0.448
