#   1 NUMBER                 Running object number                                     
#   2 MAG_AUTO               Kron-like elliptical aperture magnitude                    [mag]
#   3 X_IMAGE                Object position along x                                    [pixel]
#   4 Y_IMAGE                Object position along y                                    [pixel]
#   5 X_WORLD                Barycenter position along world x axis                     [deg]
#   6 Y_WORLD                Barycenter position along world y axis                     [deg]
#   7 A_WORLD                Profile RMS along major axis (world units)                 [deg]
#   8 B_WORLD                Profile RMS along minor axis (world units)                 [deg]
#   9 THETA_WORLD            Position angle (CCW/world-x)                               [deg]
#  10 FWHM_WORLD             FWHM assuming a gaussian core                              [deg]
#  11 ELONGATION             A_IMAGE/B_IMAGE                                           
#  12 ELLIPTICITY            1 - B_IMAGE/A_IMAGE                                       
         1 -12.3668    207.8768     40.3342   6.9601142982e+01   2.8130086007e+01     2.329067    0.7836886 -41.38   0.00615155    2.720    0.632
         2 -16.9396    243.2092     12.3651   5.9006220231e+01   2.2992423514e+01      4.29929     2.493263 -34.42   0.02313627    1.651    0.394
         3  -9.9250    193.3522     31.4105   6.9056768025e+01   3.3000251070e+01    0.7954026    0.3924572 -70.26  0.002832853    3.127    0.680
         4 -10.6558    152.0477     31.0546   7.5532501456e+01   4.3815328330e+01    0.5499974     0.429386 -49.23  0.001848696    1.379    0.275
         5 -11.3967    113.4044     29.1607   8.3367528464e+01   5.3566168810e+01    0.9304771    0.6715644 -38.78  0.004126937    1.498    0.332
         6 -12.8434    230.9859     59.6863   7.1651198903e+01   1.9768065730e+01      2.48046     1.227188  89.05  0.008623746    3.639    0.725
         7  -8.9417    184.4212     17.6754   6.6279055042e+01   3.6923638650e+01    0.2994714    0.2122013 -67.97  0.001531474    1.473    0.321
         8  -9.7181    139.3261     17.1841   7.3132282212e+01   4.8662061918e+01    0.3747993    0.1863406 -43.64  0.001590022    2.293    0.564
         9  -9.3453    190.5092     15.8907   6.5012095388e+01   3.5538459124e+01    0.4181763     0.279919 -76.25  0.001770302    1.564    0.361
        10  -9.8853     20.6243     15.5482   1.1273043028e+02   7.1000796775e+01    0.5056404    0.2726543  46.87  0.002415799    3.674    0.728
        11  -8.9886    176.9902     14.8428   6.6408442163e+01   3.9161063905e+01    0.3031629    0.2156511  82.89 0.0007600898    1.349    0.259
        12  -9.4231    168.3358      8.9996   6.5779219133e+01   4.2001562798e+01    0.4819045    0.2539093 -85.37  0.001856182    2.397    0.583
        13  -7.7780     80.1887     11.1781   8.5253980415e+01   6.2806802512e+01    0.1627658    0.1570524 -56.43    0.0010708    1.368    0.269
        14  -8.0317     28.9454     10.7252   1.0612738423e+02   7.0892033043e+01    0.1557084    0.1240349  -8.97 0.0004086357    1.056    0.053
        15  -8.8166    179.8428      9.2592   6.4386010634e+01   3.8985182209e+01    0.2167614    0.1763365 -59.02 0.0005359701    1.239    0.193
        16  -8.3455    140.8366      7.6073   6.9467307345e+01   4.9216922139e+01     0.221551    0.1880291  19.07 0.0007930882    1.279    0.218
        17  -8.8366    134.6361      7.7074   7.0586525619e+01   5.0769297227e+01    0.2477593    0.1892273  41.72  0.001030438    1.244    0.196
        18  -9.0812    160.3720      4.8020   6.5538435916e+01   4.4457040624e+01    0.3092011    0.2327773 -42.91 0.0009020249    1.426    0.299
        19  -9.5329    175.8496      3.1467   6.3057787930e+01   4.0597253360e+01    0.3290787     0.228864 -22.31  0.001402024    1.636    0.389
        20  -8.6649    153.2394     10.8879   6.8573014758e+01   4.5736118169e+01    0.4884866     0.231288  84.21  0.001843819    2.779    0.640
        21  -8.6508    126.5475      2.7400   7.0223379188e+01   5.3205301044e+01    0.3306497    0.2022845 -62.15  0.001543916    2.264    0.558
        22  -9.1046    107.9241      3.4783   7.4331570140e+01   5.7585897024e+01    0.3545272    0.2471297  77.27  0.001232799    1.679    0.405
        23  -8.5251    101.5525      3.3549   7.5768340596e+01   5.9048539735e+01    0.2457844    0.1931476 -78.22   0.00103586    1.747    0.428
        24  -7.6488     93.3608      4.1486   7.8191050190e+01   6.0784357841e+01     0.171992    0.1123112 -31.31 0.0008400083    1.680    0.405
        25 -13.6395    240.8701     33.1519   6.4055167237e+01   2.1059661352e+01    0.6537371     0.371565 -24.69  0.001891069    1.972    0.493
        26  -7.5646    181.5396      2.0503   6.2086740674e+01   3.9227316356e+01    0.1936192    0.1341734 -26.57  0.001033167    1.601    0.375
        27  -7.8450    135.2276      1.3900   6.8194585460e+01   5.1164316448e+01    0.1922602    0.1208183  79.48 0.0006965005    1.654    0.395
        28  -9.3803    248.0296    132.4052   8.6529298993e+01   4.7914089690e+00    0.3963545    0.2891602 -48.56   0.00213378    1.509    0.337
        29 -10.2790     40.5407    247.8504   1.4509272698e+02   2.0205266610e+01    0.5918308    0.1939501  74.28  0.002297652    5.001    0.800
        30  -8.2729    196.7923    126.1602   9.4120584867e+01   1.6656588629e+01    0.3161397    0.1667894 -56.35  0.001134086    2.730    0.634
        31  -8.1329    189.1856    127.1942   9.5899594813e+01   1.8185193534e+01    0.3628612    0.2001205  73.29  0.001083786    4.225    0.763
        32  -7.5554    214.2721    124.3485   9.0373220447e+01   1.3086386209e+01     0.149384    0.1129982   2.23 0.0003029707    1.626    0.385
        33  -9.4478    166.4520    118.8466   9.8700427521e+01   2.5046052808e+01    0.8695133    0.2350625 -38.27  0.002334107    4.171    0.760
        34  -9.8938    243.7614    120.9752   8.4615171719e+01   7.4238054742e+00    0.2928105    0.2415404  78.20  0.001212151    1.571    0.363
        35  -9.4317    152.6691    119.9644   1.0217027880e+02   2.7974653779e+01    0.4617012    0.3087714 -56.01 0.0009275516    1.652    0.395
        36  -8.1695    135.1110    120.8989   1.0671546476e+02   3.1652423559e+01    0.2408034       0.2083 -86.94  0.000789388    1.284    0.221
        37  -8.6192    195.4184    117.9240   9.2367196319e+01   1.8491661261e+01    0.2894304    0.2410028 -27.87  0.001460648    1.218    0.179
        38  -8.4891    232.5513    117.2674   8.5540482149e+01   1.0338763420e+01      0.33209    0.1526752  41.41  0.001314027    2.480    0.597
        39  -9.1894    227.3527    116.3803   8.6188755672e+01   1.1597154402e+01     0.272656     0.244865 -61.50 0.0008866873    1.228    0.186
        40  -9.9758    215.4816    116.1818   8.8186063655e+01   1.4238573826e+01    0.4118107    0.2810263  15.61  0.001800416    2.061    0.515
        41 -11.0477    244.5489    108.7066   8.1657533213e+01   9.2041495012e+00    0.6133294    0.4520154  46.14  0.001842642    1.476    0.323
        42  -9.8640    240.2773    103.0534   8.0966069982e+01   1.0997054399e+01    0.3593177    0.2601458  27.90  0.001251504    1.691    0.409
        43 -10.7116    235.8515    101.4215   8.1244813839e+01   1.2209896593e+01    0.7050014    0.3223475 -28.16  0.002764763    2.332    0.571
        44  -9.9414    220.2989    112.0297   8.6333887133e+01   1.3877581773e+01    0.3234812    0.2646516  80.30  0.001017146    1.495    0.331
        45  -9.6126    203.9504    111.9926   8.9248807835e+01   1.7598418142e+01    0.2849419    0.2045446 -89.07 0.0005417052    2.069    0.517
        46  -9.7202    233.4372    111.7374   8.4088196294e+01   1.1056422235e+01    0.7204363    0.1878732 -44.38  0.002068554    4.280    0.766
        47  -9.3395    214.6361    110.0553   8.6831574415e+01   1.5489806545e+01    0.2528228     0.210442  72.39 0.0009171118    1.376    0.273
        48  -8.1166    177.5302    108.5145   9.3611041631e+01   2.4475819725e+01    0.1532267    0.1528911 -61.35 0.0008097359    1.002    0.002
        49  -8.8542    146.8594    105.2669   9.9734136795e+01   3.2367515751e+01    0.3673472    0.2597169 -48.10  0.001413041    1.433    0.302
        50  -8.7729    217.5814    105.2667   8.5134121284e+01   1.5642241366e+01    0.2504861    0.1873257  71.23 0.0006518146    1.588    0.370
        51  -9.2525    197.5066    104.8597   8.8646576239e+01   2.0391642379e+01    0.3091664    0.2414868  21.98 0.0009270842    1.535    0.348
        52  -8.3174    134.6565    105.3198   1.0281155987e+02   3.5118492659e+01    0.1619025    0.1241256 -89.41 0.0007049666    1.723    0.420
        53  -8.1109    162.1721    102.7977   9.5452364130e+01   2.9266479177e+01    0.2156347    0.1880767  14.25 0.0007375476    1.310    0.236
        54  -9.5489    232.8491    127.2740   8.7825341972e+01   8.6347246094e+00    0.2809621    0.2377382 -59.18  0.001125645    1.379    0.275
        55 -13.4325    227.9715     38.0288   6.6585579889e+01   2.3474160987e+01     1.338399    0.5529114  81.68  0.004219232    3.376    0.704
        56  -8.5980    102.8274    232.0214   1.3268696616e+02   1.4551625795e+01    0.1906708    0.1346267  65.50  0.000682171    1.273    0.215
        57  -9.4686    201.3519    100.0566   8.6684579576e+01   2.0335514694e+01    0.2992652     0.228917  65.56  0.001399128    1.423    0.297
        58  -7.5730    177.6366    100.3302   9.1410455814e+01   2.6011742200e+01    0.1660251    0.1231219 -78.60 0.0007038304    1.807    0.446
        59  -8.6366     40.2444     98.8784   1.2938529234e+02   5.2201930482e+01    0.3027479    0.1867338 -86.34  0.001519906    1.927    0.481
        60 -10.8353    228.4358     96.9190   8.1294482128e+01   1.4577972129e+01    0.6154433    0.5194768  -9.72  0.002452185    1.301    0.231
        61 -10.5429    219.2554     90.5579   8.1159734345e+01   1.7726553558e+01     0.977303    0.3820881 -28.32   0.00328599    3.016    0.668
        62 -10.3751    226.6783     89.7086   7.9780665524e+01   1.6148268031e+01    0.6103876    0.3254646  46.35  0.002164611    2.061    0.515
        63  -9.5258    187.8601     96.8268   8.8394861284e+01   2.4172178619e+01    0.2936103    0.1865135 -55.97  0.001220004    1.836    0.455
        64  -8.9811    168.9005     95.5774   9.1971879514e+01   2.9043435985e+01    0.3339029    0.2311551 -46.29   0.00148388    1.464    0.317
        65  -9.4128    143.7836     95.9870   9.7921420040e+01   3.4984419567e+01    0.5527681    0.2431659  52.74  0.001939724    2.378    0.579
        66  -9.9896    210.7676     92.6344   8.3095456878e+01   1.9379275855e+01    0.4828428    0.3403392  46.06  0.001273944    1.495    0.331
        67  -9.6492    188.4923     90.5042   8.6562603940e+01   2.5157421218e+01    0.3149663    0.2618264  76.89  0.001176434    1.317    0.240
        68 -10.3859    189.0232     87.2599   8.5574607133e+01   2.5601504913e+01    0.6949528    0.3095943  39.38  0.002303082    2.996    0.666
        69  -9.4292    155.9461     88.0527   9.2735202756e+01   3.3646704431e+01    0.3082124    0.2167725  -5.32  0.001251869    2.113    0.527
        70  -8.3182    106.9649     87.4479   1.0540011898e+02   4.4788626174e+01    0.2989283    0.2090621 -62.14  0.001362395    1.666    0.400
        71  -8.3664    211.6956     83.5301   8.0575297255e+01   2.0680428697e+01    0.2767894    0.1908045 -35.06 0.0007677939    1.404    0.288
        72  -9.0218    207.0826     82.5292   8.1074953424e+01   2.1963601474e+01    0.3952045    0.2097389 -37.93  0.001639001    1.794    0.443
        73  -8.6934    227.0757     82.3734   7.7885672603e+01   1.7231341987e+01    0.2350579    0.1857581 -49.90 0.0004664009    1.214    0.176
        74  -8.8958    223.4267     79.3756   7.7671146437e+01   1.8557956552e+01    0.4251343     0.221189  65.14  0.001769061    2.161    0.537
        75 -11.8399    218.6785     73.1356   7.6778674510e+01   2.0670085387e+01     0.692075    0.3499232 -43.27  0.002903145    1.870    0.465
        76  -9.1665    182.7551     81.9715   8.5308618371e+01   2.8095513339e+01    0.3638219    0.2209333  78.15  0.001291979    2.358    0.576
        77  -7.9312    112.4049     81.6958   1.0209375379e+02   4.4877038860e+01     0.292221      0.14145 -47.57  0.001123295    2.090    0.522
        78  -9.7656    150.7553     74.0894   8.9762366834e+01   3.7521029738e+01    0.3317618    0.2259477 -25.94  0.001451541    1.645    0.392
        79  -9.7853    169.0541     76.0218   8.6341004206e+01   3.2595135017e+01    0.5525354    0.2882389 -43.28   0.00216837    1.934    0.483
        80 -10.0173    157.3841     79.2377   8.9812849514e+01   3.4944000827e+01    0.3825593    0.2658857 -47.73  0.001383704    1.488    0.328
        81  -8.6845     61.9232     79.1014   1.1748522216e+02   5.4166920302e+01     0.211075    0.1871117 -39.71 0.0007470109    1.040    0.039
        82  -8.7759    185.2037     77.7932   8.3663260260e+01   2.8202475126e+01    0.2686178    0.2591423 -84.08 0.0007219678    1.023    0.022
        83  -8.6409     81.7480     78.1601   1.1049513836e+02   5.1384835087e+01    0.2617213    0.2084563  29.60 0.0009376252    1.352    0.260
        84 -10.5818    233.7045     74.4526   7.4967711031e+01   1.6935513986e+01    0.4224569    0.2712245  53.93   0.00102148    1.662    0.398
        85  -9.8855    202.9424     71.3401   7.8758606962e+01   2.4811764211e+01    0.8035635    0.2657124 -35.19  0.002674869    2.856    0.650
        86 -10.0785    188.7274     67.4539   8.0089610835e+01   2.9026454481e+01    0.6202629    0.3663179 -37.52  0.002394731    1.664    0.399
        87  -9.0155    191.1271     75.3807   8.1896984164e+01   2.7115818647e+01    0.2590353    0.2056411 -23.07 0.0006014263    1.370    0.270
        88 -11.2391    161.6491     72.4921   8.6849076285e+01   3.5083833525e+01    0.6542104    0.5281147  -0.99  0.002290907    1.526    0.344
        89  -8.6960    212.1197     73.4522   7.7860516206e+01   2.2209304455e+01    0.2526886    0.2207741  18.40 0.0005979433    1.355    0.262
        90  -9.3389    180.8845     71.9322   8.2805314557e+01   3.0290971209e+01    0.3385645    0.2249015  65.61   0.00109703    1.576    0.365
        91  -8.2517    105.0136     72.3113   1.0131979172e+02   4.8281603804e+01      0.20657    0.1851198  40.05 0.0003600891    1.140    0.123
        92  -7.3494    228.2791     71.6845   7.5024929123e+01   1.8615750432e+01    0.1478604     0.101797 -61.34 0.0002294131    1.572    0.364
        93  -8.9138    195.7072     70.8636   7.9836831662e+01   2.6703791187e+01    0.2813569    0.2175478  72.91 0.0007052188    1.355    0.262
        94  -8.5921    111.6044     69.8848   9.8585427072e+01   4.7384212071e+01    0.3167743    0.2154953 -35.98 0.0005822079    1.468    0.319
        95  -8.8139    232.4122     68.2862   7.3611626479e+01   1.8166163672e+01    0.3194371    0.2298926 -24.64 0.0009757468    1.476    0.323
        96 -10.1792    170.2228     67.8553   8.3678405747e+01   3.3697571169e+01    0.4175581    0.3269246 -80.26  0.001490515    1.510    0.338
        97  -9.1531    225.3233     67.6023   7.4402206919e+01   1.9933790680e+01    0.2644125    0.2194411 -21.56  0.000192521    1.306    0.234
        98  -8.1922    209.7714     65.6019   7.6135780126e+01   2.4015458135e+01    0.4046411    0.2571212 -71.54  0.001733546    2.036    0.509
        99  -8.9093    158.5973     66.3560   8.5627951296e+01   3.6911111869e+01    0.4444815    0.2512966 -53.31  0.001739541    2.121    0.528
       100 -10.4557    199.7804     62.0061   7.6709362944e+01   2.7072329944e+01    0.4913393    0.3658719  10.76            0    1.875    0.467
       101  -9.0980    193.2227     61.4642   7.7622504051e+01   2.8824501001e+01    0.4743937    0.3369003  -0.57  0.002098795    2.006    0.502
       102 -10.8566    174.2624     61.4441   8.0973610115e+01   3.3706380183e+01    0.6956034    0.5043191 -43.03  0.002943936    1.388    0.279
       103  -9.6693    175.3190     53.4972   7.8388984755e+01   3.4664016005e+01    0.5214688     0.364868 -76.40   0.00219341    1.777    0.437
       104  -8.8340    170.5323     52.4899   7.8957059269e+01   3.6058962740e+01    0.2684091    0.2248152 -52.04  0.001071785    1.224    0.183
       105  -9.7461    186.6120     59.4058   7.8149132746e+01   3.0839284346e+01    0.4201362     0.311299  30.38   0.00117124    1.654    0.395
       106  -9.6924    182.7052     55.4413   7.7665856934e+01   3.2454187765e+01    0.4875166    0.3170264 -65.70  0.001638101    1.893    0.472
       107  -9.2306    165.8954     62.6606   8.2973543291e+01   3.5663781639e+01    0.3063217    0.2774178 -46.42  0.001042917    1.119    0.106
       108  -9.8024    161.2032     60.0422   8.3119061037e+01   3.7290923676e+01    0.4191929    0.3765926  12.79   0.00176449    1.240    0.193
       109  -8.7353    149.9514     57.9323   8.4845778884e+01   4.0491720060e+01      0.25296    0.1873233 -73.29  0.001140845    1.731    0.422
       110  -7.9733     90.3150     57.6754   1.0097763076e+02   5.3948866886e+01    0.1375552    0.1145274 -80.15 0.0007042639    1.666    0.400
       111  -8.5281    191.2944     52.2632   7.5318563014e+01   3.0705588374e+01    0.3827906    0.1754148 -42.96  0.001142142    2.152    0.535
       112  -9.6095    164.9659     52.7852   8.0102628191e+01   3.7457650275e+01    0.4811151    0.2824958  84.34  0.001816443    2.512    0.602
       113  -7.7243      2.3451     53.6678   1.3386197096e+02   6.5006829050e+01    0.1082614   0.08091655  74.64 0.0007050096    1.760    0.432
       114  -8.0289    143.4473     51.9348   8.4326923279e+01   4.3076331253e+01    0.2235663    0.1160147 -53.77 0.0008081741    2.605    0.616
       115  -9.8794    104.8897     45.1147   9.1844417950e+01   5.3168261409e+01    0.6429111    0.3749246 -65.35  0.002211702    3.969    0.748
       116  -8.8211    193.5352     45.7256   7.3104789498e+01   3.1061768080e+01    0.3485842    0.2499182 -31.97  0.001091609    1.436    0.304
       117  -8.2454     58.4554     46.4398   1.0831673967e+02   6.1274237977e+01    0.2336253     0.117997 -54.16 0.0007079813    2.395    0.582
       118  -8.2776    180.1486     46.3222   7.5397211189e+01   3.4454284295e+01    0.4044162     0.140145  65.52  0.001309939    3.036    0.671
       119  -8.3441    153.7881     46.4777   8.0303671239e+01   4.1278657206e+01    0.3031503    0.1487078  65.40  0.001153995    2.180    0.541
       120  -8.7417     90.6292     45.1106   9.6246784128e+01   5.6085321693e+01    0.2302397    0.1917685  51.31 0.0005995425    1.333    0.250
       121  -9.1971     85.6162     43.2421   9.7179189856e+01   5.7350918851e+01    0.3443356    0.2382972 -68.44  0.001543834    2.607    0.616
       122  -9.5153    173.0001     38.1409   7.4107442246e+01   3.7445479621e+01    0.5700731    0.3582248 -74.43  0.002425357    2.087    0.521
       123  -9.0695    195.6486     40.8110   7.1401103013e+01   3.1189382947e+01    0.2503955    0.2103579  61.78  0.000358171    1.176    0.150
       124  -8.4206    189.2089     38.5848   7.1699503169e+01   3.3153517965e+01    0.3061888    0.2096348 -59.49  0.001461437    1.556    0.357
       125 -11.0097    123.2775     36.2440   8.3567154223e+01   5.0311179287e+01    0.5754089    0.4184566 -29.35   0.00168869    1.424    0.298
       126  -8.7242     88.6552     36.3392   9.3438013951e+01   5.7858102947e+01    0.4689275    0.3203442  88.66  0.001885586    3.516    0.716
       127  -8.6390     89.8606     32.1253   9.1331738240e+01   5.8240581275e+01    0.1950678    0.1890399 -46.78  0.000665634    1.246    0.198
       128  -8.1306     73.2042     37.1946   9.9106019572e+01   6.0564054805e+01    0.1714553    0.1601424 -58.90 0.0004461223    1.381    0.276
       129 -11.0842     45.0869    222.0314   1.4266232663e+02   2.4327897716e+01    0.8928023    0.3986003  54.87  0.005046488    1.792    0.442
       130  -7.6561     86.5147    213.4729   1.3392441059e+02   2.0425583751e+01    0.1253019    0.1014035  64.03 0.0001076222    1.014    0.014
       131  -9.5807    146.9653     25.4533   7.4586568718e+01   4.5799217488e+01    0.3609174     0.231002 -81.71  0.001571876    2.148    0.534
       132 -10.7923     28.4143    208.9875   1.4487515512e+02   2.8757239944e+01    0.4867355    0.3803279  51.44  0.001810438    1.318    0.241
       133  -9.1485    139.0950     34.4893   7.9305654144e+01   4.6674813630e+01    0.3197601    0.2729263  79.77 0.0007854122    1.254    0.203
       134  -9.0139    135.8032     30.8615   7.8726331756e+01   4.7965567512e+01    0.2980445    0.2477257 -83.57 0.0006031034    1.404    0.288
       135  -8.5045     94.4781     35.4780   9.1243545258e+01   5.6820957200e+01    0.1368209    0.1274627   8.12 0.0001975677    1.046    0.044
       136  -8.4316    161.3638     34.0177   7.4807869163e+01   4.1024397452e+01    0.2789606    0.2127887  77.82  0.000735043    1.334    0.250
       137 -11.0469     58.6819    198.2449   1.3805623471e+02   2.7356004719e+01     0.500792     0.256485  45.19    0.0027285    1.721    0.419
       138 -10.1753     97.2424     29.7222   8.8072222346e+01   5.7060436343e+01    0.5748464    0.3759832 -57.60  0.002594867    2.340    0.573
       139  -8.8615    201.2946     27.9026   6.7051308244e+01   3.1387543611e+01    0.2951027     0.207717 -47.72  0.001052493    1.384    0.277
       140  -8.0868    185.7215     28.3377   6.9219031755e+01   3.5360058958e+01    0.2155996    0.1633161  89.75 0.0006935884    1.323    0.244
       141  -8.9282    206.6672     26.6471   6.6064510732e+01   3.0171955420e+01    0.2423782    0.2223115  85.55  0.001439341    1.065    0.061
       142  -8.5928    162.8771     26.9618   7.2277028907e+01   4.1500654216e+01    0.2505451     0.234398  64.52   0.00104921    1.029    0.028
       143  -9.3861    155.6599     25.3383   7.2975136786e+01   4.3570349265e+01    0.4475079    0.3133243 -76.32  0.001856609    1.727    0.421
       144  -8.4854     84.0428     24.4389   8.9962082940e+01   6.0448543177e+01    0.3143959    0.2283347 -68.87  0.001534023    2.489    0.598
       145  -8.7922    175.2916     23.5587   6.9280472543e+01   3.8649551853e+01    0.2824387    0.2163719 -65.07 0.0005744604    1.371    0.270
       146  -8.9208    180.5955     21.6517   6.7956926583e+01   3.7479957729e+01    0.2514489    0.2153302  82.17 0.0005666164    1.079    0.073
       147  -8.4378    186.9168     21.0123   6.6926800467e+01   3.5905154832e+01    0.3561632    0.2203629  46.64  0.001690093    1.742    0.426
       148 -11.4863     49.8731    177.2407   1.3786354079e+02   3.2948400262e+01    0.8424141     0.491971 -43.90  0.004257206    2.573    0.611
       149  -8.8253    164.4567     19.3708   6.9597051313e+01   4.1951583023e+01     0.293657     0.234042 -67.72  0.001066155    1.335    0.251
       150  -7.9075    174.8606     19.5076   6.8109140507e+01   3.9217334580e+01    0.2125657    0.1292119  67.57 0.0007466779    1.501    0.334
       151  -8.0474    103.0529     18.9279   8.1973536010e+01   5.7149883147e+01    0.2292758    0.1450079  27.08 0.0009185068    1.685    0.406
       152  -8.5909    155.7246     18.0518   7.0553260251e+01   4.4366174210e+01    0.3229822    0.1944847  87.16  0.001401656    1.970    0.492
       153 -10.1732     50.2873    187.8565   1.3882573138e+02   3.0597399645e+01    0.3299026     0.171307 -88.37  0.001330223    1.946    0.486
       154  -8.1517    170.2299    197.0066   1.1436510327e+02   9.1787422280e+00      0.16928    0.1150642 -44.08 0.0008849005    1.668    0.400
       155  -7.9378    108.7045    187.5620   1.2600708050e+02   2.2121729110e+01    0.1911428    0.1124127  52.11 0.0009336973    1.561    0.360
       156  -8.0940     68.7119     15.6143   9.1261914706e+01   6.4436960891e+01    0.2128742    0.1452788 -43.39  0.001179642    1.821    0.451
       157  -8.9980     35.3761    186.2497   1.4182578215e+02   3.2667517385e+01    0.2163369    0.1095952  57.28  0.001192583    1.752    0.429
       158  -8.3769    166.7394     14.8443   6.7825616889e+01   4.1835482894e+01    0.2542344    0.1970891  87.80 0.0008718168    1.274    0.215
       159 -10.8362     46.2282    188.2900   1.3972589559e+02   3.0993975473e+01    0.4565422    0.2263953 -86.91  0.002340266    2.014    0.504
       160 -10.1473     53.5163    190.4800   1.3839234097e+02   2.9640165942e+01    0.2338521    0.1980799 -71.51  0.001585954    1.318    0.241
       161  -9.0733    248.6549    168.4705   9.4130124065e+01  -7.3343541225e-01    0.3437372    0.2026777 -37.46   0.00112057    1.698    0.411
       162  -8.4894     61.0306    167.0553   1.3415805778e+02   3.3818826027e+01    0.2156785    0.1318696  69.75 0.0007278057    1.676    0.403
       163  -7.9884    203.1624    163.1988   1.0124468446e+02   8.6425468636e+00     0.189631     0.174144 -76.25  0.001071593    1.368    0.269
       164  -7.9708    144.9566    156.4581   1.1229410414e+02   2.1917050043e+01    0.2127552    0.1225912  64.28 0.0008078622    2.438    0.590
       165 -10.4034    178.3702    150.5269   1.0357555718e+02   1.6106364306e+01    0.5732449    0.4820031  82.81  0.002275297    1.480    0.324
       166  -7.4657      6.6592    151.3272   1.4529473502e+02   4.2981239319e+01    0.1246718   0.06696776  68.17 0.0007051428    1.736    0.424
       167  -8.1760     80.5346    148.8374   1.2674094474e+02   3.5271375008e+01    0.2815297    0.1592572  55.90  0.001048765    1.885    0.469
       168  -8.6990     66.4472    144.4960   1.2968950376e+02   3.8311866186e+01    0.2817015    0.2039262  76.04  0.001338615    1.417    0.294
       169 -11.2399    241.8058    137.5639   8.8675317411e+01   5.1887348454e+00    0.8378847    0.5764661 -47.04   0.00394262    1.588    0.370
       170  -8.5311    196.6040    139.7231   9.7366288729e+01   1.4199651546e+01    0.2065595    0.1379979 -47.86  0.000940913    1.606    0.377
       171  -8.1877    198.8125    135.8630   9.6031276484e+01   1.4424410570e+01    0.2035757    0.1807677 -89.05 0.0005814304    1.364    0.267
       172  -8.9326    232.1805    133.4864   8.9361527205e+01   7.7553859897e+00    0.2630091    0.1884332 -31.01 0.0006690456    1.314    0.239
       173  -8.5810    193.7518    134.1609   9.6640326946e+01   1.5853808474e+01    0.2515722    0.1694696 -81.82 0.0009531908    2.819    0.645
