#   1 NUMBER                 Running object number                                     
#   2 MAG_AUTO               Kron-like elliptical aperture magnitude                    [mag]
#   3 X_IMAGE                Object position along x                                    [pixel]
#   4 Y_IMAGE                Object position along y                                    [pixel]
#   5 X_WORLD                Barycenter position along world x axis                     [deg]
#   6 Y_WORLD                Barycenter position along world y axis                     [deg]
#   7 A_WORLD                Profile RMS along major axis (world units)                 [deg]
#   8 B_WORLD                Profile RMS along minor axis (world units)                 [deg]
#   9 THETA_WORLD            Position angle (CCW/world-x)                               [deg]
#  10 FWHM_WORLD             FWHM assuming a gaussian core                              [deg]
#  11 ELONGATION             A_IMAGE/B_IMAGE                                           
#  12 ELLIPTICITY            1 - B_IMAGE/A_IMAGE                                       
         1 -15.7201     69.0221    144.3466   9.7533916856e+01   3.7354380003e+01     5.226406     2.547297  63.39  0.009261176    4.044    0.753
         2 -13.8472    200.0490     43.3412   4.0715432060e+01   3.0370132942e+01    0.9171404    0.8139128 -55.17  0.003075777    1.089    0.081
         3 -14.2944    209.9193     34.0679   3.7513838111e+01   2.9418956485e+01    0.8035394    0.7195832  12.91  0.001451421    1.550    0.355
         4 -13.2622      2.4548      6.5438   8.8185529651e+01   7.5551519156e+01     1.019697    0.3961884 -46.82  0.005164424    2.398    0.583
         5 -13.8798    235.4497      7.7475   2.9959171673e+01   2.7209032828e+01    0.8006892    0.6109072 -64.35  0.004331101    1.003    0.003
         6 -11.4190     60.0470      7.5155   5.6487207237e+01   6.6753457886e+01    0.1900507    0.1625557   4.12 0.0006529605    1.168    0.144
         7 -11.5015     43.8359      7.1637   6.3020902725e+01   6.9869817467e+01    0.1836664    0.1272341  16.60 0.0007137347    1.358    0.264
         8 -11.5488     59.5283      2.4933   5.4109656862e+01   6.7336138356e+01    0.2710339    0.1076315  54.65  0.001222451    2.205    0.546
         9 -12.1652    122.7130    199.4649   9.2010922393e+01   1.6137138668e+01    0.3677821    0.2870944 -77.01  0.001839994    1.670    0.401
        10 -15.0033     40.8730    194.2943   1.1210159363e+02   2.8362347633e+01     4.070935     1.407994  61.01   0.01161223    4.877    0.795
        11 -14.5724     19.9416    220.8967   1.1903413843e+02   2.4494356052e+01    0.7658082    0.6772334  48.96   0.00473456    1.149    0.130
        12 -17.9628     14.9767    240.8394   1.2111260028e+02   2.0876411986e+01     8.093779     2.388996  21.01   0.02801573    4.859    0.794
        13 -10.7798    149.4241    191.9650   8.4423924001e+01   1.3448811494e+01    0.2921311     0.215456  68.57  0.001398287    2.147    0.534
        14 -11.7615    125.1169    189.1453   8.9742311276e+01   1.7946940274e+01    0.3069098    0.2247106 -67.14 0.0009694125    1.685    0.406
        15 -12.1549    118.3067    190.3917   9.1640813101e+01   1.8760014602e+01    0.4271978    0.2862992 -86.13  0.001861849    2.448    0.591
        16 -10.6883     65.0005    179.0366   1.0401234987e+02   2.9182004900e+01    0.3045972    0.2075949 -68.74 0.0008372554    1.485    0.327
        17  -9.7332     59.8115    191.9055   1.0696804727e+02   2.6747614878e+01    0.2240265    0.1448082  63.77 0.0006800357    1.662    0.398
        18 -13.5009     55.1779    184.7142   1.0737373775e+02   2.9024383674e+01    0.7445295    0.7064331  48.49  0.002679255    1.074    0.069
        19 -10.5043     85.1612    185.9422   9.9513910252e+01   2.4783524545e+01    0.3290225    0.3098864 -28.25  0.001865675    1.153    0.133
        20 -10.9903     81.4335    181.9194   9.9933504369e+01   2.6263726647e+01    0.4645872    0.2857388  36.75  0.001267486    1.528    0.345
        21 -10.9629    147.1790    185.4426   8.3777512565e+01   1.5128060760e+01    0.2561364    0.1932424  77.56  0.001204955    2.172    0.540
        22 -11.4007     99.4285    180.8955   9.4960498480e+01   2.3844713030e+01    0.2720248    0.2610224 -14.01 0.0006072868    1.087    0.080
        23 -11.8545     41.6141    176.9187   1.1018841345e+02   3.2467518637e+01    0.7054834    0.4054765 -21.73  0.002943225    2.956    0.662
        24 -10.0323     47.5495    177.4770   1.0862037909e+02   3.1675940961e+01    0.2495297    0.2079342  89.01 0.0008149653    1.158    0.137
        25  -9.4878     88.4478    178.4434   9.7518497695e+01   2.6077183303e+01    0.2095329    0.1251812  41.30 8.488817e-05    1.600    0.375
        26 -10.5435     90.9758    175.9729   9.6445068534e+01   2.6288713448e+01     0.224567    0.2139936  67.11 0.0006898179    1.060    0.057
        27 -12.1190    109.2660    189.2843   9.3743357318e+01   2.0417097068e+01    0.4464334    0.2628699 -16.10  0.001669498    3.130    0.681
        28 -10.9521    186.1434    173.7360   7.2983317185e+01   1.0951670382e+01    0.3307222    0.3012187 -45.74  0.001512723    1.282    0.220
        29 -14.2132     81.1469    158.2670   9.6296698681e+01   3.2082741361e+01     1.869864    0.8894464  58.04 0.0008373274    3.390    0.705
        30 -13.6247     70.0774    153.0419   9.8705232264e+01   3.4990860061e+01    0.6624281    0.4660518 -48.62  0.001149593    1.437    0.304
        31 -16.8842      7.3668    203.4278   1.2091200082e+02   2.9425306913e+01     9.135646      1.19694 -76.36  0.008747664    6.083    0.836
        32 -10.2110    110.8754    168.2020   8.9726840963e+01   2.4969988207e+01    0.2541831    0.2065295 -71.32 0.0006735547    1.403    0.287
        33  -9.1582     28.3724    164.2676   1.1258072728e+02   3.6951722132e+01    0.1339597   0.09715743 -34.03 0.0006992066    1.670    0.401
        34 -12.4486     89.0153    151.3704   9.2745379665e+01   3.2590833967e+01    0.7377062     0.477065 -22.02  0.003042873    2.219    0.549
        35 -11.6288    133.8392    145.3769   7.9039160383e+01   2.6124820031e+01     1.194062    0.3241347 -54.42  0.002859442    5.689    0.824
        36 -11.8816     48.7788    145.0998   1.0403640640e+02   3.9748282305e+01    0.4721258    0.2239298  22.38  0.001917148    2.349    0.574
        37 -12.2808     54.2354    148.1595   1.0278838232e+02   3.8310105084e+01    0.8542545    0.3566745 -55.65  0.003360596    2.204    0.546
        38  -9.8589    112.0191    150.2225   8.5921903114e+01   2.9005000787e+01    0.2474779    0.1685696  60.73 0.0008662908    1.884    0.469
        39 -10.0933    174.8690    149.1427   7.0247626138e+01   1.7603930107e+01    0.2138592    0.2008549 -72.28 0.0006987554    1.278    0.218
        40 -11.0360     38.2035    145.9942   1.0749903358e+02   4.0668590087e+01    0.3661951    0.1814869  33.70  0.001616241    2.006    0.501
        41 -10.6006     33.4799    143.4703   1.0865672736e+02   4.1792213091e+01    0.3471164    0.1691154 -59.14 0.0009202739    1.840    0.456
        42 -11.6287     28.6432    143.3635   1.1017337238e+02   4.2271994517e+01    0.4497663    0.3421115 -11.49  0.002241976    1.612    0.380
        43 -11.1344    102.8377    137.7854   8.5908863493e+01   3.3607709382e+01    0.6133051    0.3734062 -16.36  0.002176999    2.936    0.659
        44 -11.1823    106.0613    131.0251   8.3449093824e+01   3.4652595001e+01     0.437482    0.3314589 -53.99  0.001390276    1.336    0.251
        45 -12.3385     89.9980    137.3106   8.9659094159e+01   3.5923512530e+01    0.2908635    0.2651563 -26.27 0.0003934399    1.137    0.121
        46 -11.9034     29.2569    129.7730   1.0818658597e+02   4.5744461106e+01    0.3521683     0.240788 -34.92  0.001788232    1.615    0.381
        47 -11.2279    135.0736    128.6364   7.4869833823e+01   2.9608881678e+01    0.3881805    0.3288876 -50.36  0.001615559    1.198    0.165
        48 -12.3642     73.1328    166.3523   9.9931402802e+01   3.1219674420e+01     0.446427    0.3630643 -68.70 0.0009517697    1.239    0.193
        49 -10.4562    111.6688    128.9574   8.1336926902e+01   3.4100532204e+01    0.3193478    0.2227801  17.74 0.0009081463    1.754    0.430
        50 -11.6360     39.5177    127.4984   1.0434308453e+02   4.5341189244e+01    0.2409751    0.1986991  71.57 0.0007013986    1.305    0.234
        51 -12.2475     69.0932    170.7125   1.0172992803e+02   3.0688873314e+01     0.456643    0.3067376 -30.18  0.001880334    1.922    0.480
        52 -11.0983     98.9780    124.6934   8.4098990703e+01   3.7458766686e+01    0.3298708    0.2593043   7.32 0.0009368024    1.509    0.337
        53 -10.8980    117.4043    123.7033   7.8441431487e+01   3.4220405186e+01    0.2711362    0.1937976  15.31  0.000685564    1.763    0.433
        54  -9.1288    163.6508    121.3048   6.6287024688e+01   2.5325564144e+01    0.1496554    0.1194642 -85.38 0.0007041458    1.700    0.412
        55 -10.2124    135.0000    120.4353   7.2881389402e+01   3.1418348254e+01    0.3398439   0.08668128 -45.56 0.0009270277    3.873    0.742
        56 -10.1054     87.0466    120.5390   8.6869574282e+01   4.0561319688e+01     0.330717    0.2291398  77.56  0.001356416    2.217    0.549
        57 -12.5801     34.1937    118.6194   1.0475268797e+02   4.8180697055e+01    0.3802121    0.3248267  29.32  0.002165063    1.262    0.208
        58 -10.0448    107.9791    118.0740   7.9776688594e+01   3.7348563242e+01    0.2260233     0.215283  -4.23 0.0003017881    1.059    0.056
        59  -9.8480     34.6615    171.7425   1.1156832021e+02   3.4471796830e+01    0.2274673    0.1391074  51.81 0.0006557293    1.609    0.378
        60 -10.5959    231.3360    113.7931   5.2617050012e+01   1.3705278556e+01    0.2303869    0.2064588 -35.49  0.000806102    1.064    0.060
        61 -10.0797    205.5587    110.2241   5.5724604265e+01   1.8985925536e+01    0.2233515    0.1949841  51.00 0.0005915702    1.282    0.220
        62 -11.4506    115.6810    109.1300   7.5222645031e+01   3.7862194806e+01    0.4066325     0.303761   7.27  0.001808825    1.756    0.430
        63 -11.4635    240.2946    169.0557   6.2343954270e+01   3.5318748866e+00    0.1796945    0.1353968 -27.05 0.0004948966    1.084    0.078
        64 -12.4117     42.0896    104.0315   9.9077988222e+01   5.1101162573e+01     0.466884    0.3148698  42.00  0.001668746    1.630    0.387
        65 -10.5585     34.1814    100.1916   1.0136589093e+02   5.2896960934e+01    0.1881104    0.1632003  73.64 0.0004906215    1.317    0.241
        66  -9.6474     75.1528     85.1914   8.1625631239e+01   5.0940082991e+01    0.1956952     0.176203  66.42 0.0004102599    1.312    0.238
        67  -9.8313    151.0182     82.8600   5.9031687572e+01   3.5438395837e+01    0.2207209    0.1900281 -78.39 0.0004195569    1.286    0.222
        68 -10.3389    112.2070     82.0108   6.8496047890e+01   4.4322149428e+01    0.3727362    0.2412643  71.21  0.001475239    2.405    0.584
        69  -9.6523    158.7913     83.3861   5.7549622288e+01   3.3576134187e+01    0.2013242     0.134417  44.07 0.0004985863    1.585    0.369
        70 -10.7704     13.5006     59.8952   1.0136421563e+02   6.4291963721e+01    0.2201558    0.1988536  -6.88 0.0004121613    1.157    0.135
        71 -13.2440    189.0692     51.4961   4.4064632531e+01   3.1698874091e+01     0.638081    0.5207915  16.86  0.000818594    1.701    0.412
        72 -10.3936    168.0800    232.9636   8.7012171669e+01   3.2864308213e+00    0.2552545    0.1571767  32.38 0.0009503671    1.458    0.314
        73 -10.7533     58.8729    196.2870   1.0769679476e+02   2.5835864705e+01    0.2175713    0.1990202 -61.90 0.0002875971    1.181    0.153
        74  -9.5592     67.6458    198.7813   1.0573257363e+02   2.4166912126e+01    0.1870124     0.124517 -84.52 0.0006213314    1.695    0.410
        75 -11.6106      3.6227     30.5603   9.8022627050e+01   7.1148534307e+01    0.3105354     0.195152   3.57   0.00185163    1.558    0.358
        76 -10.0370     82.5407    194.9539   1.0143867593e+02   2.3063935289e+01    0.2631239    0.1948897  10.15   0.00117897    1.585    0.369
        77  -9.6710    198.3142     23.4913   3.6154330861e+01   3.3143248133e+01    0.1969844    0.1063411 -32.80 0.0006026047    1.854    0.461
        78  -9.5975    189.5238     15.0001   3.4929221217e+01   3.6002369424e+01    0.1744316    0.1147015 -35.04 0.0005797641    1.547    0.354
        79 -12.1852    111.5434    197.3307   9.4421510266e+01   1.8302321472e+01    0.5163305    0.3052743  -7.29  0.001940044    3.234    0.691
        80 -11.4970     94.5970    203.8935   9.9576558113e+01   1.9370524113e+01    0.3838488    0.2127455 -33.91  0.001632093    2.563    0.610
        81 -12.3508    194.3318    196.6492   7.5661574738e+01   5.6245863114e+00     1.014206    0.6651742 -67.95  0.004235138    3.780    0.735
