#   1 NUMBER                 Running object number                                     
#   2 MAG_AUTO               Kron-like elliptical aperture magnitude                    [mag]
#   3 X_IMAGE                Object position along x                                    [pixel]
#   4 Y_IMAGE                Object position along y                                    [pixel]
#   5 X_WORLD                Barycenter position along world x axis                     [deg]
#   6 Y_WORLD                Barycenter position along world y axis                     [deg]
#   7 A_WORLD                Profile RMS along major axis (world units)                 [deg]
#   8 B_WORLD                Profile RMS along minor axis (world units)                 [deg]
#   9 THETA_WORLD            Position angle (CCW/world-x)                               [deg]
#  10 FWHM_WORLD             FWHM assuming a gaussian core                              [deg]
#  11 ELONGATION             A_IMAGE/B_IMAGE                                           
#  12 ELLIPTICITY            1 - B_IMAGE/A_IMAGE                                       
         1 -14.3762     68.6394    144.3593   9.8504413592e+01   3.7469006395e+01     4.049575     2.168647  67.64   0.00856417    3.153    0.683
         2 -13.4224    200.8831     42.5156   4.1366634617e+01   3.0237821663e+01     1.194524     1.078408 -20.14  0.003890978    1.402    0.287
         3 -13.5773    211.2385     32.5229   3.7869467204e+01   2.9226959820e+01    0.9218789    0.8350564  11.43  0.001875532    1.583    0.368
         4 -12.2171    239.7455      8.7840   3.0462575184e+01   2.6025462624e+01    0.7378322    0.4322283 -34.97  0.004530053    1.811    0.448
         5 -12.3027    233.2278      7.4534   3.0656341345e+01   2.7488131057e+01    0.6994083    0.4138528 -30.80  0.004196643    1.969    0.492
         6  -9.0709     76.4326    211.1443   1.0609393480e+02   2.0184846349e+01    0.3046652    0.1313359 -69.92  0.001268289    2.572    0.611
         7 -11.2305    139.5739    249.3822   9.6968579707e+01   3.1654160688e+00    0.4361519    0.2803492  32.11  0.002481092    1.335    0.251
         8 -12.7790     54.1405    186.0000   1.0851784310e+02   2.9010715442e+01     1.990606     1.177075  80.19  0.009419844    1.930    0.482
         9  -9.6273     58.9894    196.4650   1.0853152210e+02   2.5905968822e+01     0.232279    0.1821157 -78.60 0.0003637754    1.215    0.177
        10  -9.2750    142.5078    208.5088   9.0395010238e+01   1.0357263568e+01    0.1396041    0.1283799  35.76 0.0001509725    1.030    0.029
        11  -9.0968     20.7251    195.2177   1.1739521173e+02   3.0521263398e+01    0.2037422    0.1663451  53.86   0.00133597    1.196    0.164
        12  -8.9399    151.4571    193.4879   8.5790147930e+01   1.1904700461e+01    0.2649556    0.2351828  68.66  0.001466778    1.304    0.233
        13  -9.0890    148.2921    189.6130   8.5821127819e+01   1.3278154697e+01    0.3101931    0.1863087  59.62   0.00127286    2.340    0.573
        14  -9.9073    146.4808    186.0398   8.5590608411e+01   1.4364323878e+01    0.2996042    0.2371131  85.49 0.0008143691    1.705    0.413
        15 -10.1919    118.5930    190.9064   9.3130337663e+01   1.8187364388e+01    0.2780879    0.1862552 -74.26  0.001197858    1.869    0.465
        16  -9.0090     85.1622    185.9311   1.0068611853e+02   2.4743707502e+01    0.3374844    0.2031787  72.50   0.00117261    2.218    0.549
        17  -8.6763     82.5196    182.4481   1.0084994608e+02   2.5975846424e+01    0.2144232    0.1368114 -64.70 0.0002336959    1.562    0.360
        18  -8.9408     79.5543    181.7891   1.0151497151e+02   2.6574698629e+01    0.3267722    0.2274934  76.84  0.001441946    1.635    0.388
        19 -15.4741      5.4023    177.8401   1.1962327055e+02   3.5936490142e+01     15.09094    0.9101722 -74.89   0.02661553    9.546    0.895
        20  -9.9340     99.3662    180.9062   9.6293117223e+01   2.3713245502e+01     0.261243    0.2433565 -20.45 0.0005767462    1.230    0.187
        21  -8.4654     88.4621    178.5349   9.8724320390e+01   2.6015536816e+01    0.1441513    0.1345664  74.77 0.0001209778    1.008    0.008
        22 -10.5597    122.3361    198.7595   9.3507066252e+01   1.5810298138e+01    0.3666745    0.2593235 -76.37  0.001087134    1.774    0.436
        23 -10.6613     40.9152    176.8635   1.1080819033e+02   3.2792274289e+01    0.4116534    0.2672469 -40.05  0.001680915    1.976    0.494
        24 -10.4564    186.7451    174.9627   7.4471967461e+01   9.3285062341e+00    0.3893965    0.3205868 -50.95   0.00110931    1.311    0.237
        25 -14.5052     37.9359    192.1241   1.1312226823e+02   2.9455675100e+01     7.231952     2.677209  71.76   0.01321235    6.402    0.844
        26 -11.4451    114.9954    173.4128   9.0999896712e+01   2.2846572108e+01    0.9032961      0.24551  40.69  0.002744967    3.437    0.709
        27 -12.2449     80.9729    158.9179   9.7522895826e+01   3.1998564472e+01     1.194731    0.6290374  62.17 0.0005134885    2.780    0.640
        28 -12.8563     69.2436    153.7186   9.9942387085e+01   3.5020599707e+01    0.6424133    0.4241251 -54.59  0.001195801    1.454    0.312
        29  -8.1620    224.2666    206.6862   7.3158846055e+01  -2.4450304214e+00    0.1093799    0.1014303 -58.55   0.00023888    1.546    0.353
        30  -8.9133    110.9089    167.9273   9.1052879413e+01   2.4864811487e+01    0.2403347    0.1787876  77.62 0.0005689363    1.678    0.404
        31 -11.4038     68.3249    171.6449   1.0298185115e+02   3.0661818869e+01      0.43544    0.3008621 -29.59  0.002064037    2.007    0.502
        32 -11.3647     72.4814    167.0542   1.0117949390e+02   3.1218632065e+01    0.4116476    0.3113117 -37.58  0.001180161    1.560    0.359
        33  -8.9306     88.9589    210.2971   1.0307534758e+02   1.8562132096e+01    0.1859588    0.1596851  48.47  0.000238059    1.073    0.068
        34 -11.5503     88.2427    152.1126   9.4265565549e+01   3.2560486353e+01    0.7194594    0.4631358 -24.63  0.002710652    2.360    0.576
        35 -10.5172    133.6845    144.0122   8.0221972012e+01   2.6263237873e+01    0.9763572     0.293506 -56.52  0.002374275    5.272    0.810
        36  -8.7585    111.9991    150.2109   8.7299896450e+01   2.8937847489e+01    0.2548775    0.1692047  64.47  0.001061919    1.950    0.487
        37  -9.1700    174.6831    148.7982   7.1544291800e+01   1.6945512850e+01    0.2655067     0.193637 -53.74 0.0008650236    1.442    0.307
        38  -8.7610     37.4061    146.2004   1.0796177288e+02   4.0806651234e+01    0.1989569    0.1190702 -83.46 0.0009452035    1.710    0.415
        39 -11.0441     28.7167    143.6950   1.1014349216e+02   4.2287719009e+01    0.4215771    0.3090103 -60.33  0.002402725    1.233    0.189
        40 -10.2393    102.1656    138.3207   8.7525439175e+01   3.3607320358e+01    0.5775053    0.3456512 -23.50   0.00207666    2.876    0.652
        41 -10.1509    105.9086    130.9435   8.4815593981e+01   3.4716133282e+01    0.4201641    0.3206504 -62.40  0.001547649    1.362    0.266
        42 -11.5787     89.4976    137.7641   9.1076032990e+01   3.5927598611e+01    0.2940405      0.26578 -34.56 0.0005157745    1.163    0.140
        43 -10.9210     25.8412    137.4631   1.1017138799e+02   4.4107356204e+01    0.3460048    0.2253591  43.78  0.001050788    1.658    0.397
        44 -10.0952    135.3630    128.5106   7.6201162712e+01   2.9479392466e+01    0.4524971    0.2094324 -46.10  0.001662539    2.140    0.533
        45  -9.5693    111.4198    129.3104   8.2870144582e+01   3.4072249720e+01    0.3138551    0.2565126  -2.83 0.0008069483    1.520    0.342
        46 -10.5599     44.4844    129.0443   1.0318869985e+02   4.4375840836e+01    0.3107134    0.1975369 -45.58   0.00153815    1.557    0.358
        47  -9.1880    161.1418    128.1760   6.9839726140e+01   2.4111901275e+01    0.2173932    0.1872663 -81.75  0.001081074    1.340    0.254
        48 -10.0731     98.5845    124.9549   8.5569359990e+01   3.7493789833e+01    0.3213744    0.2601248  -8.51  0.001032158    1.526    0.345
        49  -9.8200    117.4012    123.7063   7.9857508157e+01   3.4229487625e+01    0.2705606    0.1966847  16.44 0.0005486595    1.777    0.437
        50  -9.1949     34.4557    171.6855   1.1189287544e+02   3.4758090100e+01    0.2507113    0.1589391  66.68 0.0007908354    1.607    0.378
        51  -8.7636    163.1785    120.9431   6.7630746615e+01   2.5201428342e+01    0.2402461    0.2058331 -75.54 0.0008706035    1.311    0.237
        52  -9.1585    135.0000    120.9250   7.4441578861e+01   3.1261920212e+01    0.2581321   0.08809698 -46.54 0.0007967881    2.903    0.656
        53  -8.9967     86.3081    120.1525   8.8174472546e+01   4.0783829097e+01    0.2829809    0.1870023  63.09 0.0008960453    2.031    0.508
        54 -11.4494     33.0618    118.1481   1.0500791948e+02   4.8264673643e+01    0.4487753     0.273221 -61.13  0.002294854    1.412    0.292
        55 -11.4757     33.8632    109.8937   1.0327542200e+02   5.0218137341e+01    0.4960369     0.264009 -67.84  0.002323929    1.763    0.433
        56  -9.1987    107.8015    118.2375   8.1248652924e+01   3.7376407060e+01    0.2112315    0.2052695  72.36 0.0003608075    1.061    0.057
        57 -11.4227    240.7767    170.0401   6.3360956333e+01   1.1170897567e+00    0.3085834    0.2635374 -67.02  0.001890592    1.625    0.385
        58  -9.8989    231.2275    113.8214   5.3338182798e+01   1.2478732841e+01    0.2572547    0.2386271 -39.10 0.0008275887    1.082    0.076
        59 -11.2572     53.2934    109.8741   9.6624006556e+01   4.8101787895e+01    0.5836956    0.2598748 -64.28  0.002304504    2.317    0.568
        60 -11.3192    245.6250    109.8093   5.0437866970e+01   1.0508758951e+01     0.351165    0.2680418 -41.24  0.002104911    1.121    0.108
        61  -9.3057    205.5501    110.2019   5.6664355514e+01   1.8223780853e+01    0.2390083     0.204674  59.09  0.000578019    1.259    0.205
        62  -9.9516    115.1292    108.7541   7.6723710541e+01   3.8102950354e+01    0.3146697    0.1790602 -37.88  0.001261527    1.899    0.473
        63 -13.5164     20.1346    220.5314   1.1931951861e+02   2.4930597570e+01    0.7955446    0.5347137  56.71   0.00287487    1.248    0.199
        64 -10.9650    191.9957    192.9864   7.6888026053e+01   4.9726625653e+00    0.5994508    0.3402865 -65.30  0.002140775    4.050    0.753
        65 -10.4405     41.2984    103.6716   9.9466598633e+01   5.0979180515e+01    0.2440513    0.2207547 -54.61 0.0007079134    1.031    0.030
        66 -10.5905     38.4654    102.5100   1.0022740503e+02   5.1552958800e+01    0.2580242    0.2022327 -51.66 0.0007190229    1.123    0.109
        67  -8.2885    193.3174    170.2798   7.2168554020e+01   9.0541039007e+00    0.1429444    0.1073381  -1.39 0.0003443629    1.577    0.366
        68 -10.2559    240.1443    101.3339   4.9411923297e+01   1.2920623577e+01    0.2668596    0.1606216 -88.01  0.001160532    2.940    0.660
        69 -10.7637     32.8816     99.8761   1.0168375485e+02   5.2729489022e+01    0.3433503    0.2441247  38.07   0.00145323    1.596    0.373
        70 -17.0477     14.2247    242.6725   1.2175908817e+02   2.0959825956e+01      6.81517     2.236392  25.03   0.02727238    4.689    0.787
        71  -8.9043     74.9059     85.0963   8.2873195479e+01   5.0748016828e+01    0.2074974     0.192664  72.11 0.0005797151    1.279    0.218
        72  -8.8076    159.0055     83.0056   5.8756709525e+01   3.3630144952e+01    0.1789379    0.1722498 -71.50 0.0003943488    1.021    0.021
        73  -8.9894    150.9958     82.9326   6.0477469592e+01   3.5506361217e+01    0.2249486    0.2094407 -86.31 0.0004814114    1.091    0.083
        74  -9.0940     69.5373     81.7388   8.3797848903e+01   5.2323101237e+01    0.2071581    0.1841201  57.50 0.0006931578    1.337    0.252
        75  -8.9859    110.9800     81.0116   7.0128532229e+01   4.4816085922e+01    0.2347111    0.1865272  86.08 0.0009785249    1.701    0.412
        76  -9.1214     55.0425     65.9866   8.4467795519e+01   5.7713450163e+01    0.2005068    0.1794712 -14.21 0.0004056608    1.015    0.015
        77 -11.0758     12.7373     59.3532   1.0051080883e+02   6.3420394245e+01    0.3890181    0.2647913  53.82  0.001415668    2.214    0.548
        78 -12.8381    190.2087     50.3046   4.4678024097e+01   3.1604170572e+01     1.022889    0.7895821  42.55 0.0009887835    1.567    0.362
        79  -9.0279     31.7737    204.8070   1.1567467151e+02   2.7189829093e+01    0.2425036    0.1143178  54.47  0.001181461    1.973    0.493
        80 -10.8098    111.1053    203.5867   9.6924328398e+01   1.6604410651e+01    0.2990314    0.2220238  47.57 0.0004541741    1.263    0.208
        81 -10.1053     14.5173     32.0186   9.1194236100e+01   6.8543092836e+01    0.1857479     0.133827   7.18 0.0008077932    1.332    0.250
        82  -9.0757    198.1466     23.3192   3.7153738195e+01   3.3280049650e+01    0.2023712    0.1682596 -30.03 0.0008231052    1.444    0.308
        83  -8.8526    189.5095     14.9990   3.6104890017e+01   3.6189790873e+01    0.1756441    0.1196707 -37.18  0.000817864    1.564    0.360
        84 -14.6893      9.3026    207.5040   1.2074587524e+02   2.8818301912e+01     1.133226     1.079881 -21.98  0.008417539    1.493    0.330
        85 -10.9601    107.6182    203.8060   9.7785108357e+01   1.7117418576e+01    0.4223597    0.2572109  72.93  0.001791294    2.438    0.590
