#   1 NUMBER                 Running object number                                     
#   2 MAG_AUTO               Kron-like elliptical aperture magnitude                    [mag]
#   3 X_IMAGE                Object position along x                                    [pixel]
#   4 Y_IMAGE                Object position along y                                    [pixel]
#   5 X_WORLD                Barycenter position along world x axis                     [deg]
#   6 Y_WORLD                Barycenter position along world y axis                     [deg]
#   7 A_WORLD                Profile RMS along major axis (world units)                 [deg]
#   8 B_WORLD                Profile RMS along minor axis (world units)                 [deg]
#   9 THETA_WORLD            Position angle (CCW/world-x)                               [deg]
#  10 FWHM_WORLD             FWHM assuming a gaussian core                              [deg]
#  11 ELONGATION             A_IMAGE/B_IMAGE                                           
#  12 ELLIPTICITY            1 - B_IMAGE/A_IMAGE                                       
         1  -7.6516     83.4938     10.9796   4.4739888932e+01   6.1949300893e+01    0.1704788    0.1010871 -51.56 0.0005077801    2.276    0.561
         2  -8.6860     55.6525      9.8033   5.3524544242e+01   6.7788426622e+01    0.2125323    0.1817093 -60.30 0.0006921066    1.629    0.386
         3  -8.4561     90.9719      8.9447   4.1848850180e+01   6.0477566724e+01    0.1983085      0.15279 -68.01 0.0005572916    1.639    0.390
         4  -7.9384     28.3097      9.6802   6.6572091993e+01   7.2290574173e+01    0.1032107   0.09818419 -82.11 0.0004153927    1.643    0.391
         5  -7.9175     13.2805      8.6604   7.5244509002e+01   7.4280050195e+01    0.0981364   0.09376647 -75.45  0.000341328    1.624    0.384
         6  -8.5601      6.3778      8.2053   7.9728103365e+01   7.5024588607e+01    0.1515216    0.1010503 -53.81  0.000918675    1.731    0.422
         7  -7.5890    101.3422      7.7353   3.8913036590e+01   5.8189039640e+01    0.1291868   0.09733403 -76.65 0.0003730223    1.599    0.375
         8  -7.6210    111.3094      6.6859   3.6461680987e+01   5.5910259296e+01    0.1329552   0.09566551 -67.48  0.000436995    1.630    0.386
         9  -8.5456     33.6509      5.0812   6.1003399241e+01   7.2130188872e+01    0.2845497    0.1644975 -49.48  0.001446656    2.684    0.627
        10  -8.6160     79.0928      3.6130   4.2550018995e+01   6.3639532793e+01    0.2327063    0.1631135 -40.97 0.0009098744    1.656    0.396
        11  -7.9344     99.2982      3.6191   3.7643260736e+01   5.9042840946e+01    0.1333179   0.09332921 -61.76 0.0007021952    1.765    0.433
        12  -7.6743     44.3852      2.7034   5.4384254603e+01   7.0641480546e+01    0.1106955   0.09758303 -84.60  0.000701706    1.772    0.436
        13  -8.1000     62.7047      1.4828   4.6520308347e+01   6.7295073328e+01    0.1572934    0.1159821  66.87 0.0008166087    1.563    0.360
        14  -7.5193     39.3225      1.6467   5.6113661775e+01   7.1629078937e+01    0.1089148   0.09622502 -65.42 0.0007047203    1.756    0.431
        15  -8.2803     67.4677    244.7150   1.0269378399e+02   1.5219788345e+01     0.190229    0.1108589 -81.65 0.0009607702    1.974    0.493
        16  -9.9902    248.7606    242.3248   6.8247205239e+01  -8.2175672905e+00    0.6771796    0.1657655 -37.29  0.003012888    4.094    0.756
        17  -8.7617    247.6727    234.4921   6.7223943979e+01  -7.2016798154e+00    0.1955696    0.1289139 -17.24 0.0008072017    1.278    0.217
        18  -9.4244    246.7231    228.8768   6.6498202728e+01  -6.4305908679e+00    0.3582771    0.1807451 -38.96    0.0014199    2.166    0.538
        19  -9.6346    175.6390    247.9757   8.1673831761e+01   4.4891985937e-02    0.2685259    0.2514602 -84.22  0.001122264    1.612    0.380
        20  -8.5521     94.1624    249.3310   9.7743990359e+01   1.0959749993e+01    0.2563519    0.1328986  63.92  0.001282328    2.500    0.600
        21  -7.5139     25.6768    250.3171   1.1115868845e+02   1.8997943225e+01    0.1212176   0.05715988  58.04 0.0006140672    1.667    0.400
        22  -8.4155    202.0049    243.0475   7.6182316611e+01  -2.7478793373e+00    0.2257022    0.1475412 -50.74 0.0008585362    2.297    0.565
        23  -9.1570    169.1591    243.0638   8.2234668350e+01   1.6222164025e+00     0.202798    0.1878138  51.36 0.0006529704    1.387    0.279
        24  -8.5784    139.5854    243.8579   8.8085999040e+01   5.6223104195e+00    0.1471335    0.1168088 -78.15 0.0009443707    1.774    0.436
        25  -9.0009     77.6458    242.6654   1.0047413489e+02   1.4301190347e+01    0.2235867    0.1222851  75.69   0.00115368    2.381    0.580
        26  -8.0402     49.5030    242.5085   1.0612105683e+02   1.7798875559e+01    0.2011071   0.09522734  85.26  0.001021266    2.543    0.607
        27  -7.7034     34.3414    243.6826   1.0916959254e+02   1.9294181160e+01    0.1260455   0.06046476  57.95 0.0007048932    1.712    0.416
        28  -9.2835    194.5277    240.6491   7.7179340702e+01  -1.4581999526e+00    0.2915982    0.1991698 -52.68  0.001611502    2.185    0.542
        29  -9.6462    160.0132    239.6765   8.3539364350e+01   3.3979922202e+00    0.3220913     0.235458 -70.31  0.001313877    2.200    0.545
        30  -7.9710    153.5731    241.8135   8.5076041333e+01   3.9761573217e+00    0.1457351    0.1181395 -70.20 0.0009473018    1.759    0.432
        31  -8.0551     88.1109    242.1000   9.8294586541e+01   1.3031740693e+01    0.1621696    0.1196395  63.58 0.0006294711    1.314    0.239
        32  -8.4846    209.3398    238.1970   7.4176354555e+01  -3.0524324400e+00    0.1414313    0.1308433  13.37 0.0005249248    1.389    0.280
        33  -9.4495    183.0199    239.2809   7.9100304242e+01   2.7072197608e-01    0.3593899     0.292207 -38.32  0.001737609    1.465    0.318
        34  -8.5185    146.5517    239.7575   8.6194326660e+01   5.2886384810e+00    0.2537272    0.1755556  77.53  0.001250922    2.641    0.621
        35  -8.6655    240.5169    240.0399   6.9210868048e+01  -7.0394989906e+00    0.1986984   0.08884335 -29.22  0.001150279    2.119    0.528
        36  -9.0988    135.8023    238.6125   8.8199599021e+01   7.0042504851e+00     0.260859    0.1677926  58.29  0.001380706    1.932    0.483
        37  -7.7946     41.0000    238.9593   1.0758521292e+02   1.9445665634e+01    0.1656051   0.06109213 -75.33 0.0006606919    2.874    0.652
        38  -9.0778    230.9209    236.2755   7.0204534458e+01  -5.4739952311e+00     0.305808     0.203811 -41.35  0.001383572    1.921    0.479
        39  -8.3707     25.4634    236.4661   1.1051717067e+02   2.1614078503e+01    0.1983268   0.08705647  82.34  0.001024612    2.372    0.578
        40  -9.9252    215.0064    233.1269   7.2423003031e+01  -3.1130232573e+00    0.4367635    0.3450864  88.44  0.002345568    3.760    0.734
        41  -9.1137    203.1960    234.2862   7.4681292224e+01  -1.7377098094e+00    0.2960576    0.1899458 -50.91  0.001233744    2.296    0.565
        42  -9.7843    175.7501    233.1932   7.9603450734e+01   2.1607137717e+00    0.4290718    0.2192121 -54.47  0.002123559    2.916    0.657
        43  -7.9174     57.7642    236.7521   1.0405106555e+02   1.7899861812e+01    0.2045804    0.0601436  42.82 0.0008962064    2.470    0.595
        44  -8.2640    170.3596    235.2841   8.0934801197e+01   2.6062130992e+00    0.1431687    0.1150084 -52.92 0.0006281198    1.624    0.384
        45  -9.4057    109.3455    234.4537   9.3134391671e+01   1.1487824346e+01    0.4798096    0.2091543  47.71  0.002119366    2.135    0.532
        46  -8.3342     99.9531    234.2834   9.5074702223e+01   1.2835538299e+01    0.2238803    0.1487646  67.21  0.001279503    1.718    0.418
        47  -8.9870     78.7455    234.5679   9.9534025406e+01   1.5655994852e+01    0.2255822    0.1530449  84.32  0.001353241    1.657    0.397
        48  -8.3014    123.0471    234.0537   9.0247195924e+01   9.6032531506e+00    0.1989446    0.1340541  61.03 0.0009274082    1.747    0.428
        49  -9.2934     68.8324    232.4276   1.0141649485e+02   1.7348567240e+01    0.4698273    0.1986433  62.43  0.002017745    3.000    0.667
        50  -8.9252      8.3935    233.8050   1.1371234626e+02   2.3831179853e+01    0.1471947   0.08877415 -74.10 0.0009565903    1.736    0.424
        51  -8.4122    194.3707    232.2793   7.5980129763e+01  -2.8165340339e-01    0.1779502    0.1450764 -39.21  0.000604565    1.485    0.326
        52  -8.7784    132.9193    232.6976   8.8048489516e+01   8.4087392274e+00    0.1957139    0.1616373  85.55 0.0008910806    1.579    0.367
        53  -9.1992    186.4970    230.4884   7.7173067186e+01   1.0562782947e+00    0.2997818    0.2288039 -74.47  0.001451367    2.575    0.612
        54  -7.9543    157.6085    231.7771   8.2938706032e+01   4.9709893051e+00    0.1453848    0.1199472 -62.93 0.0003049006    1.616    0.381
        55  -8.9491    140.3064    230.0272   8.6190518407e+01   7.7829240698e+00    0.2416078     0.171248  52.04 0.0009196372    1.499    0.333
        56  -8.4164     92.5264    231.5120   9.6346196623e+01   1.4374848260e+01    0.2903979    0.1478771  61.89 0.0007501703    2.452    0.592
        57  -8.9610    236.0195    230.1757   6.8422912012e+01  -5.3338062251e+00    0.2609888    0.1358967 -32.81  0.001412645    1.838    0.456
        58  -8.6759      1.6539    230.5117   1.1487992307e+02   2.5096698554e+01    0.1980586   0.09185062  69.00  0.001014879    1.765    0.433
        59  -9.1829    151.4828    228.9705   8.3776985587e+01   6.3179969344e+00    0.3000966    0.2262841  80.70  0.001292618    2.154    0.536
        60  -9.4682    148.8320    224.5055   8.3695592502e+01   7.4543913715e+00     0.309789    0.2230092  64.13  0.001390497    1.915    0.478
        61  -7.8988    129.0218    238.4953   8.9556325500e+01   7.9907521246e+00    0.1751922   0.08316511  51.27 0.0007912513    2.391    0.582
        62  -7.7518     81.3017    229.3494   9.8508571260e+01   1.6309589545e+01     0.113862   0.09547053 -16.77 0.0007039027    1.693    0.409
        63  -8.9433    162.3853    227.6715   8.1413562701e+01   4.9311018870e+00     0.289855    0.1915202  55.36  0.001556099    2.001    0.500
        64  -8.8428    127.7534    227.0178   8.8399325423e+01   1.0151642745e+01    0.2800345    0.1796246  57.46   0.00111039    1.805    0.446
        65  -8.2016    223.4872    226.4629   6.9930142029e+01  -3.3197120632e+00    0.1996894   0.09242065 -25.91 0.0008425632    2.298    0.565
        66  -7.9837    120.0144    227.4987   9.0085454828e+01   1.1202332454e+01    0.1771438   0.08722745  52.65 0.0004808246    2.281    0.562
        67  -7.9629     49.7097    226.9429   1.0499178963e+02   2.0782221810e+01    0.2407228   0.07391258  56.45 0.0008982255    3.630    0.725
        68  -8.3892      8.3043    227.3335   1.1346343089e+02   2.5108824253e+01   0.09821191   0.08251801 -55.04  0.000440423    1.662    0.398
        69  -8.8314    206.0555    225.6599   7.2848783532e+01  -9.3336921334e-01     0.201094    0.1574799 -46.55 0.0008165654    1.700    0.412
        70  -8.2460    199.9832    225.8085   7.3968850317e+01  -1.3067666132e-01    0.1845751    0.1535186 -47.20 0.0007947554    1.611    0.379
        71  -8.9242     94.0839    224.0470   9.5226539205e+01   1.5576819581e+01    0.3614979    0.1916486  62.16  0.001444758    2.323    0.570
        72  -8.6997    216.5223    223.1824   7.0609265670e+01  -1.9840615248e+00     0.223323    0.1797024 -54.01  0.000824475    1.955    0.488
        73  -8.8753    180.6031    223.8727   7.7296226756e+01   2.8790874546e+00    0.2341499    0.1939335  46.42 0.0009654984    1.427    0.299
        74  -7.9771    113.9435    223.7691   9.0918911772e+01   1.2773836404e+01    0.2103949    0.1209038  55.67 0.0006006608    1.910    0.477
        75  -8.8446    104.8032    223.3734   9.2836062487e+01   1.4178289512e+01    0.3150425      0.19215  75.05  0.001542234    2.378    0.579
        76  -8.4265     38.3483    224.2127   1.0718441223e+02   2.2641735241e+01    0.1667742   0.09456132  84.00 0.0005583352    1.748    0.428
        77  -8.2846    173.0530    223.0008   7.8626794234e+01   4.1114646349e+00    0.1751402    0.1492347  67.36 0.0006233687    1.672    0.402
        78  -8.3096    162.6911    222.3442   8.0579328066e+01   5.7471807334e+00     0.201126    0.1583829  39.86  0.001165241    1.231    0.188
        79  -8.8356    158.9723    220.0551   8.0990692131e+01   6.6821532294e+00    0.2765326    0.2171864  77.97  0.001095182    1.977    0.494
        80  -9.0193    238.8954    221.2320   6.6533036836e+01  -4.5620838167e+00    0.2144049    0.1394396 -35.42 0.0009433924    1.609    0.379
        81  -9.2172    225.5825    221.5463   6.8791318170e+01  -2.9394922574e+00    0.2079749     0.196823  18.33  0.001018695    1.493    0.330
        82  -9.1778    192.3331    220.9523   7.4623279666e+01   1.6421097597e+00    0.2717685    0.2238049 -55.59  0.001027204    1.712    0.416
        83  -7.9303    140.4595    222.5260   8.5149063969e+01   9.0490005244e+00    0.1272998    0.1096518  37.78  0.000146868    1.064    0.060
        84  -9.0716    120.8579    219.3352   8.8876635610e+01   1.2574200179e+01    0.4800076    0.2334049  60.21  0.001851183    3.513    0.715
        85  -8.5256     82.6235    220.2609   9.7319958729e+01   1.7910875348e+01    0.2747381      0.17103  76.91  0.001115746    1.922    0.480
        86  -8.0483     73.4440    220.9023   9.9391113924e+01   1.9017817172e+01    0.1780732   0.09355399  76.81  0.000806472    2.584    0.613
        87  -7.7435     27.4987    221.0158   1.0925265529e+02   2.4472694067e+01    0.1492309   0.08383314 -52.80 0.0008082203    2.390    0.582
        88  -8.3264    202.5269    219.9352   7.2582688056e+01   3.6066113473e-01    0.1654312     0.110876 -34.12 0.0004195597    1.527    0.345
        89  -8.3420    210.0340    218.8800   7.1062701900e+01  -5.2032274709e-01    0.1830039    0.1456582 -44.64 0.0006269953    1.617    0.382
        90  -8.4530    249.2432    218.0527   6.4367520501e+01  -5.4047798573e+00    0.2227241    0.1468454  47.10  0.001375733    2.433    0.589
        91  -9.1345    132.9316    215.7633   8.5802846528e+01   1.1404082153e+01    0.4537483    0.2815719  75.80  0.001969108    3.150    0.683
        92  -8.3842     62.1048    217.0227   1.0151823382e+02   2.1278729383e+01    0.3391193    0.1448768  63.14  0.001025679    2.916    0.657
        93  -8.8016     51.4240    217.1113   1.0386752412e+02   2.2580378949e+01    0.2577182    0.1521662  72.17 0.0009291084    1.687    0.407
        94  -8.4888    179.1516    217.1411   7.6538886905e+01   4.1395356707e+00    0.1539996    0.1511741  88.00 0.0008174147    1.366    0.268
        95  -8.7174    169.4089    216.0435   7.8286434781e+01   5.7733276607e+00    0.2722943    0.2113594 -82.70  0.000977571    2.204    0.546
        96  -8.7271    142.8435    216.2307   8.3764578381e+01   9.7980404846e+00     0.250537    0.1850155 -77.94 0.0008917715    1.971    0.493
        97  -8.2242    111.8215    216.9601   9.0534996646e+01   1.4374755090e+01    0.2123909    0.1392157  73.33  0.001073704    2.072    0.517
        98  -8.8245    232.3180    214.5051   6.6513664905e+01  -2.8662407470e+00    0.2204169    0.1818167 -44.14 0.0009448485    1.688    0.408
        99  -8.1332    154.6707    215.0707   8.1128730403e+01   8.1839820888e+00    0.1833858     0.161517  88.43  0.001072401    1.512    0.339
       100  -9.0343     93.3209    213.6743   9.4231478603e+01   1.7733510388e+01    0.4653604    0.2012019  54.94  0.001691959    2.721    0.632
       101  -7.8563     41.6618    215.3472   1.0585922234e+02   2.4094135998e+01    0.1376937   0.07075506  61.00 0.0007047298    1.783    0.439
       102  -8.3507    185.6853    214.1052   7.4796254459e+01   3.6518861424e+00    0.1737202    0.1582219 -64.68 0.0008283628    1.533    0.348
       103  -9.3368     73.5143    211.9923   9.8496602561e+01   2.0835030350e+01    0.6326472    0.2149584  55.44  0.002181099    3.925    0.745
       104  -9.4814    214.0106    211.7832   6.9196486263e+01  -5.4582119866e-02    0.3195699    0.2629723  59.62   0.00162106    1.979    0.495
       105  -8.0281    106.4812    212.5125   9.1153700596e+01   1.6038853009e+01    0.2046219    0.1267653 -78.74  0.000724207    2.157    0.536
       106  -7.9206    224.5925    212.0381   6.7403582536e+01  -1.5237966774e+00    0.1675421    0.1024746 -33.16 0.0005788257    1.567    0.362
       107  -8.9914    204.2498    210.6454   7.0757980534e+01   1.4820372926e+00    0.2358522    0.1824212 -48.94 0.0007849773    1.677    0.404
       108  -8.9171    161.6804    211.6936   7.9173335165e+01   7.6851206798e+00    0.2647475    0.2007241 -49.84  0.001120162    1.523    0.344
       109  -8.2311    192.4494    210.4352   7.2912689601e+01   3.2268196580e+00    0.1927647    0.1176953 -51.89 0.0008766864    2.177    0.541
       110  -9.4021    175.5153    209.7728   7.6082790173e+01   5.8790198526e+00    0.3530045     0.270358  73.28  0.001498862    2.215    0.549
       111  -8.5688    147.9517    210.4015   8.1828853384e+01   1.0050488252e+01    0.2265334    0.1851492 -84.71 0.0008229608    1.683    0.406
       112  -8.8615    116.2080    210.0273   8.8666327966e+01   1.5059142381e+01    0.2949982    0.2095293  75.45 0.0009614713    1.819    0.450
       113  -8.2739     85.7267    209.2564   9.5437215378e+01   1.9721858650e+01    0.2848102    0.1632301  79.87  0.001304868    2.437    0.590
       114  -9.3020    236.6159    207.8788   6.4698756869e+01  -2.5310619757e+00    0.3016372    0.2067823 -45.46  0.001414042    1.901    0.474
       115  -8.1721     46.4014    209.2269   1.0434192130e+02   2.4842585447e+01    0.1718881    0.1037866  84.49 0.0006986388    1.661    0.398
       116  -9.3812    246.4728    207.0730   6.2981023877e+01  -3.6716315530e+00    0.2342509     0.168904 -26.96 0.0007102877    1.271    0.213
       117  -9.4449    250.1113    201.7271   6.1503155954e+01  -3.4240436823e+00    0.3789323    0.1538778 -33.30  0.001535882    2.167    0.539
       118  -9.7324    245.8885    193.7303   6.0773124160e+01  -1.8125824289e+00    0.3731779     0.259401 -61.80  0.001946922    3.245    0.692
       119  -8.2689    139.3884    208.0825   8.3308674547e+01   1.1821193639e+01    0.2404453    0.1574236  65.97  0.001153796    2.251    0.556
       120  -8.1794    126.4660    208.1645   8.6138704377e+01   1.3834976793e+01     0.212812    0.1653984  55.88 0.0007515996    1.327    0.246
       121  -8.9853      5.6256    207.4219   1.1313082546e+02   2.9448149991e+01    0.3008068    0.1047714  79.10  0.001305762    2.975    0.664
       122  -9.1476     99.3895    205.7487   9.1899376162e+01   1.8464253354e+01    0.3804477    0.2331521  76.55  0.001081364    2.294    0.564
       123  -8.6508     11.6016    206.7885   1.1182739594e+02   2.9038000224e+01     0.167948    0.0895708  80.67 0.0006670298    1.656    0.396
       124  -8.1304    109.0172    204.9922   8.9606354532e+01   1.7165028039e+01     0.206955    0.1475199  67.43 0.0007181765    1.607    0.378
       125  -8.4829     56.2545    204.9635   1.0173964107e+02   2.4570097480e+01    0.2653303    0.1495763  65.67  0.001053918    1.797    0.444
       126  -8.3440     25.7234    205.7316   1.0869048001e+02   2.7879957792e+01    0.2009549   0.06393617  42.45 0.0008993198    2.411    0.585
       127  -9.2111    194.8037    203.2190   7.1261707785e+01   4.0094964366e+00    0.2792127    0.2608723 -13.17  0.001040399    1.194    0.163
       128  -9.7021    192.5113    197.0310   7.0631439041e+01   5.3559119003e+00    0.3830856     0.287725 -62.83  0.001471353    2.011    0.503
       129  -8.8409    183.8194    203.6333   7.3439261870e+01   5.6162560291e+00    0.2583289    0.2035402  55.26  0.001221268    1.651    0.394
       130  -9.6489    163.8740    202.8699   7.7317353204e+01   8.8765255009e+00    0.4356878    0.2413695  51.98  0.001133728    2.279    0.561
       131  -8.5899    131.3010    203.8526   8.4445343000e+01   1.3906036460e+01    0.2484742     0.191613  71.10  0.001051239    1.612    0.380
       132  -9.1466    243.1222    200.4611   6.2382613831e+01  -2.3693322918e+00    0.3095795     0.161601 -37.65  0.001159676    1.831    0.454
       133  -8.5249    210.9297    201.6278   6.8024351512e+01   1.8740924798e+00    0.2165788    0.1583211 -52.51  0.000753206    1.883    0.469
       134  -8.9544    140.3512    200.8972   8.2005307527e+01   1.3023112394e+01     0.307554    0.2202553  88.74  0.001040556    2.214    0.548
       135  -8.5146     80.3073    201.2802   9.5773717455e+01   2.2176996507e+01    0.3171125     0.147235  58.42   0.00128987    2.564    0.610
       136  -8.0597     73.3327    202.1855   9.7505252025e+01   2.2946344986e+01    0.1794952    0.1149551 -85.11 0.0006427845    1.718    0.418
       137  -7.5081     41.3240    202.6444   1.0495984059e+02   2.6859992364e+01    0.1404968   0.07511117  62.74 0.0007045998    1.766    0.434
       138  -7.9896    222.1171    201.1039   6.5970459885e+01   3.6173672925e-01      0.15617    0.1349513 -33.62  0.001047414    1.351    0.260
       139  -9.3685    149.5146    198.3924   7.9617356425e+01   1.2009043420e+01    0.3922922    0.2776192  88.58  0.001565902    2.476    0.596
       140  -8.6784    123.8583    198.9930   8.5388234094e+01   1.6053185116e+01     0.266331    0.1898456 -89.67 0.0009762933    1.967    0.492
       141  -9.2737    112.9300    198.2285   8.7775177698e+01   1.7944454313e+01    0.4614516    0.2464889  63.39  0.001844152    2.885    0.653
       142  -9.4074    237.0507    198.0270   6.2936583777e+01  -1.2393303825e+00    0.2973508    0.1483655 -40.12  0.001526346    2.005    0.501
       143  -8.4326    176.9948    198.5484   7.3927532576e+01   7.5391362401e+00    0.2225183    0.1831556 -60.16   0.00064763    1.573    0.364
       144  -7.6430     99.6486    199.6795   9.1054689040e+01   1.9692127085e+01    0.1326172    0.1052414 -10.82 0.0007047888    1.746    0.427
       145  -9.0738     88.8656    198.1801   9.3389621871e+01   2.1618368252e+01    0.3916633    0.2430465  82.89  0.001297674    2.106    0.525
       146  -8.2319    202.1763    197.4595   6.8891355666e+01   3.8096033077e+00     0.186497     0.167237 -41.55 0.0006594249    1.348    0.258
       147  -9.2208     61.3183    196.6650   9.9749319703e+01   2.5755384045e+01    0.4374422    0.2173009  69.25  0.001887121    2.519    0.603
       148  -7.8609     29.3097    197.6506   1.0733155369e+02   2.9282463997e+01    0.1375357   0.07320677  63.19 0.0007044619    1.713    0.416
       149  -8.4816     12.5850    197.0204   1.1108352383e+02   3.1071162213e+01    0.2588852    0.1169324  74.70  0.001277405    2.104    0.525
       150  -8.6821    215.9103    195.4135   6.6054376152e+01   2.0895711275e+00    0.2164655    0.1633558 -48.34 0.0009157613    1.665    0.399
       151  -8.2327    133.2771    195.8712   8.2787060204e+01   1.5152098281e+01    0.2037641    0.1666386 -87.97 0.0007048773    1.531    0.347
       152  -7.9276     53.4969    196.4859   1.0158634775e+02   2.6782123819e+01    0.1328782    0.1083933  65.56 7.473835e-05    1.049    0.047
       153  -7.6862     36.2884    196.6301   1.0564109842e+02   2.8759644361e+01    0.1384121   0.07625618  65.21 0.0007022142    1.711    0.416
       154  -8.8294    224.7383    193.7827   6.4237436750e+01   1.0635323348e+00    0.3089218    0.1530917 -45.52  0.001517189    2.342    0.573
       155  -8.6913    185.2168    194.5669   7.1611086270e+01   6.9102473972e+00    0.2173113    0.1969053 -67.48 0.0007581823    1.472    0.321
       156  -8.4579    230.9866    194.2904   6.3276776966e+01   1.1350037364e-01    0.1675269    0.1399431  -1.87 0.0005108253    1.052    0.049
       157  -8.9086    160.8471    193.8623   7.6447658732e+01   1.0990932839e+01    0.2664978    0.2198793  73.68  0.001054307    1.642    0.391
       158  -9.0469     76.9901    193.5717   9.5655703570e+01   2.4333889245e+01    0.2426055    0.1720597  82.74 0.0006035959    1.508    0.337
       159  -8.8480     43.8734    193.0526   1.0355451372e+02   2.8708375726e+01    0.3907595    0.1685963  62.87  0.001649577    2.607    0.616
       160  -8.0507    156.5723    207.7722   7.9616083851e+01   9.1662091833e+00    0.1624961    0.1279671 -63.21 0.0007526455    1.620    0.383
       161  -8.4127    172.4469    191.7935   7.3680815087e+01   9.4558991058e+00    0.2378832    0.2035277  65.92 0.0009679299    1.519    0.342
       162  -8.1877    198.8720    191.2186   6.8400745903e+01   5.3166684827e+00    0.1772309    0.1723688 -18.73 0.0005985259    1.257    0.204
       163  -7.9175    178.8820    191.6111   7.2346189850e+01   8.4366297573e+00    0.1769982    0.1173217  45.71 0.0005606337    1.611    0.379
       164  -9.0931    139.3916    190.3658   8.0529362908e+01   1.5234171134e+01     0.291621    0.2318964 -87.06 0.0009529022    1.661    0.398
       165 -10.4978     92.6427    188.7188   9.1246494991e+01   2.3127168459e+01     1.041153    0.2663826  45.74  0.003250571    3.886    0.743
       166  -8.6103    148.7793    189.1424   7.8241329924e+01   1.3897439136e+01      0.20709    0.1842587  70.07   0.00120851    1.311    0.238
       167  -8.8917    129.3165    188.5777   8.2525185571e+01   1.7279470252e+01    0.2801068    0.2095481  71.90 0.0009828151    1.694    0.410
       168  -9.6053    120.7581    186.1307   8.4123783658e+01   1.9212914608e+01    0.5024449    0.2916062 -79.15  0.002004429    2.955    0.662
       169  -8.6162     34.1010    187.6949   1.0543495379e+02   3.1028241021e+01    0.3549957    0.1621273  75.69  0.001541835    2.525    0.604
       170  -8.2069    237.1085    188.3197   6.1207959846e+01   1.2528418528e-01    0.1616854    0.1369531  -8.64 0.0005020263    1.076    0.071
       171  -8.9558    216.4825    187.6175   6.4555448653e+01   3.1981675988e+00    0.2322277    0.2059458 -54.81 0.0009236821    1.529    0.346
       172  -8.7832    191.4829    187.1953   6.9077917380e+01   7.1558207073e+00    0.2774631    0.2109631 -67.43 0.0009940015    2.040    0.510
       173  -9.1347    156.0215    187.2796   7.6343237391e+01   1.3032341022e+01    0.3114524    0.2211949 -60.82 0.0009099249    1.733    0.423
       174  -9.1626     54.7592    186.8077   1.0031471035e+02   2.8827627335e+01    0.4220763    0.2175209  70.83  0.001734547    2.310    0.567
       175  -8.1639    230.6623    187.3413   6.2086596146e+01   1.1708784891e+00    0.1624516    0.1471484 -66.41 0.0006275448    1.705    0.413
       176  -8.9209    164.8973    186.5228   7.4317225118e+01   1.1673459099e+01    0.2916774    0.2253708 -66.67  0.001170484    1.713    0.416
       177  -9.2004    109.6390    185.8223   8.6719518772e+01   2.1099355844e+01    0.3796208    0.2574336  79.79  0.001250812    2.001    0.500
       178  -9.6514    248.8781    185.3421   5.8818230721e+01  -1.0488132815e+00    0.3110979    0.2245132  36.97  0.001563252    1.607    0.378
       179  -8.6338    202.8266    184.4971   6.6443052843e+01   5.7956679522e+00    0.2325025    0.1655782 -54.49 0.0007150991    1.840    0.457
       180  -8.7611    182.9214    184.6946   7.0297189666e+01   8.9863040118e+00    0.2443853    0.1890593 -46.16 0.0006859285    1.402    0.287
       181  -9.0856     66.8815    184.2102   9.7019520036e+01   2.7853750080e+01    0.4434946    0.2315455  62.70   0.00116986    2.202    0.546
       182  -8.8268    210.0728    183.7925   6.4992359358e+01   4.7762511251e+00    0.2352152    0.1675459 -28.81 0.0005649489    1.308    0.235
       183  -8.9063    174.2487    183.4309   7.1816848223e+01   1.0663072138e+01    0.2730681    0.2243184 -72.95 0.0007519164    1.684    0.406
       184  -8.4465    224.3099    183.2644   6.2407824841e+01   2.7028412505e+00    0.1896321     0.166201  13.01  0.000668829    1.155    0.134
       185  -8.9322     44.4223    182.2711   1.0241716449e+02   3.1131573979e+01    0.3486233    0.1830662  64.33 0.0009546944    1.977    0.494
       186  -8.1893      2.0409    183.6279   1.1275337880e+02   3.4988166945e+01    0.2251768   0.07932916  37.09  0.001081014    2.411    0.585
       187  -9.2044    147.6461    180.4993   7.6987414221e+01   1.5795544104e+01    0.3637819    0.2798654  86.69  0.001049191    1.868    0.465
       188  -8.0583     19.3523    182.6488   1.0860134254e+02   3.3691084764e+01    0.1427073   0.07164151  61.93 -0.0002935743    1.836    0.455
       189  -8.1474    235.2684    181.0251   6.0178650318e+01   1.4456187993e+00    0.1752447    0.1364517 -24.31 0.0005650521    1.119    0.106
       190  -9.3520     25.5614    178.5994   1.0678022731e+02   3.4032439897e+01    0.6469089    0.2323704  74.89  0.002176197    4.256    0.765
       191  -8.0022    240.4046    180.1974   5.9204371263e+01   8.3953456223e-01    0.1662764    0.1009775 -41.41 0.0008195667    1.665    0.399
       192  -8.7634    137.5892    178.9917   7.9002713009e+01   1.7849703028e+01    0.2995726    0.2238708  76.31  0.001160428    1.824    0.452
       193  -8.6246    250.5235    172.4908   5.6222174534e+01   5.4154240986e-01    0.2170549    0.1378647 -30.86 0.0006729662    1.322    0.243
       194  -9.3814    249.0045    177.1567   5.7312300541e+01   8.5004672291e-02    0.3113593    0.2297917 -42.75  0.001061572    1.516    0.340
       195  -8.7011    247.3011    173.6694   5.6927636575e+01   8.1954021485e-01    0.1911391    0.1439425 -40.99 0.0006107264    1.422    0.297
       196  -9.4495    191.4880    178.0707   6.7386582262e+01   8.7220873653e+00    0.2777892    0.2518826 -81.53 0.0006890774    1.503    0.334
       197  -8.6244    205.0628    177.5513   6.4734637016e+01   6.5853155604e+00    0.2398101    0.1733565 -50.43 0.0007469688    1.635    0.388
       198  -8.1135    169.2000    178.2126   7.1900709886e+01   1.2491821952e+01    0.1786308    0.1636332 -88.81 0.0004419752    1.367    0.268
       199  -8.6197    129.3858    177.2949   8.0619049544e+01   1.9627436411e+01     0.301955    0.2155899  78.72 0.0008723237    1.985    0.496
       200  -8.8838     36.0234    176.4529   1.0397329374e+02   3.3450923044e+01    0.5519632    0.2116464  71.35  0.001836556    4.191    0.761
       201  -8.4495    231.1291    176.7484   6.0059828514e+01   2.6859854556e+00    0.2152673    0.1501185 -40.11  0.001089719    1.438    0.305
       202  -8.5292    217.6638    177.0678   6.2394674696e+01   4.6729056139e+00     0.188662    0.1776389  41.69 0.0008576657    1.342    0.255
       203  -7.8841     97.7649    177.3687   8.8340597629e+01   2.4884334829e+01    0.1952198    0.1315592  25.71 0.0009318842    1.665    0.399
       204  -8.8116     89.2394    176.6975   9.0388765884e+01   2.6369633828e+01     0.300852    0.2019028  68.53 0.0008778618    1.699    0.411
       205  -9.9811     57.5718    173.2085   9.8084159205e+01   3.1673841544e+01    0.8937847    0.3873314  75.98   0.00271416    4.845    0.794
       206  -8.7035     12.9125    176.3486   1.0972985768e+02   3.5747823408e+01    0.2909925    0.1393217  78.49 0.0009141474    2.011    0.503
       207  -8.1073    211.6186    176.1452   6.3283987979e+01   5.7686341864e+00    0.1816597    0.1096729 -27.51 0.0005169001    1.629    0.386
       208  -9.2539    183.0857    175.5843   6.8564884556e+01   1.0582218323e+01    0.2932875     0.212631 -46.40 0.0008877441    1.455    0.313
       209  -9.1942    158.8253    174.8064   7.3479953201e+01   1.4963236771e+01     0.385056    0.2815185  81.97  0.001300543    2.242    0.554
       210  -9.3093    104.3961    174.7377   8.6268952369e+01   2.4412250077e+01    0.5378191     0.274056  59.37  0.001786628    2.705    0.630
       211 -10.6262     75.8550    170.0618   9.2886819779e+01   2.9928638356e+01     1.185628    0.4769755 -78.96  0.003526986    4.717    0.788
       212  -8.5407    224.2924    174.1650   6.0710666924e+01   4.1101214126e+00    0.1992511    0.1689467  78.81 0.0006604314    1.949    0.487
       213  -9.5083    175.8479    172.1292   6.9368662851e+01   1.2471344992e+01     0.326278    0.2421249 -44.61 0.0009936019    1.381    0.276
       214  -8.1857    142.9919    172.0729   7.6512452687e+01   1.8332318424e+01    0.2218861    0.1741736  80.55 0.0006366118    1.695    0.410
       215  -9.5052    121.3199    170.2723   8.1326520381e+01   2.2549419893e+01    0.3588316    0.2586284 -85.11 0.0009259676    1.838    0.456
       216  -8.9408     45.2587    170.9761   1.0104538404e+02   3.3721766661e+01    0.3691097    0.2025585  74.02  0.001452829    2.036    0.509
       217  -8.4981    205.9402    170.4197   6.3207625878e+01   7.6345902486e+00    0.2452952    0.1730108 -50.87 0.0007097924    1.655    0.396
       218  -8.3259    134.7138    171.2188   7.8281298340e+01   1.9986244638e+01    0.2160243    0.1808104 -78.90 0.0005902238    1.398    0.285
       219  -8.4098    237.1666    169.6076   5.7739741078e+01   2.8740975864e+00    0.2035637    0.1487209 -37.88 0.0006080884    1.318    0.242
       220  -9.0184    230.3391    169.9872   5.8911277440e+01   3.8382913322e+00    0.2192468    0.1351927 -36.53 0.0005550971    1.465    0.317
       221  -8.5118    198.6708    170.1156   6.4491869681e+01   8.8983718253e+00    0.2020915    0.1628594 -54.24 0.0008087466    1.485    0.327
       222  -8.5246    244.9757    169.1724   5.6441781607e+01   1.8028563441e+00    0.1931158    0.1786651  66.32  0.001051209    1.606    0.377
       223  -9.0478    167.1399    168.3507   7.0456372878e+01   1.4738486570e+01    0.3316849    0.2408181  70.90  0.001096925    2.072    0.517
       224  -8.5228    149.8460    169.1832   7.4409136047e+01   1.7696407487e+01    0.2180262    0.1919213  75.58 0.0008862629    1.334    0.250
       225  -8.1314     88.7417    168.5768   8.9293307690e+01   2.8343169665e+01    0.2438058    0.1692029  82.94  0.001067843    1.718    0.418
       226  -8.5445    218.8371    168.0992   6.0475655651e+01   5.9255006655e+00    0.1862182    0.1659517 -40.04 0.0005000901    1.252    0.201
       227  -8.5527    111.7809    167.1830   8.3150138917e+01   2.4889732532e+01    0.2946729    0.2036983  73.40 0.0009222642    1.883    0.469
       228  -8.9119    191.9200    166.6097   6.5087780687e+01   1.0669429447e+01    0.2470719    0.1873518 -45.58 0.0004766701    1.369    0.270
       229  -8.6321    185.0254    166.4806   6.6411127267e+01   1.1899570589e+01    0.2487339     0.184808 -54.69 0.0005963595    1.566    0.362
       230  -8.7127     20.6839    165.9201   1.0698526973e+02   3.7524513319e+01    0.4009189    0.1442619  61.05  0.001338143    3.245    0.692
       231  -9.6953    137.1230    164.4425   7.6446994153e+01   2.1000953424e+01    0.6528184    0.3079653  56.47  0.002066464    3.220    0.689
       232  -9.8778     94.9146    162.3954   8.6677242189e+01   2.8822483467e+01    0.8720801    0.4764463  76.14  0.002943231    3.648    0.726
       233  -7.6514    250.7529    165.0018   5.4786789078e+01   1.5894224411e+00    0.1585737   0.08667603 -33.91  0.000567606    1.538    0.350
       234  -8.5365    233.9619    164.9494   5.7358284502e+01   4.0650369833e+00    0.1913971     0.159441 -26.87 0.0005739749    1.093    0.085
       235  -8.6315    159.6186    164.2519   7.1276291706e+01   1.6914021034e+01    0.2773918    0.2253087  83.46  0.000824412    1.667    0.400
       236 -10.0365     33.5066    162.9956   1.0332466792e+02   3.6968344293e+01    0.5961213    0.2087136  53.74  0.002231307    3.143    0.682
       237  -8.3177     56.7175    163.7086   9.7136478017e+01   3.4086358812e+01    0.3359221    0.1828077   5.57  0.001194854    4.009    0.751
       238  -8.8437    246.0942    162.7151   5.5047281900e+01   2.5948302222e+00    0.2014311    0.1457699 -37.42 0.0004938255    1.287    0.223
       239  -8.7873    239.7784    162.9702   5.6060959404e+01   3.4895923336e+00    0.2063504    0.1711576 -83.89  0.001236229    2.076    0.518
       240  -8.4378    204.9257    162.4636   6.1825261963e+01   9.1580375418e+00    0.2460449    0.1739922 -51.21 0.0007077518    1.614    0.381
       241  -9.3761      3.3877    162.2228   1.1118274844e+02   3.9870623839e+01    0.4235944    0.1621117  56.73   0.00171126    2.493    0.599
       242  -8.7613    151.8731    161.0452   7.2365760884e+01   1.8998324837e+01    0.2863075    0.2077098 -72.85  0.001005118    1.879    0.468
       243  -8.9451    177.4965    160.4651   6.6723004374e+01   1.4373493242e+01    0.2687646    0.2403669 -81.98 0.0007529706    1.401    0.286
       244  -9.3563    243.2928    149.9335   5.2982499899e+01   4.9425563554e+00    0.3291552    0.2376482 -41.43  0.002004343    1.318    0.241
       245 -10.1332    249.6318    157.1706   5.3458893578e+01   2.9000302810e+00     0.413469    0.3474804  40.92  0.001932011    1.460    0.315
       246  -8.4240    242.2886    159.6833   5.5040593588e+01   3.6114047460e+00    0.2050378    0.1391541  14.83 0.0004496139    1.728    0.421
       247  -8.2515    242.8331    154.6053   5.3969977317e+01   4.2997652214e+00    0.1827004    0.1602253 -47.57 0.0004493669    1.342    0.255
       248  -9.1582    238.5105    151.4830   5.4010072425e+01   5.4471209821e+00    0.3703179    0.2645616 -66.33  0.001971786    2.316    0.568
       249  -8.6937    227.5558    158.9666   5.7224465166e+01   6.0013736474e+00    0.2603607    0.1725316 -50.89  0.001021833    1.783    0.439
       250  -9.3393    167.5508    157.0789   6.8111287474e+01   1.6870576376e+01    0.3407051    0.2892864 -82.84  0.001004579    1.510    0.338
       251  -8.5570     60.3464    159.6307   9.5605407336e+01   3.4616311334e+01    0.3200187    0.1830719  76.82  0.001265631    2.197    0.545
       252  -8.2240    128.2998    158.5058   7.7432852967e+01   2.3910107491e+01    0.2519551    0.1778059 -76.47 0.0009525777    1.855    0.461
       253  -9.5522    105.8170    157.8238   8.3013585239e+01   2.8074033331e+01    0.4625709    0.2963719  73.08  0.001198154    2.224    0.550
       254  -8.2523    237.0032    158.3207   5.5590077878e+01   4.6222149052e+00    0.1715166    0.1502845 -10.47  0.000685953    1.072    0.067
       255  -8.6038    196.7590    157.7134   6.2376719583e+01   1.1408563079e+01    0.2676648    0.1781873 -50.27  0.001031786    1.644    0.392
       256  -8.6356    188.3129    157.4017   6.3932548322e+01   1.2978063555e+01    0.2614264    0.1615881 -44.46 0.0006241906    1.599    0.375
       257  -8.3911     79.0624    158.1613   9.0244527526e+01   3.2327655945e+01    0.2685785    0.1741343  16.82  0.001033126    2.094    0.522
       258  -9.4221     82.0045    154.7605   8.8885097116e+01   3.2709031077e+01    0.5774872    0.3107875  65.94  0.001866977    2.711    0.631
       259  -8.5473    217.9861    156.4353   5.8314773266e+01   7.9736989282e+00    0.2496118    0.1646393 -49.69 0.0006928453    1.692    0.409
       260  -8.4683    157.8209    156.1548   7.0041421707e+01   1.8887969759e+01    0.2173946    0.1990363  87.77 0.0008504818    1.260    0.207
       261  -9.3252    119.5432    154.7625   7.8895296428e+01   2.6351510429e+01    0.4364532    0.2934256 -87.20  0.001325186    2.230    0.551
       262  -9.0292     49.8346    155.1001   9.7926474216e+01   3.7074408553e+01    0.4425846    0.2060831  59.18  0.001762374    2.581    0.612
       263  -8.5433    213.0006    163.3961   6.0567381721e+01   7.6449462503e+00    0.2351497    0.1682188 -48.00 0.0003873471    1.528    0.345
       264  -8.0350    204.6406    154.8304   6.0331583795e+01   1.0528118731e+01    0.1893331    0.1170261 -47.28  0.000627172    1.678    0.404
       265  -8.4968    144.4533    154.7143   7.2796518498e+01   2.1721438333e+01    0.2725199    0.2242953  74.04 0.0007682319    1.463    0.316
       266  -9.7147    132.6599    152.6353   7.5197625576e+01   2.4402161031e+01    0.4511498     0.350594  79.63  0.001176695    1.638    0.390
       267  -9.1880    133.3154    148.3441   7.4154460765e+01   2.5228991546e+01     0.311052    0.2468408 -14.83 0.0009982161    1.590    0.371
       268  -9.1985     68.0243    153.3671   9.2559994006e+01   3.5117976525e+01    0.4426998    0.2564182  70.09  0.001416225    2.221    0.550
       269  -9.7597     29.3215    150.3950   1.0316442392e+02   4.0512134424e+01    0.5238948     0.222936  67.04  0.001978808    3.120    0.680
       270  -9.1883     19.9507    152.1873   1.0597426290e+02   4.0947837956e+01    0.2136515    0.1479628  69.70  0.001171018    1.337    0.252
       271  -8.8623      3.0018    150.4636   1.1048746463e+02   4.2732523436e+01    0.3106872     0.135304 -86.86  0.001451408    2.036    0.509
       272  -8.7644    189.3193    149.8843   6.2171168591e+01   1.4180920996e+01    0.2982308    0.2013146 -58.35 0.0008924501    1.851    0.460
       273  -8.0642    182.3221    150.8454   6.3752475196e+01   1.5306173613e+01    0.2166732    0.1700648 -58.75 0.0006237602    1.474    0.322
       274  -8.6060     98.2060    150.5214   8.3699654866e+01   3.1107783099e+01    0.2855208    0.2208936  82.89 0.0007371918    1.480    0.324
       275  -9.5039    248.9138    149.1300   5.2001163179e+01   4.2066371335e+00    0.2910072    0.1522098 -35.98 0.0007519329    1.599    0.375
       276  -8.2030    212.9942    149.5282   5.7761352717e+01   9.9838984439e+00    0.1990363    0.1630758 -33.04  0.000404982    1.110    0.099
       277  -8.2650    162.4180    150.2589   6.7796781602e+01   1.9211240961e+01    0.1982015    0.1372594 -55.80 0.0006305649    1.593    0.372
       278  -8.5615    198.7993    148.8332   6.0154520735e+01   1.2630595102e+01    0.2378939    0.1808197 -57.41 0.0006137272    1.556    0.357
       279 -10.1326    106.9455    144.0541   8.0080398095e+01   3.1124679985e+01    0.8715931    0.5427528  84.13  0.002665112    2.792    0.642
       280  -9.9739     89.3317    146.1991   8.5348331052e+01   3.3636769552e+01    0.6960046    0.3913971  89.97  0.002426053    3.247    0.692
       281  -9.7560     39.8548    147.6863   9.9829833673e+01   4.0089736011e+01    0.5847465    0.2636027  62.43  0.002009849    2.862    0.651
       282  -9.1571    233.4108    147.5310   5.4004714334e+01   6.8806605945e+00    0.2361004    0.1681187 -36.22 0.0006772089    1.232    0.188
       283 -10.2915     54.8885    144.4484   9.4993078518e+01   3.9118483529e+01    0.7987564    0.3809669  71.74  0.002691571    3.668    0.727
       284  -9.3735     54.0173    136.5102   9.4033659882e+01   4.1240467327e+01    0.5739269    0.3173596  -7.40    0.0018614    4.701    0.787
       285  -8.2246    223.1851    146.8117   5.5488187309e+01   8.6912013571e+00     0.186563    0.1676919 -43.16 0.0004354818    1.190    0.160
       286 -10.3092    149.2037    144.8011   6.9603491193e+01   2.2917124677e+01    0.5900528    0.4047389  89.34  0.001969765    2.531    0.605
       287  -9.5594    139.3796    145.0580   7.1982898215e+01   2.4783642791e+01    0.4580472    0.2998443 -79.78  0.001301222    2.548    0.608
       288  -8.7858     78.0995    146.6738   8.8612115213e+01   3.5299555538e+01    0.3245439    0.2061898  80.78 0.0009780851    2.079    0.519
       289  -9.0119     13.3557    145.9734   1.0725700911e+02   4.3046689377e+01    0.3356383    0.1623366  71.90  0.001405481    2.200    0.545
       290 -10.1772    241.7586    143.2285   5.1873284484e+01   6.2159963125e+00    0.5623452    0.2924719 -16.79  0.002389356    2.914    0.657
       291  -9.6003    241.4910    136.6774   5.0586357594e+01   7.2785134289e+00    0.3955219    0.1108023 -35.66  0.001441863    3.167    0.684
       292  -7.9117    175.7812    145.9991   6.4046037324e+01   1.7481043620e+01    0.2219033    0.1613122 -68.88 0.0005892828    1.884    0.469
       293  -8.9808    247.0753    143.6524   5.1184185789e+01   5.3165478517e+00    0.2334973    0.1518886 -29.24 0.0003037162    1.317    0.240
       294  -8.1398    250.4662    140.5086   5.0078223584e+01   5.2689289505e+00    0.1721764    0.1402123 -27.25  0.001125826    1.007    0.007
       295  -8.7648    165.9125    143.9594   6.5682565303e+01   1.9805722489e+01    0.2817338    0.2237637 -84.31 0.0008814868    1.708    0.414
       296  -9.7234    124.9612    142.4703   7.5012127693e+01   2.8147388203e+01    0.5343043    0.3527959 -79.59  0.001655713    2.264    0.558
       297  -9.4169      2.7821    141.5026   1.0988280627e+02   4.4939089357e+01       0.4024    0.1694462  63.91  0.001771698    2.527    0.604
       298  -8.3144    182.1222    141.6090   6.1805964484e+01   1.7102543827e+01    0.2432544    0.1855362 -50.38 0.0005774371    1.347    0.257
       299 -10.5576     69.7766    140.9782   9.0045096688e+01   3.7961836743e+01    0.6027426    0.3703891  82.02  0.002555354    2.174    0.540
       300  -9.5920     68.9779    134.5078   8.9143229394e+01   3.9705835694e+01    0.5051893    0.3187695  -8.28  0.001951736    3.051    0.672
       301  -8.1251    206.8651    146.1169   5.8121995908e+01   1.1654334364e+01    0.1996243    0.1742384 -52.13 0.0006256863    1.256    0.204
       302  -9.9702     23.5963    137.9072   1.0346015718e+02   4.4189079887e+01    0.5402017    0.2407927  67.14  0.001813527    2.872    0.652
       303  -7.9558    218.4581    138.2489   5.4477419104e+01   1.0938081330e+01     0.186139    0.1151678 -46.84 0.0008359745    1.604    0.376
       304  -8.3239    207.4008    137.7345   5.6241397903e+01   1.3024646498e+01    0.2289599    0.1962034 -55.94 0.0006981794    1.285    0.222
       305  -8.6236    197.6200    137.3385   5.7904535009e+01   1.4924136694e+01    0.2579788    0.1879245 -58.68  0.000765763    1.623    0.384
       306  -8.3228    172.1638    137.7430   6.2981605504e+01   1.9811337546e+01    0.2600119    0.1873737 -55.32 0.0008599104    1.503    0.335
       307  -9.3925    139.3152    137.5180   7.0349772053e+01   2.6448574704e+01    0.3373297    0.2487134   0.85  0.001327277    1.988    0.497
       308  -8.9156    150.9963    136.0950   6.7261571014e+01   2.4408044995e+01    0.4289306    0.2497775  20.86  0.001547689    2.946    0.661
       309 -10.3848     83.3652    133.0201   8.4547012430e+01   3.7859222061e+01    0.6243815    0.3933604 -63.51  0.001886252    1.580    0.367
       310  -8.8447    250.8038    129.7993   4.7883443175e+01   6.8386876859e+00     0.371536   0.09990072 -34.59  0.001336847    3.352    0.702
       311  -9.2615    248.5356    134.8596   4.9216675899e+01   6.4285350759e+00    0.2889861    0.1681147 -41.31 0.0009796238    1.495    0.331
       312  -9.0079    246.9825    129.9987   4.8446287042e+01   7.4222957701e+00    0.2302123    0.1452783 -42.28 0.0006590711    1.395    0.283
       313  -7.4365    192.3107    136.6696   5.8744218270e+01   1.6061885406e+01     0.140443    0.1113354 -73.66 0.0004600465    1.669    0.401
       314  -8.1742    162.6753    136.1305   6.4645533852e+01   2.2039168462e+01    0.2302796    0.1774522 -60.88 0.0006233228    1.449    0.310
       315  -9.3405     39.1121    135.2949   9.8417475381e+01   4.3308613971e+01    0.4045002    0.2212965  89.88  0.001422691    2.077    0.519
       316  -8.0885    187.9969    135.2166   5.9242672217e+01   1.7169948253e+01    0.2088974    0.1479792 -57.24 0.0005374274    1.615    0.381
       317  -7.9421    231.2460    133.9848   5.1553760276e+01   9.4153397337e+00    0.1718857   0.09753777 -36.99 0.0003438641    1.523    0.343
       318  -8.5949    179.5517    133.7804   6.0578227000e+01   1.9112599663e+01    0.2748401    0.2084448 -66.12  0.000719376    1.627    0.385
       319  -8.9205    112.7034    132.8708   7.6163150815e+01   3.2705856861e+01    0.3430884     0.258454  80.58   0.00095539    1.680    0.405
       320  -8.0618    237.4308    133.2496   5.0475636689e+01   8.4870701891e+00    0.1838196    0.1049348 -44.64 0.0005866656    1.632    0.387
       321 -10.1318    132.2992    130.8746   7.0579132277e+01   2.9326343976e+01    0.6131589    0.3793239 -67.19  0.001262828    2.158    0.537
       322 -10.2979     98.0214    129.8208   7.9600727602e+01   3.6140183925e+01    0.7038345    0.3078926 -55.82  0.001922703    2.273    0.560
       323  -9.8144     73.2924    128.9639   8.6787169295e+01   4.0457821277e+01    0.4718349    0.2845074 -78.23  0.001410073    1.995    0.499
       324 -10.0358     12.7394    128.3672   1.0573310817e+02   4.7492162207e+01     0.603606    0.2624915  82.16  0.002445324    2.742    0.635
       325  -7.9700    204.6263    129.8647   5.5004867757e+01   1.4932852053e+01    0.2015077    0.1178148 -47.93 0.0009049667    1.706    0.414
       326  -8.0420    192.9773    130.0260   5.7137467959e+01   1.7159419135e+01    0.2161793    0.1687554 -70.80 0.0004670122    1.640    0.390
       327  -9.3753    168.3615    129.2419   6.1842941808e+01   2.2273927040e+01    0.3127712    0.2377143 -68.31 0.0004644369    1.615    0.381
       328  -9.3430    152.8513    129.0085   6.5203355846e+01   2.5524947854e+01    0.4093216    0.2572365 -59.54 0.0009769655    1.877    0.467
       329  -8.1158      1.7924    130.3672   1.0926891955e+02   4.7753288045e+01    0.1510176    0.1218307  -5.86 0.0006958693    1.617    0.382
       330  -7.5104    220.5274    129.5676   5.2287008617e+01   1.2029916240e+01    0.1336742    0.1186131 -35.12 0.0001193633    1.039    0.037
       331  -8.1970    211.6634    129.0918   5.3632425457e+01   1.3740508766e+01    0.2174577    0.1535264 -52.11 0.0006675282    1.491    0.329
       332 -10.7966     44.9797    123.3095   9.4736900211e+01   4.5705285359e+01     1.195071    0.5714942  75.33  0.003863354    4.115    0.757
       333 -10.3960     60.0613    124.7147   9.0120359493e+01   4.3441443170e+01    0.7609714    0.4324622  76.49  0.002530707    2.722    0.633
       334  -9.7096    118.0071    125.0653   7.2952599875e+01   3.3499792039e+01    0.5394399    0.3541671  80.87  0.001441274    2.532    0.605
       335  -7.9260    228.5641    124.8455   5.0025909672e+01   1.1370897613e+01    0.1891903    0.1088095 -46.13 0.0009339835    1.644    0.392
       336  -8.8200    179.3112    124.5303   5.8499488740e+01   2.0946576331e+01    0.2865414    0.2340277 -71.92 0.0008173975    1.459    0.315
       337 -10.1147     28.6049    122.1757   9.9910656773e+01   4.7717367379e+01    0.7421545    0.3443533  71.84  0.002745496    3.285    0.696
       338  -8.1285    188.5949    123.8010   5.6535559050e+01   1.9189650011e+01    0.2031104    0.1271172 -50.04 0.0005560131    1.623    0.384
       339 -10.1171    128.8960    100.9679   6.3964911503e+01   3.6621974777e+01    0.6308709    0.3875991 -37.85  0.001773233    1.713    0.416
       340  -8.5492    135.4285    122.7258   6.7872716329e+01   3.0495065430e+01    0.4712561    0.1843767 -51.38  0.001580163    2.706    0.630
       341  -9.5371    130.7437    118.2370   6.7959871941e+01   3.2460654002e+01    0.4958158    0.2925643 -65.65  0.001220469    2.329    0.571
       342 -10.1143    133.6313    108.7378   6.4819019822e+01   3.3927823533e+01    0.7341785    0.3370238 -42.58  0.002686437    2.186    0.542
       343  -8.6960     85.9002    122.1143   8.1508246572e+01   4.0133512649e+01    0.5233442    0.2564201  22.67  0.001769925    3.280    0.695
       344  -8.4578    171.9393    121.3241   5.9231559507e+01   2.3102792541e+01    0.2460675    0.1949573 -52.84 0.0004146342    1.271    0.213
       345  -9.4437    158.5835    121.3300   6.2084236673e+01   2.5920331393e+01    0.3460478    0.2632436 -79.96  0.001041835    1.738    0.425
       346 -10.1827    141.6430    117.9769   6.5184442152e+01   3.0223718418e+01    0.6193414    0.3345443 -55.05  0.001542621    2.053    0.513
       347  -9.6111     71.1889    118.9133   8.5414547135e+01   4.3297271866e+01    0.5150325     0.312084 -65.10  0.001681224    1.642    0.391
       348  -9.3310    143.1955    131.3431   6.8009515434e+01   2.7012279152e+01    0.3597078    0.2524346 -66.59 0.0009077504    1.737    0.424
       349  -9.7600      3.2466    117.1545   1.0759236556e+02   5.0947123117e+01    0.5667847    0.2352379  63.68  0.002332171    2.983    0.665
       350  -7.7920    231.5115    117.4793   4.8007354101e+01   1.2041540742e+01    0.1333935    0.1131405 -43.37 0.0008087613    1.086    0.079
       351  -9.8945    109.5371    114.1911   7.2672502880e+01   3.7690330798e+01    0.5457689    0.3578069 -80.36  0.001420332    2.335    0.572
       352  -8.0317    185.6205    115.7844   5.5213434375e+01   2.1300080853e+01    0.2057994    0.1271096 -49.12 0.0004707311    1.606    0.377
       353  -8.8847     58.7879    115.0817   8.8674203328e+01   4.6051765716e+01    0.3236728    0.2275047 -23.42    0.0015188    1.911    0.477
       354  -8.5979    250.0613    114.6722   4.4883930758e+01   9.2627325712e+00    0.1622268    0.1561312 -29.58  0.001132479    1.172    0.147
       355  -8.2625    193.0712    115.0616   5.3670392725e+01   1.9889985534e+01    0.2206636    0.1650649 -66.35 0.0004509311    1.605    0.377
       356  -9.2517    174.4387    112.8917   5.6684609740e+01   2.4216248762e+01    0.4908759    0.2443225 -33.25    0.0019088    2.214    0.548
       357  -8.8883     93.3278    104.3625   7.4989699710e+01   4.3095824632e+01    0.4717318    0.2937349  12.57  0.001741011    2.883    0.653
       358  -9.9496     78.8728    112.1988   8.1472231726e+01   4.3743977171e+01    0.5658782    0.3672708 -89.81  0.001623571    2.286    0.563
       359  -8.0590    167.0662    114.2516   5.8527525008e+01   2.5534850767e+01    0.2059317    0.2000637  59.62 0.0007935521    1.069    0.064
       360 -10.2716    121.9585    111.5617   6.8582465543e+01   3.5776169382e+01    0.5948804    0.3403268 -50.20  0.001206663    1.736    0.424
       361  -8.5936    159.1329    111.5892   5.9560627448e+01   2.7785562831e+01    0.2624481    0.1963282 -53.46 0.0005489482    1.352    0.260
       362 -10.3047     66.3297    109.6467   8.5004739907e+01   4.6338740093e+01    0.6285359    0.3603483 -67.99  0.002083656    1.856    0.461
       363  -9.7481     14.2579    110.7232   1.0316713257e+02   5.1819867033e+01    0.4280382    0.2175598  77.21  0.001883851    2.404    0.584
       364 -10.1443    248.7823    107.7642   4.3608116734e+01   1.0531024730e+01    0.3774778    0.2434281 -52.65  0.001887305    1.561    0.359
       365 -10.1264    249.4307    103.0093   4.2530423761e+01   1.1140691423e+01     0.326428    0.2404168 -36.49  0.002004438    1.127    0.113
       366  -7.9468    150.0000    109.9501   6.1190827927e+01   3.0114439910e+01    0.2535872   0.08518481 -43.25 0.0006441021    2.904    0.656
       367  -7.8042    182.9960    109.2270   5.4126253870e+01   2.3079875557e+01    0.2147378    0.1469778 -57.95 0.0004516269    1.613    0.380
       368  -8.1554    189.4523    107.9313   5.2620743452e+01   2.1946579291e+01    0.2202098    0.1322762 -42.75 0.0008266247    1.544    0.352
       369  -9.0669    109.2510    107.5901   7.1080616113e+01   3.9269220681e+01    0.3267804    0.2403392  12.11  0.001429093    1.925    0.481
       370 -10.5168     45.6629    102.1087   9.0569827615e+01   5.0989818568e+01    0.8729657    0.4760198  70.58  0.003291585    3.139    0.681
       371  -8.9415     45.6435     92.5522   8.8495995448e+01   5.3355335771e+01    0.4337714    0.2301911  12.73   0.00177637    2.724    0.633
       372 -10.6539     23.0243    102.4485   9.8855551057e+01   5.3208700071e+01    0.7927055    0.4058699  70.52  0.002432734    2.823    0.646
       373  -9.5735    150.6397    102.9814   5.9236513491e+01   3.1399145406e+01    0.4781424    0.2752863 -60.82  0.001244231    2.269    0.559
       374  -9.4174    139.9902    103.9702   6.1995488211e+01   3.3556421235e+01    0.5030946    0.2704157 -53.93  0.001403443    2.044    0.511
       375  -9.2262     78.7872    104.2922   7.9612221784e+01   4.5683273870e+01    0.3353472    0.2741344  18.99  0.001215834    1.411    0.291
       376  -8.5886    166.7541    103.7942   5.5965065217e+01   2.7651975658e+01    0.2988437    0.1912778 -51.01 0.0006858826    1.576    0.366
       377  -9.3262      6.8099    102.6068   1.0473269022e+02   5.4352728552e+01    0.3125142    0.1873901  77.01  0.001010746    1.800    0.445
       378 -10.1895     92.7066    112.0829   7.7112529413e+01   4.1376955555e+01    0.7256859    0.3826312 -68.90  0.001349049    2.703    0.630
       379 -10.5822    108.9752     98.6235   6.8769325386e+01   4.1352670327e+01    0.7851416    0.4549394  67.82  0.001421476    2.905    0.656
       380  -8.9839    108.2798     92.2698   6.7192882062e+01   4.2898086456e+01    0.5804245    0.3067159  30.29  0.002107554    2.636    0.621
       381  -8.0761    159.7763    100.7705   5.6644382979e+01   2.9796699390e+01    0.2077393    0.1704213 -69.66 0.0004543496    1.339    0.253
       382  -9.3948     82.1810    100.0280   7.7421230385e+01   4.6125093052e+01    0.3577811    0.2516986 -76.31 0.0008737919    1.761    0.432
       383 -10.2265     63.9312     95.9127   8.2602806272e+01   5.0064416725e+01     0.703436    0.4134289 -79.09  0.001619888    2.522    0.604
       384  -9.2104     64.4469     87.8527   8.0330147353e+01   5.1908892022e+01    0.3292916    0.2114148   1.23  0.001358211    2.536    0.606
       385  -9.1414     95.1080     96.9709   7.2475153384e+01   4.4476084647e+01    0.3249363    0.2501822 -67.96  0.000517161    1.433    0.302
       386  -8.5651    151.0824     95.2151   5.7061680539e+01   3.2852560304e+01    0.3080558    0.1984845 -14.17  0.001171934    2.609    0.617
       387  -8.2030    164.9530     93.9583   5.3770539441e+01   2.9939412558e+01    0.2345769    0.1760872 -73.36 0.0004871597    1.605    0.377
       388  -9.7490    247.1165     92.8118   4.0651109887e+01   1.3085403446e+01    0.2240977    0.1792984  28.60  0.001378412    1.653    0.395
       389  -8.2534    176.7029     92.9198   5.1207830093e+01   2.7474354772e+01     0.243941    0.1551942 -61.78  0.000801471    1.890    0.471
       390  -9.6269    139.0662     91.6235   5.8850756016e+01   3.6298710375e+01    0.5636225    0.3117348 -50.78  0.001161658    1.881    0.468
       391 -10.1399    123.8837     90.7730   6.2433556804e+01   3.9873393070e+01    0.6015769    0.5233758  -3.51  0.001820276    1.376    0.273
       392  -9.5024      5.4823     92.0196   1.0380787476e+02   5.7048631085e+01    0.3560553    0.1950783  52.76  0.001434545    2.154    0.536
       393  -9.5976     34.9399     89.7991   9.1985879729e+01   5.5232570555e+01    0.4725573    0.2700159  89.63  0.001717496    2.542    0.607
       394  -9.0885     22.8259     89.8207   9.6725096152e+01   5.6364404619e+01    0.3279982     0.226984 -42.34  0.001201578    1.415    0.293
       395  -8.0117    151.1390     89.1182   5.5377086941e+01   3.4028176135e+01    0.2115966    0.1743844 -68.99 0.0005129076    1.308    0.235
       396 -10.0251     86.4892     85.8727   7.2100826562e+01   4.8615578605e+01    0.6421551     0.397756 -60.80  0.001686775    1.826    0.452
       397  -7.6009    188.3066     87.2786   4.7692778983e+01   2.5878898075e+01    0.1366566    0.1138396  13.45 0.0002818026    1.553    0.356
       398  -7.8367    164.3367     87.0796   5.2050468969e+01   3.1364927258e+01    0.2241652    0.1256624 -49.34 0.0006145137    1.797    0.444
       399  -9.7520     48.7005     83.4457   8.5106823225e+01   5.5169224907e+01     0.686125    0.4350975 -67.43  0.002482055    1.656    0.396
       400  -8.2483    158.0181     83.5602   5.2366616193e+01   3.3480583405e+01    0.2372248    0.1871412 -43.81 0.0004967042    1.229    0.186
       401  -9.7006    104.8132     82.8772   6.5452485318e+01   4.5635403691e+01    0.4205008    0.2994481 -68.08 0.0008907247    1.753    0.429
       402  -8.9577    104.8139     77.3891   6.3764635475e+01   4.6774475031e+01    0.4107285    0.2586896  18.67  0.001566884    2.661    0.624
       403  -8.1039    157.8324     91.5777   5.4607732560e+01   3.2017538105e+01    0.2055346    0.1446464  69.40 0.0003889929    1.648    0.393
       404  -9.1268    140.7997     82.7115   5.5899210149e+01   3.7653032229e+01     0.297993    0.1983924 -54.01 0.0006566965    1.584    0.369
       405  -9.5201     10.1295     81.0058   1.0022859548e+02   5.9450891346e+01    0.4265508    0.2176234  58.12  0.001657224    2.709    0.631
       406  -8.5258     64.1678     82.2407   7.8881837435e+01   5.3257792373e+01    0.1954401    0.1677502  89.89 0.0005820272    1.361    0.265
       407  -9.6778     24.8773     80.4380   9.4007322154e+01   5.8470656280e+01    0.4801937    0.2932185  76.28  0.001413714    2.365    0.577
       408  -8.3836    150.1680     80.2316   5.3084079190e+01   3.5933392418e+01    0.2842336     0.181289 -62.71  0.000621016    1.934    0.483
       409  -8.6899    119.3962     80.0422   6.0463510015e+01   4.3061493305e+01    0.3220096    0.2188963 -61.14 0.0008493068    1.728    0.421
       410  -9.0461     74.6109     79.4133   7.4256266191e+01   5.2187673371e+01    0.5525086    0.2596126 -53.71  0.002074934    2.154    0.536
       411  -7.4983    188.6896     93.3618   4.9164320598e+01   2.4730150639e+01    0.1540906    0.1064639 -67.11 0.0007040707    1.747    0.427
       412  -8.4201    166.8602     79.2005   4.9406674038e+01   3.2201487476e+01    0.2250364    0.1905647 -66.07  0.000545143    1.192    0.161
       413  -7.6223    184.2804     78.3267   4.6060552033e+01   2.8319276329e+01    0.1384884    0.1147978   6.95 0.0003189136    1.597    0.374
       414  -7.7357    157.3460     76.2316   5.0442514394e+01   3.4967937803e+01    0.2118035    0.1288912 -48.27 0.0003873225    1.632    0.387
       415  -9.3088    128.1791     75.0410   5.6655960761e+01   4.2042396407e+01    0.3843424    0.2432512 -55.71 0.0006300401    1.771    0.435
       416  -8.5377    140.7663     75.1389   5.3680932952e+01   3.9086165069e+01    0.2357607    0.1962502 -69.38 0.0006059827    1.288    0.224
       417  -9.7902     82.5253     72.3319   6.9275683938e+01   5.2293055080e+01    0.5101012    0.3120356 -65.39  0.001048778    2.288    0.563
       418 -10.1315     63.1182     73.2102   7.6609777675e+01   5.5459599491e+01    0.6268231    0.2800578 -57.53  0.001252444    2.464    0.594
       419  -8.6299     65.6397     62.1828   7.2052369135e+01   5.7404802514e+01    0.4735718    0.2789214   8.74  0.001694447    3.191    0.687
       420  -8.2351    163.4981     73.0938   4.8347824762e+01   3.4060934814e+01    0.2238536    0.1396803 -41.39 0.0008447521    1.543    0.352
       421  -7.3807    151.6513     73.3113   5.0770078892e+01   3.6838575834e+01    0.1578302    0.1141574 -76.40 0.0007045579    1.715    0.417
       422  -8.5172    115.6213     72.7824   5.9234058627e+01   4.5333113868e+01    0.2627566     0.183998 -50.86 0.0004605066    1.475    0.322
       423  -8.3156     42.8542     72.7434   8.4592982513e+01   5.8399133827e+01    0.2443607     0.174193  89.53 0.0006884342    1.967    0.492
       424  -7.6851    175.5334     72.4925   4.5994590041e+01   3.1324955019e+01    0.1447343    0.1362257 -62.87 0.0008095755    1.024    0.023
       425  -9.2457     95.2015     70.9922   6.4661101596e+01   5.0077398606e+01    0.3917423    0.2422394 -59.39  0.001064497    1.990    0.497
       426  -9.4758     51.5784     69.3918   8.0007344986e+01   5.8017145548e+01    0.4518314     0.263251 -72.38  0.001304499    2.558    0.609
       427  -9.1023     29.9495     69.8830   8.9338670599e+01   6.0486892157e+01    0.4653969     0.240236 -13.03  0.001830897    3.320    0.699
       428  -9.0332    105.7019     71.6453   6.1677483688e+01   4.7737063756e+01    0.2850445    0.2546457 -78.52 0.0007791005    1.237    0.192
       429  -8.9732     16.4722     69.6788   9.5253319403e+01   6.1708433051e+01    0.2575752    0.1975612  83.03  0.001015843    1.544    0.353
       430  -8.6259    147.0764     67.9761   5.0153999838e+01   3.8868466038e+01     0.300026     0.202278 -48.88  0.000699233    1.488    0.328
       431  -7.4586    203.3020     66.6710   4.0192268687e+01   2.5908751977e+01    0.1465063   0.09509351 -63.35 0.0003410249    1.647    0.393
       432  -8.6406    138.6388     65.8951   5.1356424343e+01   4.1250217787e+01    0.2919427    0.2088287 -65.04 0.0009436223    1.633    0.388
       433  -8.6989    121.6500     65.7873   5.5397265482e+01   4.5271436270e+01    0.2901026    0.2151186 -70.39 0.0007946612    1.674    0.402
       434  -8.6028     85.4712     64.0911   6.5527176598e+01   5.3405435467e+01    0.4122748    0.2274086  18.34  0.001336812    3.950    0.747
       435  -8.8867     37.5895     64.1758   8.4384590218e+01   6.0961390751e+01    0.2841566    0.2181032  87.66  0.001090399    1.772    0.436
       436  -8.8702    110.0723     63.2383   5.7657311832e+01   4.8374254949e+01    0.3030059    0.2082553 -47.27 0.0007684065    1.492    0.330
       437  -8.5235     18.1013     62.7202   9.2859231504e+01   6.3190406057e+01    0.2802776    0.1348237 -19.87  0.001165766    3.032    0.670
       438  -8.0436    158.4035     61.5478   4.5990876693e+01   3.7218924475e+01    0.1474122    0.1334161 -69.76 0.0001147682    1.066    0.062
       439  -9.2951     97.6536     60.2181   6.0260512880e+01   5.1647900884e+01    0.3001946    0.2821469  63.65 0.0008234358    1.108    0.098
       440  -9.6947     73.4167     59.4331   6.8154294739e+01   5.6601880149e+01    0.3963538    0.2483182 -54.87  0.001031887    1.795    0.443
       441  -8.7150    146.0141     58.4311   4.7474051664e+01   4.0731368510e+01    0.3298875    0.2239556  89.29  0.001469289    1.896    0.473
       442  -8.3750     88.7903     59.2249   6.2724980812e+01   5.3679950994e+01    0.2269428    0.1802652 -64.58 0.0006973626    1.505    0.335
       443  -8.3925    130.7169     57.5453   5.0513829951e+01   4.4570747497e+01    0.2510417    0.1689377 -58.74 0.0006416987    1.714    0.416
       444  -9.9611     23.5226     56.2493   8.8533279028e+01   6.4176674121e+01    0.4421406    0.2879221  83.74  0.001943288    2.565    0.610
       445  -9.5330      7.4645     57.0695   9.6561586711e+01   6.5217484962e+01    0.3163129    0.2222405  87.04  0.001071494    1.758    0.431
       446  -8.2599    140.0990     55.9171   4.7917684738e+01   4.2575287902e+01    0.2290464    0.1893191 -68.49 0.0005228225    1.280    0.219
       447  -9.3406    118.9829     55.6316   5.2716902855e+01   4.7670300251e+01    0.2985092    0.2376051 -71.33 0.0007764489    1.472    0.321
       448  -8.8684     44.0485     55.2911   7.8668160083e+01   6.2077380352e+01    0.2830302    0.1806647 -59.62  0.001057427    1.709    0.415
       449  -9.0520     62.9202     54.4804   7.0392508043e+01   5.9406208132e+01     0.288837    0.1966841 -55.87 0.0006537189    1.651    0.394
       450  -8.9863     54.1697     53.8194   7.3745967633e+01   6.0936156531e+01    0.3499332    0.2116219 -62.10   0.00134345    2.167    0.539
       451  -8.5540    105.8273     53.0726   5.5341507311e+01   5.1124844941e+01    0.2228835    0.1944973 -74.57 0.0005952352    1.303    0.232
       452  -7.9623    218.9657     51.7102   3.4624696357e+01   2.4679803431e+01    0.1757433    0.1505978 -76.73 0.0002959185    1.112    0.101
       453  -9.4749     92.5111     50.4189   5.8335115523e+01   5.4494119875e+01    0.3943017    0.2389908 -52.54 0.0009880076    1.949    0.487
       454  -8.7616     75.3827     51.1343   6.4395509470e+01   5.7815451613e+01    0.4196818    0.2380628  20.15  0.001626505    2.878    0.653
       455  -8.4542    144.7080     48.9243   4.4769197139e+01   4.2542239710e+01    0.2038076    0.1801443 -47.07 0.0004758146    1.136    0.120
       456  -7.9524    129.6495     48.7747   4.7866703265e+01   4.6238166313e+01    0.2052299    0.1279476 -44.94 0.0005294903    1.645    0.392
       457  -8.8941    120.8897     47.1657   4.9345552023e+01   4.8590375587e+01    0.2762652     0.189111 -39.65 0.0009075679    1.490    0.329
       458  -8.5073    112.4501     46.8622   5.1340618799e+01   5.0626140600e+01    0.2645104    0.1938036 -53.46 0.0007738288    1.507    0.337
       459  -9.0314     82.2699     46.3235   6.0128934837e+01   5.7319304095e+01    0.2958915    0.2265073 -56.47 0.0006301183    1.542    0.352
       460  -8.4882     45.0024     44.4485   7.4275003854e+01   6.4119798480e+01    0.2271919    0.1786326 -59.07 0.0006005334    1.486    0.327
       461  -9.2862     16.5798     44.2667   8.8360849805e+01   6.7358212856e+01    0.2630776    0.1986963 -77.59 0.0009974552    1.645    0.392
       462  -8.4467    132.8050     42.6428   4.5132628485e+01   4.6390138202e+01    0.2339633    0.1622679 -40.80  0.000524911    1.465    0.318
       463  -9.3441     69.6836     41.4705   6.2715736150e+01   6.0592940764e+01    0.3599509      0.24847 -61.83  0.001175256    2.067    0.516
       464  -8.9234     58.2298     42.1524   6.7550795010e+01   6.2502661202e+01    0.3556204    0.2298958 -59.38  0.001511451    2.127    0.530
       465  -9.6329      5.2917     41.5470   9.3629133582e+01   6.8747215771e+01     0.352694    0.2096961 -86.45  0.001506781    2.499    0.600
       466  -8.6356    105.8455     41.0945   5.0975713177e+01   5.3044146902e+01    0.2794482    0.1825333 -47.56 0.0006578682    1.672    0.402
       467  -8.4548     93.0161     42.0320   5.4999567092e+01   5.5770751720e+01    0.2292303    0.1672127  16.67 0.0007859934    1.699    0.411
       468  -7.5137    140.4544     41.4037   4.3185635776e+01   4.4689360620e+01    0.1421302    0.1313702  86.54 6.673019e-05    1.032    0.031
       469  -8.4980     36.7081     40.2172   7.6558407309e+01   6.6046398794e+01    0.1874513    0.1576642 -59.49 0.0005681728    1.398    0.285
       470  -8.5555     95.7147     37.9110   5.2591741572e+01   5.5811644601e+01    0.2508358    0.1812837 -52.88 0.0006915822    1.607    0.378
       471  -8.7578     80.8410     36.7418   5.6785421260e+01   5.9171396075e+01    0.2520176    0.1714052 -59.05 0.0007887563    2.021    0.505
       472  -7.6907    133.7046     36.3260   4.2825445407e+01   4.7056137553e+01    0.1463441    0.1043974 -67.92 0.0004667699    1.626    0.385
       473  -9.3352     26.2017     35.0894   7.9908179130e+01   6.8274425873e+01    0.3074668    0.2039546 -59.44 0.0009930987    1.733    0.423
       474  -8.2857    126.0105     35.3088   4.4055868912e+01   4.9078867008e+01    0.1958558    0.1776291  72.34 0.0004856676    1.055    0.052
       475  -8.7040    111.5400     34.0719   4.6899300938e+01   5.2726406482e+01    0.2581052    0.1948532  81.73 0.0008119884    1.530    0.346
       476  -8.9330     48.5805     33.0549   6.7908067789e+01   6.5651700421e+01    0.2309367    0.2049256 -61.68 0.0006481358    1.452    0.311
       477  -8.2125    119.0690     33.0078   4.4750834988e+01   5.1071712660e+01    0.2223157    0.1625996 -69.33 0.0006118183    1.657    0.396
       478  -8.5961     60.8139     32.3192   6.2310317431e+01   6.3719757908e+01    0.2154205    0.1731965 -44.14   0.00059764    1.364    0.267
       479  -8.8308     72.4416     31.1979   5.7364654715e+01   6.1705137580e+01    0.2380833    0.1957057 -62.86 0.0007783179    1.587    0.370
       480  -8.0191    139.4302     31.4878   4.0122450556e+01   4.6279171030e+01    0.1395294    0.1288331 -87.26 0.0001115332    1.037    0.036
       481  -8.9357     13.0121     30.0781   8.5342549474e+01   7.0519332660e+01    0.3151276     0.190708 -70.95   0.00160189    2.355    0.575
       482  -8.3588    101.6396     29.1222   4.7496669072e+01   5.5705359222e+01    0.2276153    0.1860022  73.15 0.0005770664    1.308    0.236
       483  -7.8918     41.8303     29.6183   6.9546158497e+01   6.7256925709e+01    0.1680339    0.1151827  44.22 0.0005424431    1.672    0.402
       484  -8.8689     81.6136     27.2285   5.2519584573e+01   6.0396962035e+01    0.2825149    0.2120699 -60.20  0.000906184    1.760    0.432
       485  -9.2717      3.7105     27.1526   8.9872174671e+01   7.1786402189e+01    0.2793605     0.184018 -74.22  0.001555371    1.964    0.491
       486  -8.7543     91.9064     26.2306   4.8981416966e+01   5.8292610163e+01     0.284222    0.1777257 -46.81 0.0008496218    1.851    0.460
       487  -7.9690     34.7351     22.9938   7.0017182917e+01   6.9366135039e+01    0.1928187    0.1330514  68.34 0.0008813968    3.406    0.706
       488  -8.3280    104.7267     22.6202   4.4152130683e+01   5.5802912184e+01    0.1891554     0.125512  71.04  0.000507968    1.602    0.376
       489  -8.9640     63.6496     20.7659   5.5879728755e+01   6.4893998948e+01    0.3143588    0.1927276 -47.23 0.0009592741    2.033    0.508
       490  -8.8089     48.3797     21.5116   6.2621593797e+01   6.7520080750e+01    0.2315413    0.2076173 -50.60 0.0006158687    1.415    0.293
       491  -8.1066    121.0096     21.0270   3.9978239988e+01   5.2082413325e+01     0.213567    0.1544981 -67.54 0.0008083708    1.611    0.379
       492  -7.9343     19.9879     21.4765   7.7527745046e+01   7.1436398197e+01    0.1461164   0.09882881  50.20 0.0006711091    2.278    0.561
       493  -8.5461    160.4646     20.0463   3.3231078487e+01   4.2428877273e+01    0.2062982    0.1685766  80.35 0.0005179525    1.121    0.108
       494  -8.8554     74.1647     19.4298   5.1486889616e+01   6.2974793330e+01    0.2368749    0.1953159 -58.03 0.0007393364    1.543    0.352
       495  -8.2349     38.7986     17.8465   6.5364961841e+01   6.9582131137e+01    0.1558314     0.142368 -38.59 0.0004593824    1.336    0.251
       496  -8.3229     87.8785     17.1496   4.6255058521e+01   6.0301560484e+01     0.194401    0.1757883 -72.06 0.0006134335    1.302    0.232
       497  -7.5086    112.7421     16.6650   4.0030917062e+01   5.4570873774e+01    0.1345716   0.09719728  29.04 0.0002993723    1.572    0.364
       498  -8.1789     30.3656     16.1444   6.8923690949e+01   7.1049626458e+01    0.1607879    0.1073917 -46.05 0.0004882748    1.689    0.408
       499  -8.2262     97.1785     15.1496   4.2956614677e+01   5.8412412511e+01    0.1786314    0.1542654 -65.14 0.0006424506    1.336    0.252
       500  -8.2710     17.3837     14.1287   7.5509143696e+01   7.2960458568e+01    0.1540994    0.1053649 -51.43 0.0005827431    1.701    0.412
       501  -8.0904    191.7715    249.5571   7.8931516603e+01  -2.2856275438e+00    0.1542859   0.09036972  38.62   0.00081087    1.636    0.389
       502  -8.3252    113.3886    248.6328   9.3839209016e+01   8.4859943080e+00    0.1916944    0.1174576 -71.07  0.001103137    2.212    0.548
       503  -7.7825     47.6785     10.3006   5.7156318055e+01   6.9169766010e+01    0.1105318     0.100523 -79.41 0.0002848239    1.627    0.385
       504  -9.2055    103.8814    246.7231   9.5546931826e+01   1.0102074151e+01    0.4046007    0.2246865 -87.43  0.001974262    3.133    0.681
       505  -9.4044    232.8826    246.1288   7.1358733403e+01  -6.8765937839e+00    0.3823835    0.1945035 -17.14  0.002156951    2.104    0.525
       506  -8.9180    218.5384    246.8352   7.3855835686e+01  -5.2767771954e+00    0.2925573   0.09879202 -37.37  0.001447651    3.101    0.678
       507  -8.4165    156.2910    247.9435   8.5332952575e+01   2.6745052755e+00    0.2034947    0.1391294  47.75 0.0006212587    1.555    0.357
       508  -8.8298    132.4007    247.6666   8.9958233914e+01   6.0210811797e+00      0.27893    0.1636967  53.31  0.001123003    1.905    0.475
       509  -9.1660    243.3080    245.4926   6.9581775957e+01  -7.9757126588e+00    0.3422019     0.143674 -22.07   0.00183359    2.621    0.618
       510  -9.9656    223.8711    243.8665   7.2520277522e+01  -5.5556566858e+00     0.395908    0.2022415 -44.06  0.002278288    2.608    0.617
       511  -9.3223    210.9486    246.3439   7.5087575672e+01  -4.2923717136e+00    0.1993069    0.1562683 -47.78 0.0008894035    1.918    0.479
       512  -9.1070    147.2484    245.7521   8.6811007666e+01   4.2553234589e+00    0.2800305    0.1836164  61.18  0.001569005    2.204    0.546
       513  -8.6387     13.0166    247.2378   1.1337871615e+02   2.0847230895e+01    0.1381642   0.07440874  37.38  0.000638596    1.598    0.374
       514  -9.3380    120.0224    244.9243   9.2113583325e+01   8.1859814126e+00    0.3419477    0.2138727  69.13  0.001413641    2.345    0.574
