#   1 NUMBER                 Running object number                                     
#   2 MAG_AUTO               Kron-like elliptical aperture magnitude                    [mag]
#   3 X_IMAGE                Object position along x                                    [pixel]
#   4 Y_IMAGE                Object position along y                                    [pixel]
#   5 X_WORLD                Barycenter position along world x axis                     [deg]
#   6 Y_WORLD                Barycenter position along world y axis                     [deg]
#   7 A_WORLD                Profile RMS along major axis (world units)                 [deg]
#   8 B_WORLD                Profile RMS along minor axis (world units)                 [deg]
#   9 THETA_WORLD            Position angle (CCW/world-x)                               [deg]
#  10 FWHM_WORLD             FWHM assuming a gaussian core                              [deg]
#  11 ELONGATION             A_IMAGE/B_IMAGE                                           
#  12 ELLIPTICITY            1 - B_IMAGE/A_IMAGE                                       
         1 -13.7302    193.0360     70.2764   7.6156080636e+01   2.7661710655e+01     4.228117     1.673008 -30.49  0.005963992    3.302    0.697
         2 -13.5861    172.2770     64.7773   7.8436655287e+01   3.3613592169e+01     2.367296    0.9128566 -48.46  0.008234955    2.986    0.665
         3 -14.2249    146.6000     40.4699   7.6547974607e+01   4.3375813178e+01     3.804436     1.593034  58.10  0.001135306    2.155    0.536
         4 -14.3929    248.2931     23.6875   5.8685913961e+01   2.1689943289e+01      1.04953     0.665524 -34.35  0.005495718    1.815    0.449
         5 -15.2766    244.8283     12.4422   5.6789378375e+01   2.3799932234e+01     2.027774    0.6402409  65.36  0.009080113    2.821    0.645
         6 -13.4308    249.2158      3.5127   5.4757462757e+01   2.3902705073e+01    0.5358382    0.3276387 -87.84  0.001495803    1.365    0.268
         7 -15.9275    228.4954     51.8343   6.6627419148e+01   2.2191025011e+01     10.27038     2.070861 -44.17   0.03266954    4.085    0.755
         8 -15.1641    206.8123     59.9438   7.1415968076e+01   2.6006697117e+01     8.465556     3.595635 -41.54   0.03021983    2.252    0.556
         9 -13.6438    247.2622     43.8934   6.2832510310e+01   1.9204686089e+01    0.9584184     0.508295 -51.60  0.001319724    1.650    0.394
        10  -9.7485    151.7186     12.6335   6.7509435442e+01   4.5315371754e+01    0.2955703    0.1841441 -44.71 0.0007819366    1.822    0.451
        11  -9.5081    115.9513     12.5263   7.4125674870e+01   5.3477035303e+01    0.2928314    0.1797094  52.63   0.00107751    1.366    0.268
        12 -11.0482    120.2220      8.9379   7.2049198881e+01   5.2864904695e+01    0.3876057    0.3205419  53.83  0.001403454    1.047    0.045
        13  -8.5845    141.5120     11.5600   6.8890983666e+01   4.7805080826e+01    0.1587891    0.1190904 -44.44 0.0004839938    1.538    0.350
        14  -8.6636    139.7228      8.5459   6.8300569480e+01   4.8493890919e+01    0.2128793    0.1378993 -81.82  0.001088545    2.024    0.506
        15 -10.0265    171.6541      2.8635   6.2047447449e+01   4.1513486431e+01    0.5569099    0.2593825 -66.24  0.002319719    3.155    0.683
        16  -9.2921    165.0650      2.2215   6.2726691063e+01   4.3124216324e+01     0.183697    0.1761812 -26.37 0.0006607926    1.283    0.221
        17  -9.4138      2.0000      3.0049   1.1012082694e+02   7.2036252417e+01    0.1620362   0.04650912 -41.73 0.0008111782    3.003    0.667
        18  -8.5950    150.6754      2.0645   6.4686372130e+01   4.6511789633e+01    0.1606346    0.1482143  75.30 0.0005049137    1.114    0.102
        19  -8.8805     72.3453    249.3297   1.3798445224e+02   1.3523192456e+01    0.1046545   0.09755319 -17.77 0.0007050325    1.754    0.430
        20  -9.0176     72.3253    239.3293   1.3703446668e+02   1.5485941351e+01    0.1079702   0.09916579 -30.27            0    1.701    0.412
        21 -11.8704    249.1080    234.6126   1.0169227593e+02  -1.2606070131e+01    0.2228686    0.1910285  -8.73 0.0004672769    1.167    0.143
        22 -10.4855    178.3093    143.2062   9.7195313518e+01   1.6909965792e+01    0.3899645    0.2769603  88.26  0.001514809    2.131    0.531
        23  -9.3012    160.3320    143.6539   1.0136438452e+02   2.0776758901e+01    0.3602917    0.2537127  75.49  0.001495902    1.951    0.487
        24 -10.0197    157.5930    140.7754   1.0133403100e+02   2.2019105757e+01    0.3424184    0.1964063 -54.03  0.001034766    1.853    0.460
        25 -10.1498    234.9611    173.9367   9.2629727475e+01  -6.9732762194e-01    0.3044861    0.2687074  48.93  0.001458887    1.301    0.232
        26 -11.1731    188.4990    137.8623   9.3762821575e+01   1.5780810364e+01    0.4121756    0.3500464  71.63   0.00164668    1.305    0.233
        27 -10.5470    167.4095    137.3649   9.8256278789e+01   2.0596653859e+01    0.6151794    0.2958882 -56.10  0.002118447    2.565    0.610
        28 -10.7617    211.3099    136.2590   8.8835932539e+01   1.1117055826e+01    0.3382854    0.2846551 -27.16  0.001290303    1.232    0.188
        29 -10.7470    173.1134    136.0738   9.6665632873e+01   1.9599684530e+01    0.4788201    0.2064802 -47.45  0.001676378    2.328    0.570
        30  -8.9310    145.4846    135.9531   1.0310266720e+02   2.5748032053e+01    0.2286542    0.1378051 -70.24 0.0008094202    2.545    0.607
        31 -10.7049    189.4126    131.8891   9.2163270879e+01   1.6818282598e+01    0.3415816    0.2310173 -48.39  0.001528119    1.457    0.313
        32 -11.2204    159.6850    129.1980   9.8068932373e+01   2.4115331313e+01    0.4881069    0.4221002   6.50  0.002375084    1.398    0.285
        33  -9.9430    136.3141    128.5031   1.0359232524e+02   2.9412500136e+01    0.4918599    0.3645919  35.27  0.002255964    1.455    0.313
        34 -10.4662    135.0048    124.0041   1.0281690099e+02   3.0709914879e+01    0.4314927    0.2212398 -54.38  0.001467421    2.112    0.527
        35  -7.9172     15.6094    233.6936   1.4686135417e+02   2.3772040789e+01   0.09870116   0.08140278 -54.22 0.0004574261    1.815    0.449
        36 -10.2239    226.2794    122.6346   8.3027563192e+01   1.0557389320e+01    0.3623731     0.257728 -84.30  0.001668308    1.966    0.491
        37 -10.9862    151.5874    122.6575   9.8369084501e+01   2.7368555076e+01    0.5801777    0.3167039 -31.19  0.002105701    2.397    0.583
        38  -8.6216     77.2932    232.3022   1.3535748511e+02   1.6182583418e+01     0.108134    0.1012584 -34.00            0    1.572    0.364
        39 -11.1384    167.6751    113.9037   9.2419496874e+01   2.5554486323e+01    0.5599053    0.4249042 -51.60   0.00138188    1.323    0.244
        40  -9.4323    176.4516    116.0557   9.1040341457e+01   2.3065628287e+01    0.2444655    0.1518328 -42.60  0.001027939    1.590    0.371
        41  -9.9426    139.2688    119.7118   1.0065823425e+02   3.0746989213e+01    0.3623707    0.2239131  89.82  0.001122214    3.784    0.736
        42 -10.7543    134.6737    111.4088   9.9686219119e+01   3.3568478246e+01    0.8710648    0.2170211 -45.82  0.002356095    3.991    0.749
        43  -9.1558    119.9848    111.0070   1.0344948937e+02   3.6757353485e+01    0.2442228     0.190799  86.62 0.0004518859    1.684    0.406
        44  -8.7780    126.5398    110.5049   1.0156621206e+02   3.5507227307e+01    0.1542251    0.1485953 -77.12 8.121291e-05    1.058    0.055
        45 -11.3480     36.5723    213.5629   1.4150495721e+02   2.5610871654e+01    0.3338429    0.2838072  47.60  0.002061303    1.394    0.283
        46 -10.6319    248.0889    157.7013   8.6952056694e+01  -1.6317618922e-01    0.4077747    0.3192877  67.54  0.002234431    1.720    0.419
        47  -9.4945    141.8438    103.8478   9.5870147928e+01   3.3590449426e+01    0.2413361    0.2165522   7.45  0.000805765    1.267    0.210
        48 -10.2025    123.1645    102.1785   1.0024119863e+02   3.8009143622e+01    0.4113417    0.2435827  29.60  0.001640394    2.139    0.533
        49  -9.2054    223.0316    101.6755   7.8769999733e+01   1.5154498297e+01     0.255195    0.1963832 -44.37 0.0005754346    1.214    0.177
        50 -10.9036    225.9327     97.8460   7.7423369856e+01   1.5205117623e+01    0.4362602    0.3130825 -70.52  0.002159411    1.549    0.355
        51 -10.2570    147.8294     98.9354   9.3082656837e+01   3.3237600291e+01    0.4018813    0.3496668  54.08  0.001191149    1.146    0.127
        52  -8.8138    110.0014    156.2974   1.1655080335e+02   2.8105204145e+01    0.1962771    0.1851147  70.15 0.0002756315    1.052    0.049
        53  -9.5325    134.1839     95.8698   9.5621407205e+01   3.6940764266e+01    0.2659852     0.236319 -68.20 0.0006714496    1.217    0.178
        54  -9.7041    210.8273     95.0458   7.9236231537e+01   1.9122339667e+01    0.2254273    0.2034629  82.99 0.0003321981    1.102    0.093
        55  -9.0054    203.8059    152.8139   9.4041240401e+01   9.4049320157e+00    0.2281711    0.2009934  -3.51 0.0005917605    1.248    0.199
        56 -10.6101    157.9779     91.7689   8.8772676511e+01   3.2283708957e+01    0.4843613    0.3964285  17.67  0.002342924    1.514    0.339
        57  -9.7973    191.7371    152.1944   9.6374100957e+01   1.2089111592e+01     0.466561    0.2349954 -53.41  0.001151481    2.283    0.562
        58 -10.4003    141.4084     88.5523   9.1771043870e+01   3.6763621787e+01    0.3140924     0.306222  68.63 0.0007793077    1.024    0.023
        59  -9.1644    175.5340    150.8371   9.9558628337e+01   1.5877824241e+01    0.2414193    0.2120568  80.06 0.0005465602    1.271    0.213
        60 -11.7342    156.2713     81.6254   8.6366007921e+01   3.4590738378e+01    0.3996087    0.3788415  -1.93 0.0006956849    1.161    0.138
        61  -9.7606    150.9849     80.5008   8.7240009106e+01   3.6048053632e+01    0.4563838    0.2504327 -53.75  0.001070013    2.180    0.541
        62 -10.1056      5.3202     82.5983   1.3242963011e+02   5.8056941753e+01    0.1897955    0.1067919  23.42 0.0008868163    2.169    0.539
        63  -8.1569     98.2353     76.6072   9.9948186540e+01   4.8110168529e+01    0.1383933    0.1101338 -67.92 0.0005341343    1.651    0.394
        64 -10.8516    145.3973     70.9844   8.5797586959e+01   3.9043480212e+01    0.7744023    0.3584071 -51.31  0.002822034    2.726    0.633
        65 -10.5243    150.9435     69.8452   8.4220351743e+01   3.7928623548e+01    0.4907641    0.3061018 -60.45 0.0007827011    2.090    0.522
        66  -8.3551    140.3312     78.3026   8.9109294317e+01   3.8929867147e+01    0.1529448    0.1170992  16.85  0.000217433    1.653    0.395
        67 -10.1012    162.0235    213.2577   1.1500637511e+02   5.5638015486e+00    0.2214099     0.203915 -50.11 0.0002328389    1.185    0.156
        68  -8.5325     66.3553     69.6897   1.0799596690e+02   5.4697696138e+01    0.1245258    0.1071855  80.96 0.0007043527    1.729    0.422
        69  -9.2407    122.0074     65.9286   9.0005276721e+01   4.5196873438e+01    0.2109758    0.2013158  27.70 -0.001877172    1.006    0.006
        70 -10.6708    144.6157     59.1504   8.2507540982e+01   4.1164391945e+01    0.3922551    0.3291232  50.42  0.001310031    1.125    0.111
        71  -9.1207     72.7904     58.3785   1.0222468648e+02   5.5765539770e+01    0.2086673     0.167324 -41.21 0.0005147841    1.304    0.233
        72 -13.5838     11.3703    195.6255   1.4492512907e+02   3.2219675401e+01    0.9977852    0.9437009 -53.80  0.005158111    1.510    0.338
        73  -9.5590    179.3099     51.1195   7.3522148629e+01   3.3987051339e+01    0.3201488    0.1655434  56.56  0.001408522    1.789    0.441
        74  -8.2861    219.5299    149.4547   9.0250341295e+01   6.8220845899e+00    0.1454465    0.1368709 -43.37 0.0002748552    1.043    0.041
        75  -8.6085     82.6444     51.7362   9.6762148696e+01   5.5231730892e+01    0.1791214    0.1180679 -43.38 0.0007384352    1.650    0.394
        76 -11.3301     68.1701    144.5750   1.2528159168e+02   3.7749140233e+01    0.6682752    0.4217093  68.09  0.002441094    2.048    0.512
        77  -9.6652     94.4022     49.2317   9.2282082730e+01   5.3483930436e+01    0.1823357    0.1227621 -43.96 0.0009434575    1.676    0.403
        78 -10.0617    191.7698    192.7891   1.0493105428e+02   3.8916138511e+00    0.6246191    0.3244646 -66.25   0.00175768    5.693    0.824
        79  -9.5237     91.3980     41.6111   9.0549156349e+01   5.5155520663e+01    0.2965259    0.1245243 -28.39  0.001227863    2.671    0.626
        80 -11.7466    107.2135     39.8073   8.5466001426e+01   5.2276025616e+01    0.4740265    0.2867679  36.34  0.002381593    1.603    0.376
        81  -9.2921    202.0439     35.0067   6.6089924300e+01   3.0701560343e+01    0.2033351    0.1647576 -73.53 0.0003660025    1.142    0.125
        82 -10.0167    222.1653    145.0667   8.8791498393e+01   7.1320148092e+00    0.2497836    0.2104538  57.28 0.0003487441    1.310    0.237
        83 -10.0346    173.9894    144.4851   9.8445737866e+01   1.7588426594e+01    0.3010143    0.2183094 -62.51 0.0008585784    1.569    0.363
        84  -9.7164    192.2632    144.1360   9.4432509961e+01   1.3647065436e+01    0.2732545    0.2201792  57.58 0.0004191968    1.319    0.242
        85  -8.7615    152.9264     18.3084   6.8928115879e+01   4.4463482311e+01    0.1856694    0.1634914 -84.48   0.00047401    1.177    0.150
        86 -11.2496     36.4892    188.4669   1.3910342792e+02   3.1225314869e+01    0.4054357    0.1425448 -67.33  0.001771341    2.376    0.579
        87  -8.6264    204.0524    189.5371   1.0176619582e+02   2.1672070043e+00    0.2187707    0.1362981  42.48  0.001028672    1.594    0.373
        88 -13.6049     42.9900    173.4631   1.3594387090e+02   3.3978275148e+01     1.383779    0.9003336  19.32  0.001965927    2.225    0.551
        89 -13.4803     52.1550    166.1749   1.3281517432e+02   3.4616811091e+01     1.575781     1.173433  -5.32  0.002410983    2.179    0.541
        90  -9.5941    200.5766    174.0847   9.9303643019e+01   5.8203377556e+00    0.3002705    0.1829724 -29.01   0.00129961    1.880    0.468
        91 -10.5868    230.7410    167.4348   9.2045365368e+01   1.2511485191e+00    0.3333214    0.2080897 -50.26  0.001578326    1.724    0.420
        92 -10.1457    133.7706    145.5914   1.0824079689e+02   2.6005411832e+01    0.9194416    0.2168514 -52.79  0.002225002    5.026    0.801
        93  -9.8175    215.6253    168.3224   9.5084666499e+01   3.9688768639e+00    0.3622356    0.2539282  64.86  0.001429796    1.951    0.488
        94 -10.0551    211.8186    166.3120   9.5399047632e+01   5.1042740990e+00    0.3041802    0.2335482  66.25  0.001155463    1.663    0.399
