#   1 NUMBER                 Running object number                                     
#   2 MAG_AUTO               Kron-like elliptical aperture magnitude                    [mag]
#   3 X_IMAGE                Object position along x                                    [pixel]
#   4 Y_IMAGE                Object position along y                                    [pixel]
#   5 X_WORLD                Barycenter position along world x axis                     [deg]
#   6 Y_WORLD                Barycenter position along world y axis                     [deg]
#   7 A_WORLD                Profile RMS along major axis (world units)                 [deg]
#   8 B_WORLD                Profile RMS along minor axis (world units)                 [deg]
#   9 THETA_WORLD            Position angle (CCW/world-x)                               [deg]
#  10 FWHM_WORLD             FWHM assuming a gaussian core                              [deg]
#  11 ELONGATION             A_IMAGE/B_IMAGE                                           
#  12 ELLIPTICITY            1 - B_IMAGE/A_IMAGE                                       
         1 -14.7538    179.5446     34.8726   6.7731352118e+01   3.6035448461e+01     1.232944     1.015978  13.73  0.004211536    1.671    0.401
         2 -13.2792    183.8969     28.4264   6.5473475936e+01   3.5764407348e+01    0.5367749    0.4670328 -89.82  0.001168577    1.051    0.048
         3 -13.7635    199.9844      4.0528   5.7826122865e+01   3.4591847749e+01    0.8463933      0.44811  71.12  0.004474137    1.553    0.356
         4 -11.6869     58.1460      3.3342   8.5006000490e+01   6.5489801066e+01    0.2420779   0.07434312  41.32   0.00110215    2.616    0.618
         5 -11.1023    169.2136    236.6619   1.1598056676e+02  -2.2071231488e-01    0.2182063    0.2069365   3.70  0.000377729    1.136    0.120
         6 -18.8811     51.4380    243.6495   1.4071478559e+02   1.7503714998e+01     6.736998     6.057385  78.30     0.048875    1.293    0.226
         7 -10.5762    198.7762    222.9046   1.0754311610e+02  -3.0237519399e+00    0.2297424    0.1776297  34.25 0.0004886431    1.184    0.155
         8 -10.7637    209.0522    198.0153   1.0076879665e+02  -4.4315393282e-01    0.2073876    0.1784305  88.27 0.0007096996    1.662    0.398
         9 -10.6865    154.0120    195.9994   1.1228114761e+02   1.0543400828e+01     0.233187    0.2208589  55.04  0.001294556    1.035    0.034
        10  99.0000     16.9657    219.7748   1.4528726989e+02   2.6568364360e+01    0.2048232    0.1192841  33.19  0.001220964    2.063    0.515
        11 -10.0730     22.8064    195.9130   1.4222434620e+02   3.1191112960e+01    0.1295193   0.07859671 -75.05 -0.0006383859    1.378    0.274
        12 -11.0277    167.5139    188.6753   1.0781106495e+02   9.4190076044e+00    0.2873318    0.2532214 -76.99  0.001118295    1.309    0.236
        13 -11.3736    207.5523    179.3501   9.7293961671e+01   3.3495664754e+00    0.5841613    0.3685046  17.08  0.002478855    2.214    0.548
        14 -12.1329    141.0258    176.0036   1.1147528210e+02   1.7560223729e+01    0.3770975    0.2240386 -42.65  0.001576619    1.825    0.452
        15 -12.0317     73.2837    174.9700   1.2811304980e+02   2.9866658161e+01    0.3002791    0.2131675 -73.32 0.0007561718    1.333    0.250
        16 -11.5105    195.8920    170.1953   9.7771893674e+01   7.4846441422e+00    0.4406909    0.3994493 -77.66  0.001799149    1.287    0.223
        17 -10.8605    193.8222    164.9466   9.7075170557e+01   8.9833959541e+00    0.3634767    0.3294744 -87.95  0.001559282    1.283    0.221
        18 -10.3020     10.5062    213.8972   1.4608026959e+02   2.8477707596e+01    0.1555579    0.1374316  45.19 0.0007105672    1.475    0.322
        19 -10.0439    195.6896    174.3206   9.8693150322e+01   6.6911461184e+00    0.2630061    0.2093983  88.18 0.0008234013    1.778    0.437
        20 -11.8936    137.6275    171.1046   1.1131587904e+02   1.9374545390e+01    0.3338344    0.3016761 -85.90  0.001085014    1.154    0.134
        21  -9.9402    220.5117    229.0295   1.0431852601e+02  -7.6657249366e+00       0.2968    0.1164445 -50.93  0.001027115    4.566    0.781
        22 -10.0645    115.1143    162.1594   1.1516461362e+02   2.5917732903e+01    0.2136357    0.1779138  84.13 0.0004248597    1.303    0.233
        23  -9.8581      8.0471    160.9810   1.4217807320e+02   4.0561890414e+01    0.1729269    0.1203604 -50.34 0.0006351204    1.546    0.353
        24  -9.4282     13.2919    160.6408   1.4091325079e+02   4.0215599207e+01    0.1290924   0.07791635  75.69 0.0007028907    1.694    0.410
        25 -11.3981    119.8925    156.6909   1.1280889861e+02   2.6313603261e+01    0.3423713    0.2602456 -72.99  0.001594327    1.460    0.315
        26 -13.9056     11.8451    206.2232   1.4527151871e+02   3.0002078162e+01    0.5547251    0.2754047  34.23  0.003131044    2.267    0.559
        27  -9.7086      3.1521    155.6865   1.4279678802e+02   4.2153494534e+01    0.1270453    0.1104817 -11.79 0.0004103566    1.597    0.374
        28 -12.5379    134.0000    144.4702   1.0647643842e+02   2.6357404444e+01     1.220381    0.3463919 -55.47  0.002900184    5.252    0.810
        29  -9.6069      9.8430    153.3837   1.4096347693e+02   4.2184128119e+01    0.1428563    0.1162227 -11.57 0.0009382654    1.720    0.418
        30 -10.3374    175.0025    149.0154   9.7622482814e+01   1.6399953766e+01    0.2506561    0.1963781 -88.96  0.000599438    1.668    0.400
        31 -12.0958    144.7439    145.3682   1.0396443880e+02   2.3861292539e+01    0.3931359    0.3148705  86.43   0.00100431    1.527    0.345
        32 -19.0580     35.5492    103.2957   1.2605412072e+02   5.1669703932e+01     17.11279    0.7357103 -60.39   0.02460428   20.045    0.950
        33 -10.5700      6.3272    145.8700   1.4100442233e+02   4.4190711940e+01    0.2160024    0.1720309 -40.40   0.00070832    1.464    0.317
        34 -12.8716    110.8948    139.9190   1.1155841932e+02   3.2083876811e+01    0.7679996      0.47725 -24.18  0.002876568    2.616    0.618
        35 -12.3695    100.6434    139.4166   1.1426336621e+02   3.4107517669e+01    0.3054388    0.2867392  25.08 0.0004160483    1.153    0.132
        36 -12.2456      4.5436    131.3324   1.3976904734e+02   4.7666373891e+01     0.411941    0.2197806  80.29  0.002093063    2.283    0.562
        37 -11.7785    105.9240    130.6857   1.1081422172e+02   3.5227953461e+01    0.4345337    0.3295285 -59.75  0.001185899    1.332    0.249
        38 -11.1781    105.8167    125.9214   1.0971538621e+02   3.6371715927e+01    0.3094003    0.2502581 -17.09 0.0007585031    1.498    0.333
        39 -12.1238    117.9185    129.7169   1.0726671097e+02   3.3125105174e+01    0.4225852    0.3762833  -2.46  0.001173583    1.296    0.228
        40 -12.3092    135.4302    122.8175   1.0088644943e+02   3.1033511070e+01    0.6987305    0.3360692 -53.37  0.002502339    2.290    0.563
        41 -11.3659    125.4706    127.4573   1.0467428208e+02   3.2103697230e+01     0.409967    0.2617213  76.38  0.001472478    2.741    0.635
        42 -10.5071    112.1512    119.0150   1.0622825671e+02   3.6748940304e+01    0.2521378    0.2216482  41.60 0.0002790486    1.157    0.136
        43 -11.0638    168.4006    113.2333   9.0427986343e+01   2.5563069906e+01    0.3977907    0.2933664 -74.99  0.001147156    1.726    0.421
        44 -10.9904      1.9867    112.8958   1.3805603878e+02   5.2007841980e+01    0.2131102    0.1560139 -42.66  0.001423095    1.329    0.248
        45 -10.6424    205.4721    110.1920   8.2124529189e+01   1.7484580515e+01    0.3322937    0.2171884  44.90  0.001008113    1.661    0.398
        46 -12.5059     60.9619    108.9650   1.1915973699e+02   4.7523645941e+01    0.3164243    0.2731663 -17.48  0.001760165    1.226    0.184
        47 -11.2456    160.8869    127.7428   9.5807406380e+01   2.4225442725e+01    0.3727472    0.2303667 -51.63  0.001424157    1.680    0.405
        48 -10.4592    158.4720    204.5831   1.1284837957e+02   7.8796677866e+00    0.3711478    0.1929976  63.06  0.001228476    3.574    0.720
        49 -10.1394    163.3520    204.0461   1.1166430166e+02   7.0506615601e+00    0.1981914    0.1849464 -50.42 0.0004687609    1.156    0.135
        50  -9.8676    150.2290    101.1916   9.1495198064e+01   3.2310214463e+01     0.214712    0.1825356 -88.50 0.0004609739    1.345    0.257
        51  -9.5646     15.7394    213.3090   1.4504816229e+02   2.8077375278e+01    0.1253425     0.100588  89.84  0.000267231    1.139    0.122
        52 -10.1093     83.0166     76.4879   1.0325919327e+02   5.1110197260e+01    0.1976963    0.1340898  36.23 0.0003462102    1.488    0.328
        53  -9.9666     13.5018     59.9446   1.2378597447e+02   6.2457124863e+01    0.1684288   0.09473642 -52.43  0.000396836    1.484    0.326
        54 -13.8082    165.9730     51.5108   7.4412517830e+01   3.7132685285e+01    0.9075752    0.6941262 -43.59  0.002010409    1.393    0.282
        55 -10.6509      1.4039    248.7630   1.4973994712e+02   2.2326322926e+01      0.12761   0.08021797 -81.11 0.0008594196    1.398    0.285
        56  -9.8066      6.1730    202.2684   1.4608159214e+02   3.1401910023e+01    0.1013094   0.06689832 -70.21  0.000340112    1.386    0.279
        57  -9.9942    111.4927     21.4339   7.6632187774e+01   5.3596506736e+01    0.2236892    0.1185909  67.44  0.001016728    2.245    0.554
        58 -11.9455    189.8352     14.9967   6.1443108399e+01   3.5852092906e+01    0.2362324    0.1648405  75.06 0.0007667665    1.200    0.167
        59 -12.6243    193.4806    192.6365   1.0292360092e+02   3.4949236448e+00    0.8824626     0.500964 -52.54  0.002797764    2.069    0.517
