#   1 NUMBER                 Running object number                                     
#   2 MAG_AUTO               Kron-like elliptical aperture magnitude                    [mag]
#   3 X_IMAGE                Object position along x                                    [pixel]
#   4 Y_IMAGE                Object position along y                                    [pixel]
#   5 X_WORLD                Barycenter position along world x axis                     [deg]
#   6 Y_WORLD                Barycenter position along world y axis                     [deg]
#   7 A_WORLD                Profile RMS along major axis (world units)                 [deg]
#   8 B_WORLD                Profile RMS along minor axis (world units)                 [deg]
#   9 THETA_WORLD            Position angle (CCW/world-x)                               [deg]
#  10 FWHM_WORLD             FWHM assuming a gaussian core                              [deg]
#  11 ELONGATION             A_IMAGE/B_IMAGE                                           
#  12 ELLIPTICITY            1 - B_IMAGE/A_IMAGE                                       
         1 -13.1938    191.2662     29.6221   6.9848099430e+01   3.3440156823e+01     1.329214     1.208724  38.63  0.007052391    1.068    0.063
         2 -13.8449    203.9481     11.6744   6.2355594148e+01   3.1953575459e+01     1.948363     1.167292  34.00  0.008718751    1.821    0.451
         3 -13.1114      5.4781     10.0247   1.2393134982e+02   7.1890198121e+01     1.434723    0.5991521 -53.38  0.007897125    1.650    0.394
         4 -11.0971    107.1279    247.9924   1.3169146101e+02   1.5168139835e+01    0.2888829     0.163147  70.51  0.001800925    2.246    0.555
         5 -11.0117    245.4532    249.1544   1.0991622999e+02  -3.8081148195e+00    0.2024408    0.1703058  38.00  0.001458691    1.773    0.436
         6 -10.9747    124.6544    250.0788   1.2907225358e+02   1.2668816811e+01    0.3254453   0.09275433  39.35  0.001651712    2.609    0.617
         7 -11.2884     97.9039    248.8017   1.3320975026e+02   1.6205725232e+01    0.3190244    0.1775964  46.42  0.001280658    1.270    0.212
         8 -10.5551    101.3846    246.1866   1.3246704023e+02   1.6113717655e+01    0.1996395    0.1419651 -87.34  0.001275499    1.723    0.420
         9 -10.9446     45.9999    248.4773   1.4113458621e+02   2.2038897797e+01    0.2746712    0.1431833  70.82   0.00191031    1.688    0.408
        10 -11.5175     24.5886    246.8900   1.4419433324e+02   2.4313504375e+01     0.355648    0.1777555  45.34  0.002496078    1.465    0.317
        11 -10.9237     29.7362    249.9748   1.4356498611e+02   2.3415949016e+01    0.4035497     0.140411  35.62  0.002606732    2.625    0.619
        12 -12.4008     35.3902    245.7406   1.4258257661e+02   2.3457977605e+01    0.5116466    0.3589912  67.93  0.003960447    1.127    0.112
        13 -13.3975      7.0205    243.5811   1.4658927104e+02   2.6311809480e+01     1.137341     0.981887 -88.53   0.01208838    1.572    0.364
        14 -15.2030     17.8864    168.0489   1.4186052347e+02   3.7618586609e+01     5.635153     1.679021  86.41   0.02326824    4.477    0.777
        15  -9.5076    229.1844    228.8913   1.0961501421e+02   1.0582958664e-01    0.1754398    0.1307284 -49.82  0.001161575    2.779    0.640
        16 -10.5931    150.4309    229.1641   1.2276520903e+02   1.1681628113e+01    0.1923619     0.102701  43.84   0.00121335    1.419    0.295
        17 -14.9253      7.6951    205.6956   1.4533182589e+02   3.1930947703e+01     3.687511    0.7975253 -74.39   0.01923344    3.954    0.747
        18  -8.8955     94.7926    216.8335   1.3119948216e+02   2.1024148048e+01    0.1444566   0.09728716  62.47 0.0004120122    1.342    0.255
        19  -8.8249    152.7047    213.0125   1.2046601757e+02   1.3417111909e+01    0.1455785    0.1239394  38.10   0.00033061    1.099    0.090
        20 -10.6602     32.6161    207.2186   1.4128335608e+02   2.9491406830e+01    0.3029048   0.09721062  54.84   0.00148101    2.450    0.592
        21 -14.0480     47.5590    224.1797   1.3970096863e+02   2.5358189998e+01    0.7922826    0.5583831  79.10  0.005228211    1.261    0.207
        22 -10.1047    193.1334    195.1983   1.1063199723e+02   9.2755727190e+00    0.5546457    0.3076086 -60.65  0.001916956    7.153    0.860
        23 -11.4217     66.4879    197.2519   1.3466083953e+02   2.7591221049e+01    0.2617739    0.2063496 -46.76  0.001269777    1.801    0.445
        24  -8.9096     51.6808    197.5108   1.3738198892e+02   2.9184311007e+01    0.1354779   0.07451687  51.14 0.0009134152    1.450    0.310
        25 -11.6121     71.9185    189.7072   1.3301124944e+02   2.8240065468e+01    0.2133701    0.1926895 -66.69 0.0006489988    1.363    0.266
        26 -10.6805     81.1378    177.2008   1.2999171942e+02   2.9313754526e+01    0.1977874    0.1802366  89.31 0.0003667074    1.165    0.142
        27 -13.0732     68.3049    175.1081   1.3238136712e+02   3.1269376159e+01    0.3832331    0.2451019 -45.23  0.001461476    2.170    0.539
        28 -11.7961     87.9609    167.6644   1.2750992308e+02   3.0171323987e+01    0.5848947    0.4322339  62.82  0.003814887    1.263    0.208
        29 -12.6498     67.3751    144.0081   1.2919676089e+02   3.7412058968e+01    0.9612426    0.5283318  80.12  0.003671569    2.405    0.584
        30 -11.8294     58.9837    134.4583   1.2999692231e+02   4.0360682448e+01     1.802828     0.611786 -81.09  0.004360701    9.692    0.897
        31  -9.1833    103.1154    147.5424   1.2140992524e+02   3.1861505847e+01    0.2272523    0.1721686 -30.54  0.001279079    1.729    0.422
        32 -12.0321     88.9078    151.1711   1.2518723651e+02   3.3199918061e+01    0.2309507    0.2223859 -37.47 0.0004959953    1.243    0.196
        33 -14.5352     56.1617    212.2653   1.3756822539e+02   2.6293340601e+01     6.946419          nan  43.87   0.02083854    8.112    0.877
        34  -8.4022    192.2362    144.0335   1.0136833376e+02   1.6463211649e+01    0.1609093    0.1133791 -27.23 0.0002963732    1.489    0.328
        35  -9.7300    110.8277    136.9681   1.1785002144e+02   3.2742960132e+01    0.3242844    0.2225521 -22.44  0.001229813    2.204    0.546
        36 -10.3617     98.4101    134.2879   1.2037197969e+02   3.5218063958e+01    0.2294276    0.2127261 -21.58 0.0006402691    1.260    0.206
        37 -11.3930     81.6139    248.4012   1.3572745197e+02   1.8193229690e+01     0.276103      0.19935  75.68  0.001873353    1.375    0.273
        38  -9.5818    107.8000    123.8473   1.1615614456e+02   3.5884290646e+01    0.1823074    0.1748399 -14.78 0.0003498885    1.133    0.118
        39 -12.5752     41.4470    231.5177   1.4104322508e+02   2.4885919553e+01    0.2278019    0.1963601  85.82 0.0007677607    1.383    0.277
        40 -10.8230    168.2374    113.2284   9.9335225191e+01   2.6375182794e+01    0.3114911    0.2990673 -85.20 0.0007537868    1.275    0.216
        41  -8.9697    203.4939    111.5088   9.1631342248e+01   1.9025406102e+01    0.1498487    0.1303077  11.49  4.15862e-05    1.013    0.013
        42  -9.8604    100.4149    151.5712   1.2263682755e+02   3.1480539597e+01    0.2496547    0.2290523  55.63 0.0009517203    1.044    0.042
        43 -10.8927     19.7370    229.4977   1.4429610008e+02   2.7229343075e+01    0.1853212   0.09933932  57.05   0.00107797    1.297    0.229
        44 -10.8531      1.8903     45.3454   1.3439153114e+02   6.4501120789e+01    0.4586168   0.02960862 -69.74  0.001260957    6.584    0.848
        45 -10.9678    237.8279    248.1727   1.1093849213e+02  -2.7126491761e+00    0.1946249    0.1281152  26.43  0.001514029    1.035    0.034
        46 -11.5630    139.8088    249.7958   1.2662527196e+02   1.0695742670e+01    0.3977332    0.1227347  43.69  0.002115409    2.287    0.563
