#   1 NUMBER                 Running object number                                     
#   2 MAG_AUTO               Kron-like elliptical aperture magnitude                    [mag]
#   3 X_IMAGE                Object position along x                                    [pixel]
#   4 Y_IMAGE                Object position along y                                    [pixel]
#   5 X_WORLD                Barycenter position along world x axis                     [deg]
#   6 Y_WORLD                Barycenter position along world y axis                     [deg]
#   7 A_WORLD                Profile RMS along major axis (world units)                 [deg]
#   8 B_WORLD                Profile RMS along minor axis (world units)                 [deg]
#   9 THETA_WORLD            Position angle (CCW/world-x)                               [deg]
#  10 FWHM_WORLD             FWHM assuming a gaussian core                              [deg]
#  11 ELONGATION             A_IMAGE/B_IMAGE                                           
#  12 ELLIPTICITY            1 - B_IMAGE/A_IMAGE                                       
         1 -10.9606    236.8232     28.8047   4.1569807119e+01   2.2774838923e+01    0.6669323     0.351498 -29.54  0.002870469    1.928    0.481
         2 -11.0429     38.5151     17.9240   8.2672544554e+01   6.8122960911e+01    0.4132273    0.2521092   3.84 0.0002844791    1.779    0.438
         3  -9.6550     34.7057     14.0657   8.2600591373e+01   6.9158168187e+01    0.2915199    0.1715414 -18.97  0.001688305    1.559    0.358
         4 -10.4160      1.9549     21.8627   1.0271136694e+02   7.0782289398e+01     0.330152    0.1437814 -49.18  0.001180834    1.688    0.408
         5 -10.2913     52.6460     21.0249   7.7938116830e+01   6.5737195072e+01    0.4838636    0.3077785   9.40  0.002677497    1.673    0.402
         6 -10.5325    111.1624     18.7249   5.7876459400e+01   5.4786103500e+01     0.390112    0.2989802  23.98  0.001603972    1.276    0.217
         7 -10.1391     86.7106     17.1450   6.3907973148e+01   6.0232788996e+01    0.3453017    0.3330443   7.82  0.001573001    1.221    0.181
         8 -10.6013    149.8082     18.3056   4.9785176816e+01   4.5475599140e+01    0.3278679    0.2854315  -9.62 0.0006781862    1.264    0.209
         9 -10.0348    154.9758     16.7660   4.8418242710e+01   4.4331457539e+01    0.5199398    0.2632192  -8.59  0.002101477    2.797    0.642
        10 -10.6260    102.0539     15.1569   5.8729170984e+01   5.7210289382e+01    0.5184778    0.3338924  -5.73  0.002665514    1.704    0.413
        11 -10.2565     10.2940     15.0446   9.5524684237e+01   7.1419318049e+01    0.4272628    0.2186838 -39.08  0.001007025    1.487    0.328
        12  -9.5154      8.0071     12.0266   9.5435135155e+01   7.2086537109e+01    0.3537102    0.1154008 -45.59  0.001753678    2.344    0.573
        13 -10.7148      7.0291      3.0894   9.1713312703e+01   7.3560855982e+01    0.4536054    0.3688522  30.80   0.00284909    1.810    0.448
        14 -11.6144     15.9888      8.2950   8.9283246593e+01   7.2011526299e+01     0.547973    0.4295161 -22.62  0.001629682    1.153    0.133
        15 -10.7896    182.1338     13.2222   4.3483312828e+01   3.7805840991e+01    0.6430553    0.3183202  59.19  0.002728082    1.829    0.453
        16  -9.6727    187.3501      8.5464   4.1544850484e+01   3.6966037843e+01    0.3778054    0.2462869  38.96  0.001923508    1.835    0.455
        17 -10.4242     57.9606     13.4531   7.2188008699e+01   6.5924299197e+01     0.399097    0.2613594  35.31  0.001558489    1.465    0.317
        18 -10.3720    119.8166     12.3442   5.3404140520e+01   5.3430876761e+01    0.3981696    0.2435241 -37.94  0.001252423    1.833    0.454
        19  -9.8773    123.4749     11.5185   5.2322630025e+01   5.2640453363e+01    0.2886897    0.2393672  49.71  0.001033784    1.077    0.072
        20  -9.7103    210.2676      9.6277   3.9444848112e+01   3.1212754637e+01    0.4108215    0.2516941 -38.35  0.001717521    1.583    0.368
        21  -9.0041    212.8431      5.7790   3.8243195702e+01   3.0991089077e+01     0.237071    0.1731645 -79.22  0.001186406    1.255    0.203
        22  -9.0369    129.1272     10.9004   5.0965244410e+01   5.1337392717e+01     0.193532    0.1795259 -68.03 0.0004762965    1.228    0.186
        23  -8.6164     93.4110     10.6374   5.9124828370e+01   5.9541991093e+01     0.171692    0.1510679 -59.35 0.0007442348    1.522    0.343
        24  -9.8999     47.2724      9.0356   7.4382102339e+01   6.8132440761e+01    0.3172988    0.2149874   9.76  0.001579322    1.352    0.260
        25  -8.4342    238.2440      8.9986   3.6880761339e+01   2.4761826531e+01    0.1609391    0.0977838 -34.61 0.0005721988    1.596    0.373
        26  -8.9038     40.3010      8.4153   7.7149075965e+01   6.9204537552e+01    0.2297389    0.1784162 -32.15   0.00153169    1.459    0.315
        27  -9.1448     37.9354      4.5566   7.6213672316e+01   7.0011987152e+01    0.1564571     0.122148  15.78 0.0002652842    1.192    0.161
        28 -10.9421     22.2189     15.6602   8.9532848158e+01   7.0288088570e+01    0.5858791    0.3694719 -31.21  0.003761903    1.261    0.207
        29 -10.4310     19.4653     10.9030   8.8702222573e+01   7.1290297078e+01    0.2077925    0.1587727  -6.91 0.0003486128    1.120    0.107
        30  -9.0195    158.5320      6.9063   4.4713220151e+01   4.4390811361e+01    0.2470657    0.1715367  88.16 0.0005365781    1.502    0.334
        31  -9.4201     78.7579      6.8572   6.1707980326e+01   6.2912018250e+01     0.272137     0.178244  23.53  0.001524191    1.429    0.300
        32  -8.7282    108.1223      5.5913   5.3322245915e+01   5.6768204980e+01     0.224129    0.1782068 -29.40 0.0009218191    1.403    0.287
        33  -9.4470    103.6496      1.8479   5.2805768659e+01   5.8095881352e+01    0.3512178    0.1967059  77.53 0.0008850152    2.487    0.598
        34  -9.2576    127.4323      5.0524   4.9140237100e+01   5.2271448756e+01    0.2672161    0.1836706  59.81   0.00102743    1.292    0.226
        35  -9.1175     25.8237      4.2495   8.1976674407e+01   7.1570352479e+01    0.2263201    0.1686151 -45.93 0.0009905954    1.955    0.488
        36  -9.0837     22.2087      3.4104   8.3414177999e+01   7.2086375289e+01    0.1632908     0.142258 -11.29 0.0006936467    1.374    0.272
        37  -9.6996     90.5130      3.4537   5.6758314894e+01   6.0828359167e+01    0.3455879    0.2559218  80.40  0.001272205    1.899    0.473
        38  -9.1405     85.1389      1.2691   5.7242048087e+01   6.2139719508e+01    0.2074832    0.1017666  53.68            0    1.843    0.457
        39  -9.5946     51.1385      2.9849   6.9631693564e+01   6.8239872679e+01    0.3429629    0.1962929  32.49  0.001974244    1.583    0.368
        40  -8.7429     30.7347      2.9575   7.8802407182e+01   7.1150518004e+01    0.1679273    0.1200217 -14.77 0.0003834749    1.124    0.110
        41  -9.1002    242.0559      1.5652   3.4950817651e+01   2.4707082079e+01    0.1710756    0.1314337  89.64 0.0005996723    1.186    0.157
        42  -8.8353    231.1866      2.1880   3.5876665480e+01   2.7074769573e+01    0.1811851    0.1219049 -63.93 0.0005828973    1.314    0.239
        43  -9.1272    189.9410      1.7499   3.9399772373e+01   3.6969399743e+01    0.3427579    0.1523227 -84.66 0.0006657398    2.933    0.659
        44  -8.2030     42.2391      1.9945   7.2883735654e+01   6.9708226954e+01    0.1456146   0.08575804 -23.30 0.0007241165    1.528    0.346
        45  -8.6612    137.5166      1.3351   4.6054038589e+01   5.0116509218e+01    0.2141927    0.1136589  67.95 0.0005503986    1.711    0.416
        46  -8.2842     65.9590      1.2171   6.3167560362e+01   6.5880794824e+01    0.1593024   0.09065573  47.44 0.0006768512    1.668    0.400
        47 -10.0991     17.6555    103.9054   1.1579498525e+02   5.2308393319e+01    0.4283348    0.3306414  38.35  0.002777952    1.560    0.359
        48 -10.8649     18.7960    108.9778   1.1620806030e+02   5.1028510112e+01    0.5329985    0.2123646  39.90  0.002492893    2.869    0.651
        49  -9.1216     62.8523    111.6392   1.0329630351e+02   4.5936756368e+01    0.2529804    0.1695198 -50.39 0.0007585545    1.349    0.259
        50  -9.1300    127.9334    109.6495   8.3922740037e+01   3.5144492722e+01    0.3456287    0.2162152 -30.56  0.001405015    1.880    0.468
        51  -8.9620     90.5183    111.1953   9.4870737093e+01   4.1919588575e+01     0.291721     0.197991  45.46  0.001001537    1.588    0.370
        52  -9.2039     27.5198    108.6440   1.1353186626e+02   5.0421376254e+01    0.3688161    0.1622208 -73.45  0.001652624    2.131    0.531
        53 -10.8454      7.2384    107.9547   1.1948181887e+02   5.2044735842e+01    0.2888682    0.2334965  33.26            0    1.541    0.351
        54 -10.0645      8.3583    102.0483   1.1836093199e+02   5.3354489439e+01    0.4327406    0.1906206 -80.79  0.002047286    2.193    0.544
        55  -8.5638     71.8072    107.8078   9.9712432209e+01   4.5633179234e+01    0.1873357    0.1584976 -84.12 0.0002951027    1.282    0.220
        56  -8.5310     34.8476    107.2060   1.1104625843e+02   5.0118064789e+01    0.1851014    0.1290094 -48.45 0.0008286745    1.329    0.247
        57  -9.4515    123.1568    104.0339   8.3687394782e+01   3.7388761730e+01     0.489004    0.2336377 -37.54  0.001771652    2.262    0.558
        58  -8.2493     45.4436    106.1965   1.0756584292e+02   4.9304734571e+01    0.1773329    0.1166695 -74.33 0.0003450216    1.497    0.332
        59  -8.6306     41.2495    105.9528   1.0882936813e+02   4.9798090722e+01    0.1906181    0.1524373 -61.54 0.0005509129    1.050    0.048
        60 -10.6514     79.8140    103.3596   9.6183183530e+01   4.5493760262e+01    0.3850787    0.3206251 -23.70   0.00158326    1.325    0.245
        61  -9.5073     73.6921    103.8918   9.8211555943e+01   4.6290521915e+01    0.3673711    0.2017395  52.55  0.001499358    2.363    0.577
        62  -9.6203     52.1320     91.6272   1.0225479197e+02   5.2006151693e+01    0.3709362    0.2189884 -67.39  0.001419097    1.755    0.430
        63 -11.3373     53.4496     98.8932   1.0349010983e+02   5.0146961497e+01    0.7332964    0.4875111 -81.95  0.003616388    1.856    0.461
        64 -10.0817     58.7208    100.2117   1.0208723365e+02   4.9194376607e+01     0.341204     0.177733  21.36  0.001071511    2.545    0.607
        65  -8.4793     48.9959    105.0267   1.0621847799e+02   4.9197763928e+01    0.1655642     0.129347 -60.59 0.0003037305    1.096    0.088
        66  -8.0979    142.3188    104.6783   7.8841782325e+01   3.3088187342e+01    0.1607977    0.1269635 -83.03 0.0007043669    1.668    0.400
        67 -10.3897    108.6406    103.0815   8.7491164545e+01   4.0523165047e+01    0.4253333    0.2664051  32.33 0.0007660686    1.807    0.446
        68  -8.0455     90.0092    102.0278   9.2720793507e+01   4.4149414646e+01    0.1722958    0.1592561 -47.10 -0.003769674    1.005    0.005
        69  -9.3036     41.4627    101.4191   1.0788359036e+02   5.0857919864e+01    0.3729493    0.2055649 -21.21  0.001177022    2.990    0.666
        70  -8.6837     95.0785    101.1485   9.0958326194e+01   4.3474222362e+01    0.2353829    0.1990529 -20.55   0.00113498    1.295    0.228
        71  -9.1576    101.6786     99.0000   8.8408895329e+01   4.2765416614e+01     0.317806     0.161887  52.15  0.001202925    2.433    0.589
        72 -10.2303     69.3430     97.0621   9.7920515071e+01   4.8520085402e+01    0.3923513    0.2307531 -59.13  0.001262996    1.620    0.383
        73  -8.4214     27.8648     97.8769   1.1157827404e+02   5.2944969672e+01    0.1608695     0.138018  80.21 0.0009658745    1.289    0.224
        74  -9.1609     18.6150     97.8514   1.1453658305e+02   5.3662264260e+01    0.2169807     0.172036  75.69 0.0005493307    1.411    0.291
        75  -9.4319     15.7099     95.3774   1.1505907129e+02   5.4441395220e+01    0.2098662    0.1826198  65.36  0.000686697    1.342    0.255
        76  -9.2416    148.0664     96.1537   7.5016170345e+01   3.3548375960e+01    0.2408294    0.2109276   8.67 0.0002665493    1.273    0.214
        77  -9.8882     79.8211     94.9970   9.4038439535e+01   4.7435381068e+01    0.3328235    0.2893829 -17.48  0.001836375    1.234    0.190
        78  -9.7793    132.5299     93.7836   7.8268098703e+01   3.7569970769e+01    0.2783879    0.2170881  41.15 0.0003523039    1.313    0.239
        79 -10.0510     37.8376     93.6543   1.0748709649e+02   5.3048646123e+01    0.2356965    0.1857188 -57.49 0.0001291417    1.054    0.051
        80  -9.0307      1.2072     94.0403   1.1946004339e+02   5.5602617158e+01    0.2415942   0.09233131 -72.65    0.0004161    2.057    0.514
        81  -9.9905      1.5212     90.5177   1.1886570611e+02   5.6393766902e+01    0.5731388     0.191102 -39.62  0.002451705    3.367    0.703
        82  -9.4604    153.3602     93.0153   7.2841132471e+01   3.2939953035e+01    0.2252589     0.193934 -36.35 0.0003719545    1.146    0.127
        83  -9.9148     89.3737     92.2867   9.0289809633e+01   4.6480376160e+01    0.2846055    0.2608316 -13.13 0.0005949343    1.129    0.114
        84  -8.6016      9.3089     93.0975   1.1675196272e+02   5.5375447771e+01    0.1690671    0.1272002 -70.66 0.0003559574    1.080    0.074
        85 -10.1955    139.5152     89.8784   7.5315702782e+01   3.6795022761e+01    0.4926484    0.2522262 -28.86  0.001748052    2.442    0.590
        86 -11.0520    121.0915     87.8408   7.9598386828e+01   4.1302977482e+01    0.4909774     0.431298 -85.52 0.0003203577    1.367    0.268
        87  -8.5518     96.9019     96.0000   8.9010653924e+01   4.4317945753e+01    0.2354997   0.08651832  39.85 0.0007949389    2.891    0.654
        88  -9.2399     43.3057     90.7919   1.0503419187e+02   5.3172341101e+01    0.2807666    0.2056538  56.97  0.001558593    1.725    0.420
        89  -8.8489     16.1670     89.4777   1.1391011831e+02   5.5780250184e+01    0.2779586    0.1081149 -52.83  0.001319734    1.970    0.492
        90 -10.2406    131.6044     86.8749   7.6463013971e+01   3.9197883953e+01    0.3882218    0.2741264 -30.82 0.0009677732    1.473    0.321
        91 -10.3588    135.0510     83.0812   7.4411508618e+01   3.9175806484e+01     0.332095    0.3127977 -80.96 0.0003621843    1.169    0.144
        92  -9.8755    109.5666     87.5216   8.2787031685e+01   4.3758783960e+01    0.4681858      0.31535 -60.62  0.002049346    1.796    0.443
        93  -8.8614     56.9964     89.0081   9.9978297507e+01   5.2027035687e+01    0.2140149    0.1657422  78.12   0.00113376    1.729    0.422
        94  -9.3456    102.1192     87.0450   8.4856641692e+01   4.5319898756e+01    0.3278042    0.1948494  36.54  0.001415812    1.805    0.446
        95  -9.0659     85.6623     87.0760   8.9983779959e+01   4.8272751155e+01    0.2366736    0.2040685  47.79 0.0008568849    1.295    0.228
        96 -10.0051    173.9551     84.7043   6.5876050942e+01   2.9556423048e+01    0.2545438    0.2221406   3.40 0.0006055831    1.295    0.228
        97 -10.5480     75.8466     82.4986   9.1865715597e+01   5.0868556310e+01     0.389638    0.2788801 -56.71  0.001256993    1.408    0.290
        98  -8.9429     81.1342     84.9092   9.0820569861e+01   4.9499218297e+01    0.2909183     0.209942 -19.36  0.000950064    1.645    0.392
        99  -9.0644     80.3093     80.9979   8.9943631409e+01   5.0489597633e+01    0.2334696    0.1988041   8.86 0.0007156211    1.276    0.216
       100  -9.2922     66.0569     84.5747   9.5745427840e+01   5.1844608696e+01    0.2525751    0.1777727 -45.74  0.001315824    1.257    0.204
       101 -10.3337     46.1287     83.9392   1.0245379604e+02   5.4454097675e+01    0.2476862    0.2259396 -57.81   0.00156862    1.106    0.096
       102  -9.7212     41.0277     83.0778   1.0403318853e+02   5.5184900620e+01    0.4166871      0.24524 -86.00  0.001798436    2.827    0.646
       103  -8.5743     26.9725     84.6645   1.0930848911e+02   5.6095216663e+01    0.1700605    0.1485528 -55.67 0.0004666967    1.077    0.071
       104 -10.4545    157.8044     83.6629   6.9073561698e+01   3.3687808914e+01    0.3851098    0.2639329  24.76  0.001608856    1.898    0.473
       105  -7.9698     57.2550     84.2768   9.8675951261e+01   5.3076005617e+01    0.1338437   0.09371347 -31.88 0.0001865682    1.462    0.316
       106  -8.4150     33.8526     84.1560   1.0679974634e+02   5.5623976937e+01    0.1737665    0.1273938 -40.81 0.0003693264    1.253    0.202
       107 -11.0240    144.2160     81.1975   7.1533311480e+01   3.7409639086e+01    0.4925084     0.368293  72.73  0.001883668    1.671    0.401
       108  -9.3403     96.7171     79.0020   8.4060084943e+01   4.8047651347e+01    0.2256532    0.2113488 -15.45 0.0004182364    1.031    0.030
       109 -11.6969    104.6947     78.5323   8.1469057236e+01   4.6608324917e+01    0.6789794    0.5218675  -3.07  0.001234545    1.584    0.369
       110 -10.2001    110.4807     71.8355   7.7595079399e+01   4.6770556492e+01    0.4060944    0.2941754  -8.19   0.00104693    1.737    0.424
       111 -10.3431     98.9498     74.4166   8.1910747495e+01   4.8567716923e+01    0.4247516    0.3168305 -52.01  0.001093441    1.420    0.296
       112 -10.0926     97.0422     69.2049   8.0798078730e+01   4.9973986648e+01    0.3380012    0.2230133 -38.60 0.0004983654    1.443    0.307
       113  -8.7815     70.6741     83.5408   9.3897408973e+01   5.1416900146e+01    0.2340719    0.1418894  25.76 0.0007026008    1.933    0.483
       114 -11.0952      5.6720     79.1345   1.1567609168e+02   5.8768641193e+01    0.5427634    0.3168954 -71.76  0.002037329    1.436    0.304
       115 -11.1459    124.9059     85.5377   7.7852679169e+01   4.0953501626e+01    0.5781754    0.3782217 -45.83  0.001439609    1.522    0.343
       116  -9.4390     55.5807     80.2552   9.8186650133e+01   5.4190562710e+01    0.2958546    0.1973638 -43.14  0.001560416    1.319    0.242
       117  -9.6873     64.3007     70.4851   9.2256838830e+01   5.5169503417e+01    0.3789193    0.2871392  42.57  0.001825117    1.543    0.352
       118  -8.9317     51.1125     80.8967   9.9931232450e+01   5.4583484099e+01    0.2261774    0.1706659 -53.14 0.0003946396    1.159    0.137
       119  -9.2695     49.2806     77.0289   9.9556681489e+01   5.5661034753e+01    0.2418069    0.2320095 -48.93 0.0007129724    1.148    0.129
       120  -9.3555     53.7039     74.9868   9.7399697621e+01   5.5589172913e+01    0.3977666    0.2158616 -21.95  0.001638518    2.788    0.641
       121  -9.8391     57.9840     71.1138   9.4724923371e+01   5.5890349682e+01    0.3342132    0.2513437  -5.43  0.001402105    1.523    0.343
       122  -8.9469     22.0318     80.6562   1.1020991411e+02   5.7393594724e+01    0.1989956    0.1882072 -82.06 0.0009344685    1.220    0.180
       123  -9.8115     21.0726     75.6716   1.0949727225e+02   5.8591084322e+01    0.3141434    0.2213023 -81.74 0.0009267404    1.586    0.370
       124 -10.4570    153.6114     79.6093   6.8819890899e+01   3.5461738136e+01     0.477664    0.2673055  52.98  0.001317796    1.813    0.449
       125  -8.4972     15.3220     78.9769   1.1225095423e+02   5.8239341709e+01    0.1731423    0.1307923 -62.14 0.0007698201    1.075    0.070
       126  -8.4251     28.3891     77.8989   1.0733429416e+02   5.7521709078e+01    0.1834003   0.08887573 -50.17 0.0004208904    1.638    0.389
       127 -10.6277    136.8708     71.2884   7.0254596464e+01   4.0998499234e+01    0.4806051    0.3081276 -53.52  0.002037259    1.831    0.454
       128 -10.5731     76.9314     75.1258   8.9292379593e+01   5.2293100725e+01    0.5645679    0.2700565  31.12  0.001523956    2.420    0.587
       129  -8.7536     35.9907     76.2790   1.0418564772e+02   5.7214341647e+01    0.1705264    0.1473447 -45.60 0.0002580059    1.051    0.048
       130 -10.6732    158.3201     73.7596   6.5983221840e+01   3.5378175701e+01    0.4464566    0.3327015  12.73  0.001290918    1.757    0.431
       131 -11.5340    162.8527     67.4655   6.3089390175e+01   3.5350071166e+01    0.9067154    0.4358626  34.58   0.00298664    3.133    0.681
       132 -10.8973    152.0457     73.3982   6.7282026412e+01   3.6978942486e+01     0.495523    0.3472333 -34.26 0.0007916421    1.430    0.301
       133 -11.0347    152.5724     65.9851   6.4851572763e+01   3.8151273944e+01    0.4198373    0.3755735  57.02  0.001481319    1.123    0.110
       134  -9.6006    151.2913     62.2933   6.3968086310e+01   3.9090806871e+01    0.2261803    0.2125531  24.13 0.0001676412    1.082    0.075
       135 -10.3272    129.0676     75.5448   7.3622893987e+01   4.2004233178e+01    0.3989789    0.1519613  49.42  0.001070758    2.675    0.626
       136  -9.4605     10.6613     73.7695   1.1290086073e+02   5.9697130682e+01     0.298957    0.1870872  58.90  0.000908123    2.278    0.561
       137  -9.5319     44.5593     72.6555   1.0009148833e+02   5.7153169021e+01    0.3392136    0.2603049  18.11   0.00176831    1.489    0.328
       138  -8.9504     38.8851     71.4565   1.0187745385e+02   5.8004998848e+01     0.196583    0.1528308   1.19 0.0004756282    1.469    0.319
       139  -8.9617    177.5157     72.0069   6.1493302759e+01   3.0918109169e+01    0.2362101    0.1500888 -33.86 0.0006342949    1.568    0.362
       140  -9.0400     16.8980     70.9368   1.1000457618e+02   5.9938567569e+01    0.3845104    0.1415505 -44.00  0.001757669    2.303    0.566
       141 -11.3423    142.5277     68.3864   6.7938555638e+01   4.0177425392e+01    0.5442167     0.392431 -21.30  0.001468115    1.537    0.349
       142 -10.1718    109.8335     62.2388   7.4554178455e+01   4.8711059427e+01    0.4946425    0.4881931 -52.18  0.002812108    1.135    0.119
       143  -8.8155     27.9813     68.6390   1.0526796306e+02   5.9617526637e+01    0.1989875    0.1373837 -22.31  0.001163181    1.555    0.357
       144  -9.2509    112.0084     55.8485   7.1692321012e+01   4.9372212544e+01    0.3055211    0.2263477 -10.83 0.0006516399    1.518    0.341
       145  -9.2666     89.0731     66.8586   8.2565996816e+01   5.1921195287e+01    0.3810909    0.2687374 -75.68 0.0009590666    2.511    0.602
       146  -9.0808     14.8540     67.8077   1.1008255037e+02   6.0763006434e+01    0.1759205    0.1275322 -45.47 0.0003055074    1.138    0.121
       147  -8.7129    116.6025     66.2979   7.3998339348e+01   4.6515393618e+01    0.2130117    0.1406331 -26.16 0.0007279406    1.621    0.383
       148  -9.0295     79.1033     64.1054   8.4979624616e+01   5.4200263143e+01    0.3041862    0.2670586 -55.78  0.001727323    1.296    0.228
       149 -10.5946     44.6251     63.1497   9.7331392980e+01   5.9190616604e+01    0.3417581    0.2940365  19.84  0.002168526    1.315    0.240
       150 -10.7220      2.2401     62.4910   1.1379354033e+02   6.2620661675e+01    0.3133649    0.1672368 -65.94 0.0003767241    1.502    0.334
       151 -10.3367      5.7001     59.0025   1.1168167437e+02   6.3202208288e+01    0.2456798    0.2191908  25.33 0.0007502941    1.446    0.308
       152  -9.2606    201.1998     64.6199   5.5233668233e+01   2.6245853791e+01    0.2087659    0.1326357  50.33 0.0003824442    1.644    0.392
       153 -11.0110    172.4625     61.6678   5.9409123592e+01   3.3895815852e+01    0.5426934    0.3268205 -29.54  0.001717926    1.731    0.422
       154  -9.5941    129.8075     61.6377   6.8882119593e+01   4.4369631048e+01    0.3716328    0.1465816  49.89  0.001308912    2.484    0.597
       155  -8.8562     92.3792     63.9361   8.0498931982e+01   5.1880172347e+01    0.2397243    0.2013122  52.26 0.0007118096    1.378    0.274
       156  -9.8216     32.1208     62.8391   1.0212304841e+02   6.0514225778e+01    0.3288341    0.2509088  85.97  0.001567185    1.934    0.483
       157  -9.6588    105.1502     67.1908   7.7630996082e+01   4.8761715493e+01    0.3621088    0.2913181 -82.20 0.0008967029    1.794    0.443
       158  -9.0067     72.0478     62.9223   8.7045350509e+01   5.5575370749e+01    0.3343751    0.1889747  59.49  0.001253049    3.610    0.723
       159  -9.0922     66.5479     62.5674   8.8902281734e+01   5.6481303656e+01    0.2350654    0.1255832 -55.95  0.001014059    2.189    0.543
       160  -8.5887    219.4922     61.5060   5.1684601443e+01   2.2314496640e+01    0.1443049    0.1306466 -58.44 0.0008105004    1.024    0.023
       161  -9.4657    162.6815     60.9058   6.1108385757e+01   3.6480871418e+01    0.2478087    0.1960886  -4.21   0.00118398    1.510    0.338
       162  -9.5764    121.1048     60.7064   7.0858767226e+01   4.6523294696e+01    0.2967151    0.2161996  17.96  0.001374048    1.640    0.390
       163  -7.9530     84.6843     61.2434   8.2098843644e+01   5.3797052411e+01    0.1276633    0.1140626  81.70 0.0001893618    1.513    0.339
       164  -9.5764     93.7052     59.6607   7.8583731834e+01   5.2433913194e+01    0.2319052    0.1942274  -6.52 0.0008082017    1.199    0.166
       165  -9.5968     96.0753     56.0938   7.6558495161e+01   5.2622714437e+01    0.3763921    0.2716262 -24.72 0.0009215996    1.381    0.276
       166  -8.8969     88.9470     60.0404   8.0261151763e+01   5.3255600356e+01    0.2357932     0.169679  -0.62  0.001136183    1.686    0.407
       167 -10.4652     59.6065     57.5986   8.9796741985e+01   5.8462930416e+01    0.4051879    0.3678727  -8.52  0.002539414    1.102    0.093
       168  -9.9665    159.5834     57.1985   6.0586299397e+01   3.7852471125e+01     0.412077    0.2791672  -6.50   0.00112915    1.997    0.499
       169 -10.0145    162.4058     53.0304   5.8712271478e+01   3.7788309688e+01    0.3712017    0.2766902 -27.06 0.0009530705    1.404    0.288
       170 -11.1277    200.1862     56.4302   5.3146515888e+01   2.7751930386e+01     1.056004    0.5938738  20.52  0.003442883    4.116    0.757
       171  -9.8765    206.2230     54.0096   5.1589309766e+01   2.6624046702e+01      0.39351    0.2591133 -23.97  0.001086814    1.675    0.403
       172 -10.5193    203.5121     51.5401   5.1313811529e+01   2.7650186391e+01    0.5564093    0.3836645 -85.55  0.001862259    1.704    0.413
       173  -9.2483    184.5198     57.3998   5.5962758285e+01   3.1522700650e+01    0.3151436     0.217827  48.76 0.0008777032    1.485    0.326
       174 -10.1220    150.5496     57.8433   6.2706342899e+01   4.0004206920e+01    0.3074505    0.2835437  -3.01  0.001642703    1.133    0.117
       175 -10.2501    146.4290     55.8462   6.2970409751e+01   4.1342421043e+01    0.4507232    0.3034495  28.61  0.001483982    1.786    0.440
       176  -9.0596    144.7319     52.6784   6.2307056819e+01   4.2259686526e+01    0.2358656    0.1736207  40.73 0.0001963548    1.369    0.269
       177  -9.1576     69.2740     57.1484   8.6053431342e+01   5.7137589756e+01    0.3155385    0.1646673 -40.73  0.000958973    1.739    0.425
       178  -8.9934     50.4546     59.8655   9.4051239195e+01   5.9194778961e+01    0.1845118    0.1564632 -28.85 0.0004770102    1.027    0.027
       179  -9.9784     36.3379     53.5328   9.7642275589e+01   6.2050038365e+01    0.3147787    0.2268879 -45.16  0.001080313    1.167    0.143
       180  -9.4712     30.6382     56.0425   1.0075618729e+02   6.2077927242e+01    0.2061021    0.1633198 -15.89  0.000604291    1.263    0.209
       181  -9.0281     29.4556     52.5224   1.0017650915e+02   6.2907349464e+01    0.1958143     0.145778 -51.41 0.0001085018    1.208    0.172
       182 -10.1326     81.4917     42.9829   7.6422781326e+01   5.7620945060e+01    0.2682061    0.1271147 -32.40  0.001146333    2.071    0.517
       183 -10.2188     84.5283     47.3058   7.7063884582e+01   5.6345170757e+01    0.3896433    0.3214159  16.23  0.001304926    1.184    0.155
       184  -9.2585     81.5405     53.2234   8.0297709068e+01   5.5844195736e+01    0.2829333    0.2018535  -3.48  0.001227962    1.629    0.386
       185  -9.4057    105.2077     56.0758   7.3753217068e+01   5.0778491135e+01    0.2512605    0.2062352  47.30  0.001324386    1.278    0.217
       186  -9.0182     26.0917     56.1130   1.0264116289e+02   6.2455570112e+01    0.1789157    0.1485406 -41.42 0.0004202901    1.053    0.050
       187  -8.9494    221.8795     55.2145   4.9749969819e+01   2.2682615264e+01    0.2148105    0.1748391 -61.81 0.0004484255    1.180    0.152
       188 -10.7388    174.0720     51.6997   5.6111760948e+01   3.5029804986e+01    0.6526887    0.2011816 -34.55  0.002129239    3.069    0.674
       189  -9.7175    134.9068     53.0943   6.4725732158e+01   4.4582211130e+01    0.3710726    0.2247063 -32.63  0.001637555    1.673    0.402
       190 -10.5965    124.6881     49.9530   6.6174449539e+01   4.7490763255e+01    0.6017025    0.5158559  43.79  0.003227267    1.136    0.120
       191 -10.4837    106.7764     51.1492   7.1511317005e+01   5.1286468315e+01    0.2690565    0.2326298  45.29 0.0003066561    1.197    0.164
       192  -8.5437     23.5955     50.1838   1.0193361943e+02   6.3880065250e+01    0.2421743    0.1874676   7.80  0.001081619    1.444    0.307
       193  -9.3160     14.9439     51.5473   1.0600912442e+02   6.4233042594e+01    0.1868801    0.1476331 -28.17 0.0004048712    1.184    0.155
       194  -9.8298     18.4927     50.5428   1.0421625625e+02   6.4195148034e+01    0.2788523    0.2177175 -36.64  0.001126426    1.066    0.062
       195  -8.3118    234.4830     51.4646   4.7251950738e+01   2.0302344248e+01    0.1361351     0.123284 -56.84 0.0001130087    1.033    0.032
       196  -9.1696    179.4529     51.0559   5.4975265238e+01   3.3758357211e+01    0.2256843    0.1427891 -34.53  0.001020574    1.577    0.366
       197  -9.3161    150.0496     51.3342   6.0702792624e+01   4.1149905696e+01    0.2140995     0.190983  57.89  0.001091234    1.104    0.094
       198 -11.2794     58.7068     47.8848   8.6677390499e+01   6.0446277494e+01    0.4926816    0.3094232  16.39  0.001911475    1.844    0.458
       199  -9.6754    213.1003     49.4536   4.9421294347e+01   2.5606627832e+01    0.3104582    0.2244329  56.53 0.0008815927    1.437    0.304
       200  -9.0871    112.6122     49.4846   6.9238008276e+01   5.0296869952e+01    0.3332013    0.2395252  83.47 0.0007525505    2.272    0.560
       201  -9.1970     49.2938     49.3521   9.0942706793e+01   6.1420413033e+01    0.2463697    0.1704539 -19.55  0.000825655    1.437    0.304
       202 -10.0414     46.0677     47.2571   9.1504687517e+01   6.2213951067e+01     0.266252    0.2041825   2.17  0.001612998    1.338    0.252
       203  -9.3300     96.6768     48.2023   7.3466149773e+01   5.3860595500e+01    0.3940054     0.290954 -16.88  0.002027308    1.387    0.279
       204  -8.8945    100.9992     48.0000   7.2064732333e+01   5.3014335499e+01    0.3231632    0.1876594  53.79  0.001437906    1.936    0.483
       205  -9.0054      5.9844     48.2775   1.0896708728e+02   6.5442322870e+01    0.2310636    0.1179659 -36.68  0.001113747    1.682    0.405
       206  -8.8711    231.0579     47.9231   4.6786449228e+01   2.1580505518e+01     0.205336    0.1631821  28.21 0.0005602479    1.673    0.402
       207  -8.6544    221.3732     48.1721   4.8020116462e+01   2.3806990893e+01    0.2558055   0.09689049  62.11 0.0009211364    2.622    0.619
       208  -8.7174     90.6687     47.9071   7.5263238046e+01   5.5089889448e+01    0.2605292    0.1735362  34.14  0.001292952    1.514    0.340
       209  -9.0769     34.7682     47.0748   9.6167194628e+01   6.3492478887e+01    0.2979436    0.2125232 -57.19   0.00147622    1.506    0.336
       210  -9.1760     35.6829     42.1377   9.4039715759e+01   6.4346868740e+01    0.2413253    0.1930735 -47.20  0.001547598    1.276    0.216
       211  -7.9345     28.3373     48.2627   9.9306483681e+01   6.3866055175e+01    0.1266384   0.07792635 -25.82 0.0006969437    1.585    0.369
       212  -9.0180     10.7307     48.2803   1.0691534322e+02   6.5172534572e+01      0.21269     0.142478 -11.14 0.0008450061    1.627    0.385
       213  -7.9665     15.6761     47.2435   1.0447100619e+02   6.5065757078e+01   0.09954375   0.09087659  73.01 0.0002459177    1.529    0.346
       214  -8.2925    186.4515     46.4838   5.2482793363e+01   3.2642864219e+01     0.144951    0.1379552 -79.26 6.498503e-05    1.008    0.008
       215  -8.7193    175.0033     44.7373   5.3849591572e+01   3.5798688441e+01    0.1999529    0.1796203  66.93 0.0003488781    1.080    0.074
       216 -11.0479    167.2263     43.3769   5.4793884570e+01   3.7971449600e+01    0.3632534    0.3234446  29.74  0.001238067    1.205    0.170
       217  -9.4290    155.6829     45.5874   5.7674134673e+01   4.0588225353e+01    0.2946476    0.1306286  54.28  0.001102884    2.103    0.524
       218 -10.2264    142.4772     43.2182   5.9632436468e+01   4.4226841305e+01     0.522444    0.3247659  34.85  0.002078427    1.801    0.445
       219  -9.3020    108.8300     44.1832   6.8347011776e+01   5.1958176600e+01    0.3778884     0.230179  56.72   0.00171977    1.818    0.450
       220  -8.0106      1.2632     45.2770   1.1024674676e+02   6.6293447727e+01    0.1170311   0.06238826 -41.06 -0.000275831    1.475    0.322
       221  -9.6001     55.1904     41.4779   8.5623565960e+01   6.2095602996e+01     0.320257    0.2770244 -12.15  0.001874087    1.057    0.054
       222  -8.8372    187.3622     42.9558   5.1323154920e+01   3.2903689666e+01    0.1995758    0.1848882 -40.32 0.0006707259    1.105    0.095
       223  -8.6413     86.1209     54.5205   7.9220734310e+01   5.4789287668e+01    0.2065234    0.1379876  42.41  0.001019661    1.577    0.366
       224  -8.9076     78.3967     55.8742   8.2349366543e+01   5.5900757189e+01    0.2645006    0.1714237 -26.92 0.0009418677    1.549    0.355
       225  -8.3714     74.3203     43.6786   7.9212641900e+01   5.8762468115e+01     0.125962    0.1109446 -74.36  0.000325596    1.671    0.401
       226  -8.4304     70.0052     43.0469   8.0535009280e+01   5.9586990125e+01    0.1543756    0.1341563  -6.05 0.0009257421    1.025    0.025
       227  -9.3862     69.2494     36.6128   7.8226880670e+01   6.0775340885e+01    0.3359604    0.2187859  30.02  0.001620835    1.544    0.352
       228  -9.9677     63.4134     41.0483   8.2225498139e+01   6.0969947879e+01    0.2950659    0.2087599 -29.49 0.0007092729    1.266    0.210
       229  -9.2477     62.7150     36.1886   8.0527732658e+01   6.1890292748e+01    0.3315985    0.2540008  26.17  0.001270271    1.310    0.237
       230  -8.9297     44.3300     42.3603   9.0427175897e+01   6.3338433832e+01    0.2617109    0.1795986 -17.68 0.0009454768    1.423    0.297
       231 -10.2333     47.0319     36.8141   8.7135939905e+01   6.3999406568e+01    0.5077943    0.4214084 -39.18   0.00325652    1.271    0.213
       232  -9.0841     99.2132     41.4010   7.0097136384e+01   5.4426848085e+01    0.2974762    0.2344054 -78.92  0.001476036    2.019    0.505
       233  -9.0734    197.3958     41.0281   4.9303348887e+01   3.0640147950e+01    0.2761307    0.1995186  77.70 0.0009679711    1.405    0.288
       234  -9.9666    149.7345     39.5924   5.6898900665e+01   4.2924025081e+01    0.5156872    0.2653959 -48.56   0.00192308    2.309    0.567
       235 -10.5944    127.5005     37.0858   6.0883111877e+01   4.8718292950e+01    0.4647301    0.4247232  80.26  0.001797972    1.233    0.189
       236  -9.3220     27.5347     36.4088   9.5567353536e+01   6.6220899487e+01    0.2078803    0.1598725 -32.01 0.0005593647    1.029    0.028
       237 -10.3871     32.2794     37.1583   9.3701387442e+01   6.5622476999e+01    0.5642809    0.1957906 -42.99  0.002072092    2.323    0.569
       238  -9.2201    227.9501     39.5271   4.5074336976e+01   2.3439079180e+01    0.2422908    0.1862822  30.77   0.00130024    1.751    0.429
       239  -8.7244     37.0296     32.2975   8.9666633674e+01   6.5983777393e+01     0.166582    0.1497688 -20.47 0.0003728337    1.227    0.185
       240 -10.3866    161.6517     37.8529   5.4062809826e+01   4.0142422932e+01    0.3179264    0.2576512  50.18 0.0003398831    1.197    0.165
       241  -9.9090    157.6651     37.6941   5.4743228637e+01   4.1176730588e+01    0.6082472    0.2418643  39.22  0.001948511    3.531    0.717
       242  -9.5808    247.3301     35.9550   4.2224237479e+01   1.9531327489e+01    0.4813635    0.2611701 -77.72  0.002246431    2.258    0.557
       243  -8.6713    121.9806     38.1958   6.2628379611e+01   4.9866378344e+01    0.2055555    0.1908968 -72.17  0.000576905    1.267    0.210
       244  -9.2273    120.3733     32.6584   6.0976725007e+01   5.0989011210e+01    0.4247804    0.1618833 -33.64  0.001539657    2.620    0.618
       245  -9.5211     75.0579     37.9025   7.6641959700e+01   5.9584122397e+01    0.2257687    0.1807722 -33.13 0.0003586965    1.251    0.200
       246 -10.1100     81.2866     26.1336   6.9550696338e+01   6.0177225018e+01    0.4016972    0.2857833 -47.31  0.001835906    1.821    0.451
       247  -9.6626     82.3478     36.1821   7.3408173486e+01   5.8539306814e+01    0.3279779    0.2253141 -25.24  0.001184596    1.392    0.282
       248 -10.8833     78.2152     31.5381   7.2895222451e+01   5.9992014235e+01    0.4414994    0.2917665 -23.50  0.001280862    1.451    0.311
       249  -9.3192    191.1799     34.6150   4.8382073815e+01   3.3044789434e+01    0.3382823    0.2422549  57.61  0.001623172    1.371    0.270
       250  -9.8842    194.3795     32.2214   4.7271417517e+01   3.2542796835e+01    0.2276988    0.1948215 -14.74 0.0005944303    1.345    0.257
       251  -8.3040    102.4474     36.5080   6.7239952657e+01   5.4471893055e+01    0.1437648    0.1252884  13.14 0.0001652103    1.070    0.065
       252  -8.6075    106.7202     35.0063   6.5442493740e+01   5.3761284780e+01    0.1918752    0.1705968 -10.77 0.0003668188    1.104    0.094
       253 -10.0333    232.4887     33.4715   4.3111291003e+01   2.3176562468e+01    0.2792201    0.2317029 -39.37 0.0009129831    1.190    0.160
       254  -9.0311    106.3850    247.9564   1.1269074628e+02   1.0028489322e+01    0.2371114    0.1854233 -46.14  0.001609013    1.742    0.426
       255 -10.4589    238.5748     22.6855   3.9980031957e+01   2.3124407820e+01    0.4160937    0.2964027  70.94  0.001568475    1.418    0.295
       256  -9.0113    150.0330     33.9829   5.4974614617e+01   4.3589619758e+01    0.2475668    0.1692994 -19.35 0.0003082328    1.622    0.383
       257  -8.1112     86.4716     34.4603   7.1334989402e+01   5.8015121072e+01    0.1379706    0.1212706   5.19 0.0001040962    1.002    0.002
       258  -9.0592      2.4695     39.3799   1.0811424131e+02   6.7424628866e+01    0.1900264    0.1333844  14.39  0.001197867    1.713    0.416
       259  -9.1121    143.2689     32.1305   5.5684708314e+01   4.5518514883e+01    0.3545254    0.1952579  37.50  0.001499637    2.022    0.505
       260  -9.0557    114.5715     32.8045   6.2491853497e+01   5.2307025734e+01    0.2458275    0.2036327  77.12 0.0006805298    1.487    0.328
       261  -9.0899    110.9608     29.4766   6.2149575990e+01   5.3557662393e+01    0.2947403    0.2365759 -75.23  0.001542011    1.755    0.430
       262  -8.6253    100.4690     33.3059   6.6552303619e+01   5.5342866241e+01    0.2482474    0.1220607  50.98  0.001070176    2.007    0.502
       263  -9.5374    204.2764     41.2324   4.8414559887e+01   2.8902200015e+01    0.3359368    0.1842225 -49.92  0.001132339    1.838    0.456
       264  -9.4542    221.3830     31.2961   4.3755205734e+01   2.6046561412e+01    0.2238841    0.1944609  83.90  0.000230091    1.120    0.107
       265  -9.9345    205.6599     28.0775   4.4718503538e+01   3.0249015759e+01    0.6032848     0.351571  -6.56  0.002552231    2.749    0.636
       266  -9.5251    201.2388     29.2337   4.5565588597e+01   3.1200494149e+01    0.2426824    0.2066743  65.07 0.0003546202    1.171    0.146
       267  -8.9431     57.6626     31.5701   8.0579670074e+01   6.3401747692e+01    0.2514863    0.1505015 -38.15  0.001338777    1.587    0.370
       268 -10.4589    182.1953     27.3272   4.7555960328e+01   3.6222959972e+01    0.6236535    0.3946683  39.28  0.002939823    1.853    0.460
       269 -10.0638    179.1253     22.9092   4.6693810568e+01   3.7518789326e+01    0.3767831    0.2397898 -51.60  0.001332926    1.655    0.396
       270  -8.4292    157.6094     30.2158   5.2337465702e+01   4.2143824715e+01    0.1911234    0.1395446  -8.09 0.0009392654    1.627    0.385
       271  -9.6348    125.6558     30.0337   5.8745494935e+01   5.0079355018e+01    0.2906162    0.1772754  43.98 0.0003298489    1.547    0.353
       272  -8.1613     65.5159     30.0018   7.6842239403e+01   6.2416392774e+01    0.1701709    0.1092262 -53.81 0.0008089714    2.441    0.590
       273  -8.8412     28.0266     29.5079   9.2673604347e+01   6.7417294677e+01    0.2663748    0.1391295 -50.31   0.00142117    1.897    0.473
       274  -8.6491     21.4744     30.7024   9.6251082143e+01   6.7805772189e+01    0.1785137    0.1018918  18.34 0.0008514368    1.927    0.481
       275  -8.8942    229.7365     29.0307   4.2320841321e+01   2.4370305719e+01    0.1846791     0.153354 -50.36 0.0003775111    1.108    0.098
       276  -9.7945    215.4084     27.5576   4.3466583344e+01   2.7938246834e+01    0.4310264    0.2638187  84.96  0.002128529    1.705    0.413
       277  -8.4063     70.1765     29.1869   7.4752607712e+01   6.1757343184e+01    0.1652784    0.1527736 -32.52 0.0004912793    1.324    0.245
       278  -9.4717     47.3647     27.8548   8.3247177083e+01   6.5449905073e+01     0.270719    0.1868939  -4.48 0.0008451894    1.429    0.300
       279 -10.3892     16.1329     27.4116   9.7582903725e+01   6.8834955626e+01    0.3577521    0.2001403 -41.43  0.001790127    1.379    0.275
       280  -9.4337    120.0613     26.2984   5.8663052653e+01   5.1859475705e+01    0.5372847    0.2110917  41.20  0.001994178    2.662    0.624
       281  -9.9460     91.0870    214.6410   1.1210215758e+02   1.8332282663e+01    0.4755799    0.2621329  27.64  0.002065921    2.410    0.585
       282  -8.8418     43.8326     18.8255   8.0694207076e+01   6.7299199902e+01    0.2223721    0.1471245 -43.04   0.00121527    1.748    0.428
       283 -12.5380     76.3025    218.9144   1.1551463298e+02   1.9614168875e+01    0.9614351    0.5610842  46.43  0.003023494    1.473    0.321
       284  -9.5293     31.2190     26.4521   8.9908401508e+01   6.7616483550e+01    0.2816831    0.2289158  -9.51  0.001857328    1.107    0.096
       285  -9.6281     29.6068     23.2339   8.9288335785e+01   6.8321548594e+01    0.2598165    0.1567672 -19.79  0.001512805    1.547    0.354
       286  -8.9522     92.1780     27.4950   6.6658491567e+01   5.7850743194e+01    0.3691198    0.1307572  51.95  0.001200811    2.863    0.651
       287  -8.6142    197.1787     25.7208   4.5114885820e+01   3.2635660458e+01    0.2195638    0.1568483 -84.82 0.0005597448    1.441    0.306
       288  -9.0450     68.5863     25.3315   7.3650179311e+01   6.2581750123e+01    0.2166969     0.112786  40.15  0.001058436    1.894    0.472
       289 -11.1084     69.2654    217.6437   1.1677552589e+02   2.0824364763e+01    0.4324827    0.2518582 -89.94  0.001446062    1.821    0.451
       290  -9.3943      8.0668     22.2352   9.9664832771e+01   7.0341429520e+01    0.2420125    0.1477719  -0.91  0.001158442    1.718    0.418
       291  -9.4566    226.8536     23.0603   4.1162521679e+01   2.5765951936e+01    0.2867694    0.1883731 -79.30   0.00119801    1.538    0.350
       292  -9.3800     58.3064     24.1212   7.7050831083e+01   6.4433419496e+01    0.2049367    0.1508995  17.88 0.0003660626    1.276    0.216
       293 -10.3986    163.8547     22.0809   4.8702581434e+01   4.1503929655e+01    0.4178357     0.248371  48.56  0.000793329    1.643    0.391
       294  -8.8295    117.5689     22.8010   5.7922636777e+01   5.2852629373e+01    0.2535224    0.2048072 -30.50  0.000719642    1.322    0.244
       295  -9.1990    119.8116     19.0958   5.5985830055e+01   5.2739999295e+01        0.258    0.1787497  47.28 0.0005686533    1.300    0.231
       296  -8.9006    123.9939    206.0031   1.0415062761e+02   1.4812028821e+01    0.1858119     0.165123  52.35  0.001148406    1.020    0.019
       297  -9.4317    141.4155     20.4116   5.2007476720e+01   4.7352810908e+01     0.441087    0.3100504 -61.69  0.002192025    1.767    0.434
       298  -9.2049    222.4827     20.1655   4.0883793350e+01   2.7131448857e+01    0.2504952    0.1868421  49.76  0.001090804    1.555    0.357
       299  -9.1219    131.2047     20.0408   5.3881652717e+01   4.9907635834e+01    0.3384181    0.2258662 -87.04  0.001563728    2.111    0.526
       300  -9.4738      1.3489    185.4499   1.2763858725e+02   3.4926605088e+01    0.3493033   0.07639589 -75.74  0.001436169    3.469    0.712
       301  -8.8676     89.3018     20.6942   6.4659614651e+01   5.9291653785e+01    0.1955285    0.1839556  10.41 0.0004975454    1.151    0.131
       302 -10.3240      7.0215    168.5394   1.2538207433e+02   3.8121222680e+01     0.239791    0.1723357 -61.38   0.00162674    1.478    0.323
       303  -8.0198    197.4811     20.5026   4.3656398757e+01   3.3165860945e+01    0.1401754    0.1204217 -74.65 -3.485986e-05    1.088    0.081
       304 -10.9718     17.8928    158.3496   1.2214651578e+02   3.9505449668e+01    0.4244013    0.1991333  85.79  0.001624247    2.144    0.534
       305 -10.8938      2.2846    153.3592   1.2528756192e+02   4.1875630633e+01    0.3065635    0.1995793 -86.63 0.0004839654    1.180    0.153
       306  -9.6610     28.9282     18.1597   8.7336980921e+01   6.9207003746e+01    0.2342445    0.1632998   3.41 0.0006339798    1.354    0.262
       307  -9.6400      5.3036    150.3314   1.2435516037e+02   4.2342634602e+01    0.2418116    0.1404137 -87.73 0.0008464334    1.389    0.280
       308  -9.0988     11.9358    151.4570   1.2290785387e+02   4.1579581949e+01    0.1489733    0.1149374  39.09 0.0002989124    1.518    0.341
       309  -8.7119     21.6661    147.6700   1.2021348291e+02   4.1648216784e+01    0.1238939   0.08043902 -48.85 0.0007052076    1.725    0.420
       310  -9.4742     11.7028    144.9867   1.2236856506e+02   4.3088872321e+01    0.1746086     0.126994 -80.06 0.0001969586    1.077    0.071
       311  -8.4058    248.6603    143.6762   6.6980572491e+01   2.8099425072e+00     0.142608   0.09820645   2.37 0.0003941291    1.724    0.420
       312  -9.0546      3.1848     16.5472   1.0000979464e+02   7.1650666667e+01     0.238773    0.1898733  48.89  0.001669068    2.138    0.532
       313  -8.1364    216.3206     15.3284   4.0289698884e+01   2.9143957369e+01    0.1294854   0.09762164  38.60 0.0003185767    1.688    0.408
       314  -9.7302      5.5677    140.5254   1.2344333476e+02   4.4569978862e+01    0.2639056    0.1539676 -53.99  0.001309484    1.716    0.417
       315  -9.7185      8.4774    138.5180   1.2254141160e+02   4.4827550980e+01    0.3080202   0.09642307  29.68  0.001406854    3.422    0.708
       316  -9.0678     35.8522    141.8678   1.1597383678e+02   4.1696569832e+01    0.1964394    0.1570712 -56.86 0.0009723578    1.267    0.211
       317  -8.5764    144.4916     14.0594   4.9269237088e+01   4.7244253885e+01    0.1924549    0.1381365 -20.69   0.00101175    1.528    0.346
       318  -9.5975     21.6442    142.0604   1.1961951032e+02   4.2965174752e+01    0.1932474    0.1490082  63.97 0.0005108823    1.304    0.233
       319  -8.7805     44.8465    141.3835   1.1356535487e+02   4.0872196930e+01    0.1588917    0.1290131   6.54 0.0004494374    1.685    0.407
       320  -8.2979     78.1707     13.1069   6.4784965556e+01   6.2371028634e+01    0.1578351    0.1480714 -21.35 0.0004089391    1.299    0.230
       321  -9.0065     67.6501     12.7420   6.8204629860e+01   6.4360940662e+01    0.3236685    0.1410135  40.28  0.001182321    2.127    0.530
       322  -9.1230     29.9075    137.9277   1.1701982031e+02   4.3208376013e+01    0.2341513    0.1648679  23.83  0.001382515    1.794    0.443
       323 -11.6306    227.4779    134.7836   6.8549749818e+01   8.3190678121e+00    0.7049085    0.3673926  55.91    0.0029426    2.417    0.586
       324  -9.2864     45.7578    135.5165   1.1247677229e+02   4.2186441283e+01    0.2973177     0.153311  53.34 0.0006383495    2.224    0.550
       325  -8.7895     77.8617    131.8492   1.0300439041e+02   3.8952621711e+01    0.2008347    0.1593049 -89.55 0.0004004298    1.341    0.254
       326  -9.2337     41.7035    126.6636   1.1224893571e+02   4.4759330782e+01    0.2203813    0.1347432 -54.23 0.0005870488    1.479    0.324
       327 -10.6849     37.5509    127.0086   1.1346475303e+02   4.5096506807e+01     0.437469    0.2559325 -69.24 0.0004547138    1.440    0.306
       328 -10.0629     33.0336    127.9043   1.1484888016e+02   4.5316201408e+01    0.3114735    0.2949424 -74.39 0.0009552875    1.175    0.149
       329 -10.8989     30.9490    122.9515   1.1472086062e+02   4.6697993529e+01    0.5461211    0.2736228 -53.18   0.00127743    1.782    0.439
       330 -11.3743    231.1026    124.6278   6.5555109711e+01   9.3274412213e+00    0.5466109    0.3769079 -42.96  0.002144652    1.400    0.286
       331  -9.3123     52.9881    126.0280   1.0895048155e+02   4.3667490001e+01    0.2099872     0.146228 -38.61 0.0004041994    1.640    0.390
       332  -9.9060     48.9199    125.0131   1.0993763423e+02   4.4380599857e+01    0.3400988    0.2397949 -72.86  0.001815988    1.268    0.212
       333  -8.2542     19.8269    125.3545   1.1813535213e+02   4.7065378256e+01    0.1396134    0.1175167 -12.52 0.0003546408    1.587    0.370
       334 -10.7525     11.5373    122.2932   1.2002445996e+02   4.8403434136e+01    0.3627757    0.3086965 -29.50   0.00218873    1.481    0.325
       335  -8.8852     74.8554    122.4000   1.0197267506e+02   4.1683165323e+01    0.3358403    0.1834232  53.37  0.001429735    2.240    0.554
       336  -8.5330     93.5265    122.4773   9.6636093648e+01   3.8732978640e+01    0.1481078     0.138608 -56.05     8.35e-05    1.029    0.028
       337  -8.4407     75.8323    119.0029   1.0097740476e+02   4.2361906463e+01    0.2106221    0.1533808  62.04  0.001045416    1.615    0.381
       338  -9.6906     69.6466    117.9502   1.0257645162e+02   4.3499620367e+01    0.3492911    0.2399453 -76.66 0.0009712936    1.584    0.369
       339  -9.9487     98.2873    117.3924   9.4104905686e+01   3.9120744695e+01    0.2837418     0.258328  10.11 0.0007051027    1.240    0.194
       340 -10.3251     58.1088    117.1866   1.0584453719e+02   4.5197783456e+01    0.3559608    0.2713694 -45.74  0.001592402    1.290    0.225
       341 -10.0751     26.4763    116.5233   1.1505918405e+02   4.8628369801e+01    0.3459571    0.1928083 -45.38  0.001181636    1.832    0.454
       342  -9.9639     23.4511    116.4484   1.1592353323e+02   4.8895355647e+01    0.2595523    0.2105704  26.20  0.001189202    1.526    0.345
       343  -8.5383     87.4614    116.5080   9.7022557786e+01   4.1162830020e+01    0.2511762    0.1312985  48.73 0.0009072063    2.187    0.543
       344 -10.6120     11.4153    114.7977   1.1914827412e+02   5.0174293861e+01    0.2514502    0.1972064 -44.69 0.0004175693    1.375    0.273
       345  -9.8934     38.9203    114.4052   1.1105917380e+02   4.8000916371e+01    0.2474889    0.2337919  49.58  0.001469213    1.234    0.190
       346  -9.8375      2.2652    113.5170   1.2157239822e+02   5.1043329645e+01    0.3062097    0.1977062  84.79  0.001498999    1.467    0.318
       347  -9.3415     50.4175    112.1620   1.0718786719e+02   4.7323850667e+01    0.2870033    0.2006126  56.19  0.001251801    1.678    0.404
