#   1 NUMBER                 Running object number                                     
#   2 MAG_AUTO               Kron-like elliptical aperture magnitude                    [mag]
#   3 X_IMAGE                Object position along x                                    [pixel]
#   4 Y_IMAGE                Object position along y                                    [pixel]
#   5 X_WORLD                Barycenter position along world x axis                     [deg]
#   6 Y_WORLD                Barycenter position along world y axis                     [deg]
#   7 A_WORLD                Profile RMS along major axis (world units)                 [deg]
#   8 B_WORLD                Profile RMS along minor axis (world units)                 [deg]
#   9 THETA_WORLD            Position angle (CCW/world-x)                               [deg]
#  10 FWHM_WORLD             FWHM assuming a gaussian core                              [deg]
#  11 ELONGATION             A_IMAGE/B_IMAGE                                           
#  12 ELLIPTICITY            1 - B_IMAGE/A_IMAGE                                       
         1 -12.9513    216.8140     14.7988   3.6897542853e+01   2.9918111698e+01    0.8654049     0.528547  71.92  0.002605099    1.578    0.366
         2 -11.8648     42.9095     20.8802   7.6734303149e+01   6.6823182353e+01    0.5594982    0.3271786  35.05  0.001839923    1.783    0.439
         3 -11.3108    109.2509     12.2582   5.1506768447e+01   5.5407112245e+01    0.3445995    0.1728033  73.67  0.001425505    2.843    0.648
         4 -12.8258    190.5565      9.5559   3.8131704252e+01   3.6459692901e+01    0.4749258    0.2739684  68.08  0.002042607    1.595    0.373
         5 -11.6436     66.0916     11.0748   6.2977761686e+01   6.4314051987e+01    0.3488536     0.167797  46.35  0.001749405    1.964    0.491
         6 -12.4155     57.2642      6.4034   6.3822803094e+01   6.6342692286e+01    0.5695847    0.4921541 -54.13  0.002856065    1.887    0.470
         7 -10.8892    109.9405      8.7946   5.0008658005e+01   5.5558078303e+01    0.2043516    0.1487342 -80.84  0.001083564    1.974    0.493
         8 -11.7884     43.7660      8.5687   7.0259308757e+01   6.8276433110e+01    0.2712832    0.2089668  25.50 0.0006848963    1.264    0.209
         9 -11.8740    165.8004      1.7698   3.8714500083e+01   4.3009070583e+01    0.5420233    0.1441918  67.04  0.001506471    3.071    0.674
        10 -10.8498     12.6449    227.7758   1.2541578299e+02   2.4560316320e+01    0.2767902    0.1181708 -85.44   0.00103169    2.092    0.522
        11 -11.1431     72.4803    228.4904   1.1433098766e+02   1.7734170648e+01    0.2480604    0.1718284  74.41  0.000630625    1.413    0.293
        12 -10.0640    104.3477    225.5593   1.0763872934e+02   1.3918402429e+01    0.2286238    0.1543009 -59.47  0.001320238    1.609    0.378
        13 -11.1679     96.1848    224.6409   1.0918946959e+02   1.5268215081e+01    0.3957204    0.3100105  81.77  0.002485918    1.334    0.251
        14 -10.3641    149.8037    224.0075   9.8129125772e+01   7.2444342046e+00    0.1939282    0.1328917  53.16  0.001053889    1.611    0.379
        15 -10.6806    232.0477    223.4980   8.2155405142e+01  -5.2922106698e+00    0.1858855    0.1062156  30.95 0.0009122585    1.615    0.381
        16  -9.7982     36.3911    223.2129   1.2081464335e+02   2.3063889345e+01    0.1612098   0.09061325  88.65 0.0009456344    1.671    0.401
        17 -11.0116    226.2553    221.3788   8.2821305238e+01  -4.1733289498e+00    0.2144351    0.1491758  35.48  0.001293421    1.500    0.333
        18 -11.1947    236.9769    218.9724   8.0470169461e+01  -5.3660372352e+00    0.2104371    0.1639116  52.58  0.001255815    2.139    0.533
        19  -9.9887    211.4812    218.5083   8.5039646304e+01  -1.5704605938e+00     0.126875    0.1077511   6.88 2.269707e-05    1.075    0.070
        20 -11.1762    239.8893    215.0631   7.9245918186e+01  -5.2374156111e+00    0.3132643    0.1544963 -35.55  0.001627904    1.970    0.493
        21 -10.9764    221.7204    214.4179   8.2397555266e+01  -2.5072204361e+00    0.2382828    0.1125862  39.75  0.001145281    2.151    0.535
        22 -10.0571    236.9536    210.2502   7.8874955419e+01  -4.1443060821e+00    0.1826639    0.1435398   4.61  0.001170547    1.058    0.055
        23 -10.4228    116.3836    210.2330   1.0310239223e+02   1.5106211374e+01    0.1795746    0.1246355 -71.95 0.0007654516    1.697    0.411
        24  -9.6422    109.3189    204.6668   1.0383860042e+02   1.7330016853e+01    0.1382324   0.09699254  70.07 0.0004292359    1.695    0.410
        25 -11.2698     49.4354    201.8426   1.1641634985e+02   2.6064207528e+01    0.3742945    0.2136458  77.62  0.001978399    1.867    0.464
        26 -10.3406      2.9915    199.9563   1.2559194714e+02   3.1056333838e+01    0.1899731   0.09757189  64.86 0.0009027296    1.711    0.415
        27  -9.5423    133.6463    196.3268   9.7177443714e+01   1.5132871710e+01    0.1431338    0.1056135  70.61 0.0007046803    1.769    0.435
        28 -12.4478    160.9430    192.4898   9.0511675433e+01   1.1212356247e+01    0.6778401    0.5199217  76.60  0.002978192    1.989    0.497
        29 -10.2295     94.6833    187.0178   1.0456010905e+02   2.3357933299e+01    0.2204064    0.1097655 -83.44  0.000704778    4.278    0.766
        30 -10.3686     34.6553    187.3211   1.1818034849e+02   3.0891703781e+01    0.2085921    0.1196687  69.29  0.001121603    1.757    0.431
        31 -10.2184    183.5264    183.8105   8.4036282792e+01   8.8640192796e+00    0.3466493    0.1355695 -44.75  0.001308325    2.639    0.621
        32 -10.8286     77.5009    176.1857   1.0701938324e+02   2.8313468610e+01    0.3441782    0.1522574  51.86  0.001383479    2.611    0.617
        33  -9.3546     28.6321    176.6859   1.1849704229e+02   3.3914004363e+01    0.1221045   0.08515233 -44.41 0.0007037343    1.773    0.436
        34 -11.0911     34.8674    173.7597   1.1678529204e+02   3.3978356818e+01    0.3193192    0.1534219  55.86  0.001535734    2.232    0.552
        35 -11.3207     45.5858    172.4362   1.1413947743e+02   3.3159107109e+01    0.3780311    0.1660806  56.34  0.001613442    2.700    0.630
        36 -11.8125     55.4834    168.0848   1.1122326689e+02   3.3058262176e+01      0.53082    0.2878655 -89.79  0.002360705    2.286    0.562
        37 -10.7104     79.6823    163.6835   1.0456451576e+02   3.0963637720e+01    0.4737282    0.2470071  84.68   0.00150045    4.421    0.774
        38  -9.7653     69.6498    163.3195   1.0703514398e+02   3.2423822869e+01    0.1458773   0.09798419  71.38 0.0007048142    1.740    0.425
        39 -10.6931     92.8333    160.5420   1.0069533381e+02   2.9769409629e+01    0.2841748    0.1821922  80.19  0.001201204    2.318    0.569
        40 -10.7839     52.1849    160.3054   1.1099298879e+02   3.5309700587e+01    0.2549635    0.1535472  81.76  0.001211617    1.983    0.496
        41 -11.9394    118.8758    157.8927   9.3600410857e+01   2.6083480012e+01    0.4795322    0.4414123 -34.58   0.00136498    1.101    0.092
        42 -11.9980    106.9260    158.5426   9.6740301621e+01   2.7980566102e+01    0.6616076    0.3867365  64.09  0.002592514    2.607    0.616
        43 -10.7383    167.7562    157.0528   8.1787046699e+01   1.7073345945e+01     0.336364    0.2497692 -72.68  0.001509119    1.998    0.499
        44 -10.6285    218.7245    156.4978   7.1239419732e+01   7.4533824607e+00    0.3094791    0.1569712 -46.64  0.001294146    2.170    0.539
        45 -10.1818     68.4681    154.8032   1.0600161109e+02   3.4640321454e+01    0.2678896    0.1414296  55.20  0.001143836    2.314    0.568
        46  -9.9760    133.3185    153.6432   8.9125781126e+01   2.4432924591e+01    0.1551732    0.1210508  86.87 0.0007045184    1.755    0.430
        47  -9.6675     40.5167    153.0452   1.1297435712e+02   3.8339818984e+01    0.1976114    0.1120463 -68.53 0.0004529314    1.498    0.333
        48  -9.7144     23.5055    153.5403   1.1731641752e+02   3.9827740456e+01     0.127576    0.1032309 -82.08 7.713977e-05    1.014    0.014
        49 -11.0380     22.0996    159.2573   1.1827161977e+02   3.8587633082e+01    0.3212738    0.2327654  83.45  0.001528552    1.247    0.198
        50 -10.8689    241.5039    150.5154   6.5909926460e+01   4.4417366404e+00    0.1390714    0.1163737 -21.46 -1.382254e-05    1.023    0.022
        51 -10.2462     78.4866    147.0036   1.0200449542e+02   3.5173599833e+01    0.2074988    0.1215322 -85.87 0.0008102088    2.571    0.611
        52 -10.8056     56.2358    146.4994   1.0790373767e+02   3.8203522754e+01     0.338457    0.1814532  77.45  0.001292542    3.124    0.680
        53 -10.0180    148.7830    145.3913   8.3519563802e+01   2.3291148012e+01    0.3219539    0.1876125 -73.10 0.0009575582    4.278    0.766
        54 -10.7457    106.8306    145.2041   9.4075067290e+01   3.1153837481e+01    0.4216297    0.2762661 -88.64  0.001670801    2.528    0.604
        55 -10.7340     87.9766    144.2748   9.8926476026e+01   3.4436975658e+01    0.3034045    0.1835664 -85.96  0.001174325    2.656    0.623
        56  -9.7781    181.6844    141.3666   7.5114159830e+01   1.7486278482e+01    0.1536657    0.1219954 -74.10 0.0007038473    1.773    0.436
        57 -10.0418     23.2165    138.7875   1.1564750297e+02   4.3412672301e+01    0.2212582    0.1089923  67.95 0.0009534829    2.781    0.640
        58 -11.0656    109.7446    131.8324   9.0325960044e+01   3.3819366668e+01    0.5757198    0.2491131  52.50  0.001867486    3.369    0.703
        59 -12.1382     99.4971    129.1027   9.2517160960e+01   3.6252208648e+01     1.060511    0.6109951  69.81   0.00345595    3.876    0.742
        60 -11.6028     94.2063    122.0887   9.2376380284e+01   3.8817544878e+01    0.5298333    0.3124826  45.62 0.0003652514    1.896    0.473
        61 -11.2488     83.5780    131.7549   9.7591584198e+01   3.8159508842e+01    0.5346935    0.3341307 -82.75   0.00218348    2.388    0.581
        62 -10.1688    117.9440    125.9749   8.6700110633e+01   3.3685655950e+01    0.2725028     0.164459  63.11  0.001011741    2.621    0.618
        63 -10.5237     58.9647    124.5197   1.0325452573e+02   4.3302027401e+01    0.3997078     0.221658 -84.30   0.00155774    2.795    0.642
        64 -11.2924     44.0024    123.1437   1.0743145540e+02   4.5328384215e+01    0.7696444    0.4122035  84.25  0.002939703    3.286    0.696
        65 -11.1590     28.3466    123.0282   1.1201703569e+02   4.6831388740e+01    0.5063043    0.2525987  73.05  0.001975661    3.456    0.711
        66 -11.1033     15.1651    121.0721   1.1554909525e+02   4.8329721087e+01    0.3630595    0.2502493 -28.89 0.0006601731    1.761    0.432
        67 -11.7788    193.4130    118.6583   6.7098515384e+01   1.9478666682e+01    0.5775556    0.4418582 -72.50  0.001899745    1.817    0.450
        68 -10.2903     71.3797    120.2969   9.8680747784e+01   4.2724293797e+01    0.3655377    0.2319758  83.34  0.001473639    2.696    0.629
        69 -11.4247    141.6331    115.2470   7.7750666608e+01   3.1349122455e+01    0.6815909    0.3379316 -45.33  0.002593455    1.948    0.487
        70 -10.7308    108.8016    113.3813   8.6019169847e+01   3.8303312211e+01    0.7070881    0.3021378 -60.98  0.002007799    4.144    0.759
        71 -11.1919     79.2218    113.0500   9.4647861624e+01   4.3349925009e+01    0.5362299    0.3124413 -82.86  0.001807862    3.718    0.731
        72 -12.4297    161.2260    112.3719   7.2285311062e+01   2.7731566962e+01    0.5951563    0.4510661  75.06  0.002567304    1.829    0.453
        73 -12.0758    158.0139    106.0180   7.1291757139e+01   2.9730681308e+01    0.5445969    0.3190394  67.69  0.001944499    2.851    0.649
        74 -10.2223     91.8857    111.1292   9.0352931121e+01   4.1803031577e+01    0.4886335    0.1944295 -60.44  0.001484798    3.592    0.722
        75 -11.1644    174.3335    110.6028   6.8914070298e+01   2.5196033484e+01    0.4220624    0.2956397 -43.14   0.00107275    1.371    0.271
        76 -12.6664    152.6600    110.7148   7.3833768961e+01   2.9945379493e+01    0.5387862    0.3461779  46.47  0.002338763    1.637    0.389
        77 -11.5931     15.4460    110.0686   1.1387284766e+02   5.0968999939e+01    0.6264108    0.4000745  70.53  0.003398298    1.956    0.489
        78 -10.7257    122.8421    113.3054   8.2116176106e+01   3.5626871971e+01    0.2459366    0.2036442  63.65  0.001190667    1.450    0.310
        79 -12.6514    142.3204    104.1235   7.4522955870e+01   3.3562951188e+01    0.7025092    0.6779899  57.10  0.003745576    1.132    0.116
        80 -11.9251     45.0394    101.2721   1.0277450691e+02   5.0549413857e+01    0.7146487     0.438408 -89.68  0.003114941    2.593    0.614
        81 -12.2152    127.9236    101.2377   7.7406577771e+01   3.7231021114e+01    0.6324033    0.3724569 -54.35  0.002540793    1.948    0.487
        82 -10.5880     21.6768    101.1199   1.1041679738e+02   5.2676200100e+01    0.6830759     0.316076  79.06  0.001781841    8.249    0.879
        83 -12.5063    109.2117    100.4791   8.2372993929e+01   4.1136043895e+01    0.9263797    0.6915464  73.88  0.004128134    2.006    0.501
        84  -9.9868     82.3108    100.6589   9.0539134263e+01   4.5795901037e+01     0.145869    0.1171857 -89.60  0.000697794    1.695    0.410
        85 -10.8835     63.4986     96.5235   9.5522359780e+01   4.9485243344e+01    0.3182016    0.2004749 -84.18  0.001266188    2.907    0.656
        86 -12.5805    169.9164     91.4826   6.4597069448e+01   2.9855680630e+01    0.5860996    0.4129184 -30.49 0.0007847817    1.398    0.285
        87 -10.3277     66.6770    111.3284   9.8105678856e+01   4.5542290531e+01    0.2271535    0.1710172  81.00  0.001118131    1.791    0.442
        88 -10.8154     34.3029     89.1895   1.0370557949e+02   5.4461911598e+01    0.4163903    0.2082416 -75.79  0.001682299    2.860    0.650
        89 -11.2574     87.2243     87.2127   8.5155820568e+01   4.8010711132e+01    0.4604836    0.3099931  65.61  0.001945521    2.506    0.601
        90 -10.7887     49.0021     85.5082   9.7610184953e+01   5.3810428967e+01    0.3173823    0.2000215  53.44  0.001504936    2.338    0.572
        91 -10.5297     45.3099     82.1822   9.8046282638e+01   5.4975987763e+01    0.2674921    0.2408429 -58.33 0.0008189165    1.187    0.157
        92 -10.7343    105.3303     84.0187   7.8594023031e+01   4.5395674884e+01    0.3533508    0.2770573 -66.69  0.001386663    1.660    0.398
        93 -10.6241     24.0417     80.2508   1.0532601267e+02   5.7390956098e+01    0.4252501    0.2055163 -75.80  0.001756937    2.912    0.657
        94  -9.7060      1.4709     78.4739   1.1320094248e+02   5.9196082695e+01    0.1249743   0.09294821 -56.43 1.559902e-05    1.009    0.009
        95 -10.9376     82.7558     73.6752   8.2358702710e+01   5.1609423718e+01    0.4371495    0.3010606 -83.56  0.001675095    3.422    0.708
        96 -10.8828     62.4111     71.2650   8.8633757425e+01   5.5242310219e+01    0.4599599    0.1256194 -48.87  0.001512813    3.298    0.697
        97 -10.7657     51.9947     71.1957   9.2437505645e+01   5.6620049118e+01    0.2720601    0.2336392 -65.60 0.0008348699    1.405    0.288
        98 -11.9398     42.3372     63.0789   9.3599208885e+01   5.9449745028e+01    0.5029265    0.3272935 -40.65  0.001820244    1.267    0.211
        99 -11.9542     20.9155     52.8437   9.9204290064e+01   6.3582825703e+01    0.9094106    0.4269145 -61.79  0.004263667    2.346    0.574
       100 -13.3880     30.3269     59.8473   9.7416152522e+01   6.1334570567e+01     1.098555    0.8379396  26.69  0.003288355    1.561    0.359
       101 -11.9811    240.2149     65.2616   4.6408764643e+01   1.8439108914e+01     0.494323    0.3071706  82.84  0.002472453    2.076    0.518
       102 -11.5775    231.0334     59.0393   4.6026871021e+01   2.1264910575e+01    0.4213149    0.2630102 -57.33  0.001453623    1.638    0.390
       103  -9.8459    145.0176     64.2397   6.1822490443e+01   4.0455274380e+01    0.2045247    0.1849387  49.51 0.0003697749    1.126    0.112
       104 -10.1076    101.3274     61.6652   7.2356877942e+01   5.0467812589e+01    0.1419881    0.1181689 -73.64 0.0003641898    1.721    0.419
       105 -10.1312     72.9812     59.4909   8.0839972573e+01   5.5991515379e+01    0.2659428    0.1800187 -74.19  0.001036557    3.546    0.718
       106 -11.1492      8.0952     55.8532   1.0556335720e+02   6.3833892217e+01    0.3776709    0.2543221 -59.12   0.00235742    1.298    0.229
       107 -11.2568     19.4627     59.3633   1.0175648855e+02   6.2339560165e+01    0.3362225    0.2228868 -42.77  0.001544457    1.167    0.143
       108 -10.4187    120.4932     57.4892   6.5518837274e+01   4.7146259059e+01    0.2561785    0.1458136  62.52   0.00103402    2.323    0.569
       109 -10.3323     54.3574     54.6140   8.5996112700e+01   5.9666437406e+01    0.3525767    0.2267253 -66.90  0.001542752    2.946    0.661
       110  -9.8324     62.6035     54.2063   8.2695458999e+01   5.8579603256e+01    0.2019732     0.111862 -32.55 0.0008603497    1.667    0.400
       111 -10.4169    162.1605     53.1422   5.4802813103e+01   3.8092735896e+01     0.247151    0.2145581  78.35 0.0006347869    1.237    0.191
       112 -11.6031    149.6420     52.3243   5.7008717069e+01   4.1214488206e+01    0.4352197     0.254203  62.68  0.001830226    1.845    0.458
       113 -10.7191    197.4122     67.5359   5.2858748923e+01   2.7533134307e+01    0.3349218    0.2426238  39.30 0.0008209919    1.580    0.367
       114 -10.2381     92.3914     51.1964   7.1290758957e+01   5.4003776124e+01    0.2064729     0.125099 -43.08 0.0009573036    1.764    0.433
       115 -10.1336    154.1541     47.5497   5.4584825116e+01   4.0816954455e+01    0.2249889    0.1906285  14.97 0.0006069791    1.289    0.224
       116  -9.8273    193.6934     46.3152   4.7646063434e+01   3.1485765814e+01    0.1452382   0.09938914 -63.58    0.0003321    1.626    0.385
       117 -11.6976      7.8776     43.2915   1.0202943895e+02   6.6422280568e+01     0.485726    0.2728587  33.99  0.002778011    2.391    0.582
       118 -11.7805     74.5181     43.3169   7.4162844736e+01   5.8549551385e+01     0.440308    0.3790697  48.44  0.002596751    1.465    0.318
       119 -12.2296     41.0367     37.9396   8.5064231642e+01   6.4392080003e+01    0.6440479    0.3850982  16.71  0.002311792    1.795    0.443
       120 -10.8517     69.3276     41.6761   7.5353874058e+01   5.9690193634e+01     0.281846    0.2404958  -4.70  0.001246211    1.021    0.021
       121 -10.8329    120.3314     34.5986   5.7398030068e+01   5.0486186973e+01    0.3017535    0.2485052  44.32 0.0008227514    1.148    0.129
       122 -10.3954    109.3379     31.8540   5.9069939780e+01   5.3282046633e+01     0.229518    0.1868202  60.13 0.0006640789    1.352    0.260
       123 -10.8357    103.8811     30.3454   5.9907295195e+01   5.4651332623e+01     0.440114    0.2101718  50.56  0.001953936    1.970    0.492
       124 -10.2125     73.3241     32.3197   7.0047394924e+01   6.0413727289e+01    0.2476133    0.1703785  65.54  0.001185507    2.592    0.614
       125 -12.8995    205.2924     22.3911   3.9894884673e+01   3.1706509865e+01    0.6365141    0.3694792  84.82   0.00320493    1.839    0.456
       126 -10.1246    201.4958    249.4914   9.2004404368e+01  -4.4813571448e+00    0.1198048   0.09475701  15.89 -2.229388e-05    1.014    0.013
       127 -10.8722     35.8680     22.9885   8.0865162369e+01   6.7439186730e+01      0.42175    0.2429744  48.31  0.001989003    3.088    0.676
       128 -11.2697     21.4750    248.4676   1.2503012054e+02   1.9823507063e+01     0.217061    0.1526866 -38.18  0.001426108    2.712    0.631
       129  -9.9383     46.6881     16.6811   7.3098308122e+01   6.6850220886e+01    0.2168906    0.1434902 -12.02 0.0007908911    1.335    0.251
       130 -11.2523    239.6479     20.5213   3.6248457558e+01   2.4353168083e+01    0.2746364    0.2006342  83.56 0.0006579115    1.349    0.259
       131 -10.1378     89.8023     18.3713   5.8886265498e+01   5.8978569349e+01    0.2944159    0.1653506  66.24  0.001329549    2.532    0.605
       132 -10.6607     31.0132     17.7931   8.0666499073e+01   6.8796781844e+01    0.2292786    0.1260104 -22.42  0.001129016    1.623    0.384
       133  -9.6996     69.7502    245.7763   1.1641134021e+02   1.4836954977e+01    0.1608382    0.1065899  63.77 0.0007376629    1.343    0.255
       134  -9.7111     32.6718    242.3069   1.2277808764e+02   1.9785991438e+01    0.1171499   0.06081379  63.82 0.0007037704    1.655    0.396
       135 -12.2885     21.7679    238.8594   1.2445403254e+02   2.1557772746e+01    0.5151603    0.2186375  69.78  0.002812011    2.286    0.563
       136 -10.2925      8.1493    240.8219   1.2684650633e+02   2.2513819915e+01    0.1309013    0.1094381 -86.50 0.0008790481    1.330    0.248
       137 -10.1830      2.7653    240.3602   1.2770743107e+02   2.3094210669e+01    0.1231034   0.09088671  35.40 0.0008096446    1.650    0.394
       138 -10.1203    109.0799    232.5536   1.0752648420e+02   1.1921070818e+01    0.1757982    0.1591824  64.70 0.0008360657    1.074    0.069
       139  -9.8005     77.2714     11.2280   5.9430622521e+01   6.2207895581e+01    0.1856985    0.1043401  62.49 0.0008832818    2.383    0.580
