#   1 NUMBER                 Running object number                                     
#   2 MAG_AUTO               Kron-like elliptical aperture magnitude                    [mag]
#   3 X_IMAGE                Object position along x                                    [pixel]
#   4 Y_IMAGE                Object position along y                                    [pixel]
#   5 X_WORLD                Barycenter position along world x axis                     [deg]
#   6 Y_WORLD                Barycenter position along world y axis                     [deg]
#   7 A_WORLD                Profile RMS along major axis (world units)                 [deg]
#   8 B_WORLD                Profile RMS along minor axis (world units)                 [deg]
#   9 THETA_WORLD            Position angle (CCW/world-x)                               [deg]
#  10 FWHM_WORLD             FWHM assuming a gaussian core                              [deg]
#  11 ELONGATION             A_IMAGE/B_IMAGE                                           
#  12 ELLIPTICITY            1 - B_IMAGE/A_IMAGE                                       
         1 -14.4967    155.9656     53.1093   8.4255385089e+01   3.9881217504e+01     1.431154      1.22429  22.54  0.004351361    1.301    0.231
         2 -14.6471    167.7683     37.5562   7.6978863323e+01   3.9109732506e+01     1.188434     1.022866   3.22  0.004290924    1.331    0.249
         3 -14.2688    182.7005      5.8501   6.4948330142e+01   3.8852000486e+01     1.027253    0.7785863  72.22   0.00414594    1.206    0.171
         4 -10.9091     20.7303    219.3211   1.4777307231e+02   2.7701219166e+01    0.1150956   0.07716064  57.80  0.000361256    1.231    0.188
         5 -18.9108     76.2670    238.2475   1.3948014070e+02   1.7557014289e+01     7.774405      5.88434  63.23   0.05468354    1.040    0.039
         6 -10.2491      7.7110    196.9264   1.4883887495e+02   3.3288798992e+01     0.168597    0.1261085  54.99 0.0008521245    1.336    0.251
         7 -13.1656    175.2449    194.0316   1.1506492480e+02   9.0354354045e+00    0.4628767    0.3209782 -48.81  0.001676788    1.649    0.393
         8  -9.9971    125.8212    248.2540   1.3177042330e+02   8.6959473356e+00    0.1970156    0.1514397 -41.25  0.001034926    1.876    0.467
         9 -12.0426    110.1369    208.3360   1.3015038747e+02   1.7920802021e+01    0.2966102     0.245227  35.73  0.001885116    1.376    0.273
        10 -10.9208     21.9714    233.5182   1.4830992215e+02   2.4989188741e+01   0.09300262   0.08491541 -62.96 0.0004095958    1.809    0.447
        11 -10.4156     30.0490    205.3981   1.4528239726e+02   2.9377016338e+01    0.1307025    0.1002847  40.90 0.0004432209    1.565    0.361
        12 -13.9052    206.4169    180.0002   1.0650300197e+02   5.4775880166e+00    0.8328795    0.5085875  34.34  0.003078502    1.583    0.368
        13 -11.5752     25.9710    230.3347   1.4749033932e+02   2.5128557262e+01    0.2540867    0.1303692 -77.75   0.00168653    1.787    0.440
        14 -11.0733    140.4127    249.1143   1.2932141993e+02   6.3104128964e+00    0.2071198     0.191401  85.48 0.0006416883    1.285    0.222
        15 -12.6265    177.6876    171.6016   1.1045615412e+02   1.2492086767e+01    0.4676248    0.2696809 -48.20  0.002158327    1.908    0.476
        16 -13.7876    137.6042    170.8559   1.1878001698e+02   2.0481106908e+01    0.7220622    0.5813848  64.37  0.003967148    1.230    0.187
        17 -13.5650    144.8139    168.3169   1.1674509621e+02   1.9613013620e+01    0.6148483    0.4437748 -82.33  0.002994051    1.813    0.449
        18 -12.2099    125.9227    172.0152   1.2154941041e+02   2.2415909799e+01    0.3172992    0.2766602 -86.32  0.001202462    1.148    0.129
        19 -13.2135    196.9913    172.9412   1.0690458450e+02   8.4452189599e+00    0.8022091    0.4256757 -50.72   0.00255584    2.358    0.576
        20 -11.1011    202.0999    166.2084   1.0456343250e+02   8.5757175210e+00    0.2578329    0.1858927 -67.04  0.001229622    2.105    0.525
        21 -10.9174     22.4175    166.7108   1.4390096648e+02   3.8190860108e+01    0.2392591     0.179587  13.94  0.001299414    2.115    0.527
        22 -10.9429     20.5398    202.3992   1.4682680967e+02   3.0966444556e+01    0.1206832   0.08523378 -86.65 0.0002086659    1.216    0.178
        23 -11.2289    224.0341    164.3515   1.0013161141e+02   4.6036867265e+00    0.2458385      0.19075 -41.01 0.0005965473    1.386    0.279
        24 -11.0601    130.1271    161.4182   1.1872782090e+02   2.3857173275e+01    0.2230393    0.1851372  82.68 0.0004061718    1.264    0.209
        25 -10.2722    140.7208    199.6691   1.2285022727e+02   1.4343121681e+01    0.2317647    0.1415164  42.36 0.0003097308    1.467    0.318
        26 -10.8726    237.5175    159.5021   9.6772320754e+01   2.8084260249e+00    0.1336841    0.1204748  -3.53 0.0002005544    1.035    0.034
        27 -12.7415    164.0573    156.9028   1.1033968046e+02   1.8031637070e+01    0.3468116    0.3227772  -4.57 0.0008905784    1.181    0.153
        28 -13.9700    133.8194    145.5181   1.1475351577e+02   2.6547723545e+01     1.293785    0.3802002 -55.16   0.00366955    4.340    0.770
        29 -12.4362    128.3189    143.1604   1.1556357481e+02   2.8147451858e+01    0.4038894    0.2688187  57.46  0.001423048    1.574    0.365
        30 -10.5655    137.5280    198.5008   1.2331909983e+02   1.5122793602e+01    0.3481284    0.2083795  78.86  0.001488253    2.864    0.651
        31 -10.0132     12.9811    158.0489   1.4522660482e+02   4.0936106131e+01    0.1642358    0.1174887 -57.40 0.0004583333    1.595    0.373
        32 -11.6807     15.4611    150.3609   1.4403000124e+02   4.2418529002e+01    0.3077874    0.1362837 -55.60  0.001592702    2.347    0.574
        33 -11.9524    151.2073    149.8163   1.1167139555e+02   2.2111117664e+01    0.3654826    0.2657423 -77.68  0.001235377    1.799    0.444
        34 -13.8933    144.6271    145.6888   1.1228547363e+02   2.4326396772e+01    0.8282822    0.4982928 -67.37  0.003375736    2.268    0.559
        35 -11.8090    118.5247    149.8648   1.1924014381e+02   2.8539124351e+01    0.2409207    0.1931813  72.55 0.0005964541    1.287    0.223
        36 -12.0601    174.0964    148.8570   1.0649442492e+02   1.7499145480e+01    0.3741595    0.2676015  50.56  0.001094545    1.384    0.278
        37 -13.7518      6.4244    112.2632   1.4247093955e+02   5.1693175573e+01    0.7838769    0.6844603   5.39  0.005848595    1.589    0.371
        38 -13.4792      5.4592    139.5048   1.4539503114e+02   4.5628990393e+01    0.4924381    0.4344754 -81.10  0.003796756    1.249    0.199
        39 -13.1643      3.1134    126.9659   1.4484485587e+02   4.8595450701e+01      1.39767    0.2954754 -77.22  0.004994855    4.046    0.753
        40 -12.0343     22.0550    141.0047   1.4158899095e+02   4.3945897881e+01    0.2242481    0.1597507  37.73  0.001150781    1.637    0.389
        41 -19.2056     59.5111    104.4668   1.2584362765e+02   4.8496308869e+01     17.74297    0.9741477 -59.54    0.0269696   16.376    0.939
        42 -12.6363    137.0000    136.0009   1.1195440446e+02   2.7967293846e+01    0.5763844    0.1507012 -49.47  0.001649241    3.926    0.745
        43 -13.3290    135.5782    122.3363   1.0912638451e+02   3.1235839149e+01    0.8104542    0.3342611 -55.21  0.002699698    2.888    0.654
        44 -10.3400    151.3165    135.2973   1.0845575790e+02   2.5111861561e+01    0.1492311    0.1217766   4.76 0.0002234432    1.609    0.379
        45 -12.2157    161.1145    127.5746   1.0442116496e+02   2.4575176117e+01    0.4597158    0.3396201 -40.20    0.0021817    1.376    0.273
        46 -13.8207    167.0622    191.3873   1.1622640034e+02   1.1014651103e+01    0.5937298    0.4522901  80.20  0.003175707    1.768    0.434
        47 -11.3424    168.1341    113.5840   9.9370901815e+01   2.5809998819e+01    0.5101424    0.3167589 -71.28  0.001733047    2.719    0.632
        48 -11.2240    134.7825    112.4888   1.0687038950e+02   3.3541986005e+01    0.5021942    0.1593374 -46.39  0.001554389    3.101    0.678
        49 -11.4433    134.7540    105.7933   1.0512613600e+02   3.4986292277e+01    0.5801424    0.1595215 -44.56  0.001667817    3.563    0.719
        50 -12.4730    113.9133    110.3396   1.1169970932e+02   3.8306162914e+01    0.2888642    0.2449984 -72.99 0.0007330104    1.220    0.180
        51 -12.6873    180.1834    192.4936   1.1383325428e+02   8.3743052808e+00     0.375767    0.3025663 -79.99 0.0005506668    1.726    0.420
        52 -10.4842     25.6534    108.7094   1.3660699052e+02   5.1068957977e+01    0.1232674   0.08032302 -44.27 0.0003667774    1.661    0.398
        53 -10.8921    205.4598    110.1703   9.1020801957e+01   1.7739722612e+01    0.3286349    0.2154661  42.45 0.0009721156    1.617    0.382
        54 -11.6917     42.0875     91.8520   1.2860281524e+02   5.3427488453e+01    0.2437423    0.2070867  31.74 0.0005386922    1.405    0.288
        55 -11.0559     13.5047    244.8761   1.5016451413e+02   2.3904126067e+01    0.2750843   0.06160959 -71.59  0.001356426    3.921    0.745
        56 -13.0729    176.7567    188.4381   1.1378675402e+02   9.7029842175e+00    0.4448583    0.3266258 -64.56  0.002359694    1.799    0.444
        57 -12.9049    171.4686     30.2313   7.4024645937e+01   3.9095745938e+01    0.4253412    0.3817375  16.84 0.0009315771    1.251    0.201
        58 -11.2913    100.0251     60.3739   1.0085512728e+02   5.1489928628e+01    0.3342397    0.2554184  67.29  0.001418109    1.690    0.408
        59 -10.5982     13.4165     59.8590   1.3162205178e+02   6.2923620188e+01    0.1638528    0.1541061 -73.91 0.0004199782    1.235    0.190
        60 -10.9513    138.0965     31.4545   8.0552691178e+01   4.7473913788e+01    0.3634695    0.2338598  78.54 0.0008750554    1.934    0.483
        61 -11.4292    189.3883     14.8802   6.6831075076e+01   3.6205707511e+01    0.2467849    0.1829516  89.95 0.0006501212    1.321    0.243
