#   1 NUMBER                 Running object number                                     
#   2 MAG_AUTO               Kron-like elliptical aperture magnitude                    [mag]
#   3 X_IMAGE                Object position along x                                    [pixel]
#   4 Y_IMAGE                Object position along y                                    [pixel]
#   5 X_WORLD                Barycenter position along world x axis                     [deg]
#   6 Y_WORLD                Barycenter position along world y axis                     [deg]
#   7 A_WORLD                Profile RMS along major axis (world units)                 [deg]
#   8 B_WORLD                Profile RMS along minor axis (world units)                 [deg]
#   9 THETA_WORLD            Position angle (CCW/world-x)                               [deg]
#  10 FWHM_WORLD             FWHM assuming a gaussian core                              [deg]
#  11 ELONGATION             A_IMAGE/B_IMAGE                                           
#  12 ELLIPTICITY            1 - B_IMAGE/A_IMAGE                                       
         1 -10.7965     33.2928     63.0274   9.2443707004e+01   6.0665092646e+01     1.616631    0.5320356 -32.43   0.00500995    4.783    0.791
         2 -10.0929      4.9558     41.8131   9.8855390605e+01   6.7138892970e+01    0.7132071    0.3196711 -58.03  0.002884743    2.092    0.522
         3 -11.0086     23.7223     32.1539   8.6068062846e+01   6.7386101685e+01     1.349278     0.459113 -33.73  0.003676466    2.958    0.662
         4 -10.1764     63.1514      3.3302   5.6095334583e+01   6.5300256199e+01     0.542276    0.3789573  -8.09  0.003437012    1.437    0.304
         5 -10.3413     69.6068     40.7605   6.9860568861e+01   5.9670678035e+01      1.54974    0.3282354 -35.41  0.004623089    5.024    0.801
         6 -10.0268     76.3423     32.1231   6.4071382015e+01   5.9679364869e+01    0.5891495    0.4716932 -88.72   0.00100477    2.266    0.559
         7  -9.7537     62.9581     20.7998   6.4034942714e+01   6.3529066990e+01    0.5303735    0.3642412 -53.73  0.001481735    2.528    0.604
         8  -9.6508     64.6302     13.3504   6.0143846768e+01   6.4065494584e+01    0.2968604    0.2279227  -0.94 0.0002015687    1.225    0.184
         9  -8.3285    104.3512     15.2388   4.9541508678e+01   5.5820089001e+01    0.3806459    0.1965302  23.93   0.00168299    2.576    0.612
        10  -9.1637    103.0041     21.1483   5.2051200747e+01   5.5526829726e+01    0.3924239    0.2501242 -35.12  0.001558505    1.759    0.432
        11 -10.1318     51.7608     14.5842   6.5524756982e+01   6.6152947614e+01     0.918988    0.4503961  10.57  0.003775859    3.391    0.705
        12 -10.1388     46.2848     29.5770   7.4520653374e+01   6.5029569832e+01    0.4682957    0.2725604 -47.28  0.001160046    2.288    0.563
        13  -9.8734     73.5853     17.8560   5.9089604277e+01   6.1917196901e+01    0.8118464    0.2309167 -26.72  0.003027658    3.832    0.739
        14  -8.7685     72.1395      8.3639   5.5457469978e+01   6.3146867730e+01    0.2166448     0.150055   9.31 0.0004084067    1.436    0.304
        15  -9.6333    119.1645     19.9434   4.7955508312e+01   5.2037973895e+01    0.6274704    0.3337286  -5.04  0.001690824    2.747    0.636
        16  -8.0376    121.0304      5.9765   4.2840109993e+01   5.2876412564e+01    0.2865675    0.1656335  66.38 0.0007815947    1.554    0.356
        17  -8.9007    125.1513     12.9299   4.4411621851e+01   5.1333310753e+01    0.2641322    0.2058588 -60.53 0.0006812339    1.537    0.349
        18  -8.4455    127.0122      8.9708   4.2772279319e+01   5.1251851222e+01    0.1981743    0.1679599  56.12  0.000410417    1.021    0.021
        19  -8.7620    125.8459      4.9331   4.1651107708e+01   5.1854540067e+01    0.3335775    0.2191103  20.49  0.001351503    1.838    0.456
        20  -9.7641     10.4211     18.7598   8.7419970411e+01   7.0799129836e+01     0.649071    0.2743399 -10.38  0.002561236    4.164    0.760
        21  -8.6751     40.8166     20.1995   7.2776465558e+01   6.7122363229e+01    0.3093791    0.1723052 -36.82  0.001262102    1.869    0.465
        22 -10.6080     37.2957      9.4689   6.9254598171e+01   6.8969390904e+01    0.7983779    0.2968459 -36.51   0.00306199    2.894    0.654
        23  -9.3771     29.7934     10.8798   7.3508456352e+01   6.9826464750e+01    0.3973568    0.3235943 -53.14  0.002556288    2.242    0.554
        24  -9.5598     24.3663     11.3150   7.6451587799e+01   7.0447039299e+01    0.5221112    0.2625263  26.70  0.002135484    1.851    0.460
        25  -8.7066     19.7075      8.6696   7.7578335189e+01   7.1337069370e+01    0.3430725    0.1740451   5.87  0.001772809    2.356    0.576
        26  -9.6700     18.2037      3.8151   7.5889224997e+01   7.2128364838e+01    0.3083231    0.2913854  55.79  0.001459117    2.122    0.529
        27  -9.1100     96.2108     14.8209   5.1355564010e+01   5.7627738586e+01    0.4777943    0.2209631 -15.09  0.002146136    2.678    0.627
        28  -8.5622    112.3130     15.3830   4.7814111870e+01   5.4034503475e+01    0.2346674    0.1872649 -35.91 0.0005323126    1.433    0.302
        29  -9.2280    114.3518      9.7329   4.5399331389e+01   5.4083450704e+01    0.3905166    0.1758422  43.76  0.000548241    2.040    0.510
        30  -8.5454    101.8780      7.8393   4.7355460875e+01   5.7024408985e+01    0.2783763    0.1849169 -17.61 0.0009389734    1.685    0.406
        31  -9.2238    110.0422      4.7168   4.4486582836e+01   5.5467049285e+01    0.5283228    0.2261826 -30.52   0.00250825    2.560    0.609
        32  -8.5271    104.7022      2.0470   4.4601375167e+01   5.6861927517e+01    0.3761668    0.1540538  42.29  0.001722086    2.223    0.550
        33  -9.6441     85.3835     13.1365   5.3562162754e+01   6.0059600726e+01    0.4167238    0.2669502 -51.46   0.00172556    2.380    0.580
        34  -8.6124     89.0653      2.6864   4.8367381780e+01   6.0197163343e+01    0.2022137    0.1677162  -1.10 0.0007654824    1.283    0.220
        35  -9.2908      2.3003     13.9755   8.9941971835e+01   7.2196120090e+01     0.429567    0.2073018 -56.41  0.002071375    3.058    0.673
        36 -10.3838      5.4670      4.6016   8.3605621849e+01   7.3326814463e+01    0.5141437    0.3474865   0.45  0.001710277    1.204    0.169
        37  -8.9504    133.6543     12.0453   4.2621864981e+01   4.9441117026e+01    0.3422067    0.1925503 -49.67  0.001173234    2.162    0.537
        38  -7.8096     80.4946     12.2951   5.4612560528e+01   6.1131892543e+01    0.2105442    0.1143166 -29.98 0.0008059609    2.013    0.503
        39  -8.3657    141.4389     11.9455   4.1324862878e+01   4.7630981112e+01     0.266169    0.1542545 -55.05  0.001163472    2.118    0.528
        40  -8.5887    155.5403      9.0304   3.8427641278e+01   4.4588576756e+01    0.2728784    0.1042252 -33.22  0.001216556    2.673    0.626
        41  -8.9647    131.0099      5.9900   4.1133594244e+01   5.0575835362e+01    0.2906396    0.1977358  10.96 0.0008691351    1.856    0.461
        42  -8.5901     97.7574      5.9574   4.7579668901e+01   5.8078282329e+01    0.2366816    0.1598147   6.55 0.0008426123    1.673    0.402
        43  -8.6716     96.0209      2.9695   4.6830023553e+01   5.8690679487e+01    0.2256118    0.2016188 -18.60 0.0007287235    1.293    0.226
        44  -8.6309     77.1731      6.3887   5.3087519530e+01   6.2335446088e+01     0.260194    0.2221432  80.79  0.001678099    1.607    0.378
        45  -8.7053     78.8407      3.1151   5.1218358807e+01   6.2275208229e+01    0.3036558    0.2098838  53.79 0.0009901826    1.333    0.250
        46  -8.7656    142.5075      4.4318   3.8892171764e+01   4.8028650196e+01    0.3259481    0.1708135 -69.24  0.001446011    2.805    0.643
        47  -8.9562    115.3538      4.1470   4.3258699247e+01   5.4314651021e+01    0.2361058    0.2064234 -21.05 0.0007648814    1.315    0.240
        48  -8.5149    167.0607      2.1671   3.5142190435e+01   4.2506371242e+01    0.1766549    0.1694783 -71.09 0.0004127698    1.162    0.139
        49  -7.1108     85.3208      2.3431   4.9168051221e+01   6.1007949433e+01    0.1351608   0.07541513  31.11  0.000704999    1.725    0.420
        50  -8.3343    136.3115      1.5743   3.8925494139e+01   4.9697126926e+01    0.1800535   0.09670661  58.13 0.0009417434    1.545    0.353
        51  -9.5573    109.9229     90.2467   7.3490116003e+01   4.3213564078e+01    0.9666866    0.3758067  35.04  0.003160642    3.122    0.680
        52 -10.3698    199.0072    249.0665   8.6122789742e+01  -4.5616987375e+00    0.4699085    0.2267782  34.66  0.002369557    1.848    0.459
        53 -10.2514    117.3491    125.5267   8.0900467469e+01   3.4015888343e+01    0.8461798    0.6251242  55.02  0.002433198    1.558    0.358
        54 -10.2206    139.4018    104.4182   6.9512008284e+01   3.4131400789e+01    0.7414153    0.4276956 -36.34  0.002025386    1.769    0.435
        55 -11.3516    121.0677    109.4236   7.5717635554e+01   3.6904301194e+01      1.75156    0.7644011 -43.71  0.005270761    2.238    0.553
        56 -10.6929    123.2741     91.3554   7.0052697322e+01   4.0235806859e+01     1.130888    0.6418615 -25.08  0.002038831    2.321    0.569
        57 -10.3974    131.6610    119.5100   7.5506792416e+01   3.2536706367e+01    0.8657647    0.5571848  74.53  0.002521558    2.997    0.666
        58 -10.8668    108.4900     99.5954   7.6603622328e+01   4.1534058708e+01     1.070142    0.7893068 -84.29  0.003134373    2.185    0.542
        59  -9.8658     41.9726    122.5559   1.0326697647e+02   4.6083670177e+01    0.6862936    0.3564463 -87.03  0.002572526    3.166    0.684
        60 -10.0218     27.3068    122.6988   1.0794733363e+02   4.7418096887e+01    0.5477914     0.309798  71.60  0.002150111    2.592    0.614
        61  -7.9123    158.2221    121.8118   6.9509077417e+01   2.6486004503e+01    0.2484707    0.1696296 -82.91 0.0007159548    2.704    0.630
        62  -7.5696    152.6822    121.3182   7.0690167292e+01   2.7762779905e+01    0.1548451    0.1249904 -84.16 0.0007040571    1.658    0.397
        63  -8.6514     99.6436    119.4059   8.4478905718e+01   3.8712465296e+01    0.3982792     0.250468  -5.19  0.001453412    2.850    0.649
        64  -8.6612      1.6601    116.8111   1.1513120014e+02   5.0606520773e+01    0.3805578    0.1493978 -77.92   0.00165563    2.365    0.577
        65 -10.2713     91.7612    112.9888   8.5259033619e+01   4.1586366411e+01    0.7038253    0.5424042  56.27  0.001606651    1.552    0.356
        66  -9.0288     92.6287    103.5973   8.2531244520e+01   4.3592550393e+01    0.6087059    0.3926932   1.94  0.002117511    2.424    0.587
        67 -11.0906    133.7898    109.1740   7.2234960271e+01   3.4332666180e+01    0.9695438    0.5182531 -41.79  0.003189659    1.835    0.455
        68  -7.2410    153.2850    115.6677   6.9103041587e+01   2.8816206335e+01    0.1536107    0.1231616 -76.90 0.0003501925    1.617    0.382
        69 -10.5070     77.8611    112.3257   8.9472980072e+01   4.3995821930e+01    0.6680179     0.460863 -79.54   0.00224689    2.078    0.519
        70  -8.0661    167.0897    114.1222   6.5556797693e+01   2.6154989348e+01    0.2173712    0.1656746 -18.65 0.0004317883    1.498    0.332
        71 -10.5070     63.0179     95.5103   9.0191640706e+01   5.0078895950e+01    0.8278682     0.442398 -66.28  0.001727252    2.550    0.608
        72  -9.2929     64.4033     86.1931   8.7157681755e+01   5.1972329979e+01    0.7446439    0.4936585 -18.01   0.00353848    1.780    0.438
        73  -9.5026     59.4928    109.5881   9.4854400183e+01   4.7239128372e+01    0.6064695    0.4132551 -77.93  0.001891832    1.882    0.469
        74  -9.7451     67.3474    104.0343   9.0884924263e+01   4.7501520174e+01    0.7154183     0.419863   1.31  0.002814355    2.768    0.639
        75  -8.7221    238.9438    112.8791   5.2335421260e+01   1.1776221280e+01    0.3455737    0.1458695  51.72  0.001492983    2.758    0.637
        76  -9.7993     14.4937    111.6108   1.1032412210e+02   5.1097990653e+01    0.4461109    0.2615232  80.23   0.00153162    2.252    0.556
        77  -8.2973     13.6940    105.6289   1.0964323033e+02   5.2593628100e+01    0.4492755    0.1538062 -37.81  0.001702449    3.360    0.702
        78  -8.0986    159.0007    111.7845   6.6768085574e+01   2.8377532767e+01     0.222114    0.2054931 -77.03 0.0004132957    1.203    0.169
        79 -10.3149    108.5502    114.2902   8.0558909885e+01   3.8264818147e+01    0.9642944    0.5234944 -61.72  0.002068398    2.509    0.602
        80 -11.2359     21.3148     98.7073   1.0578764119e+02   5.3717979183e+01     2.018869    0.8786072 -77.42  0.006229526    3.085    0.676
        81 -10.5121     25.6259     77.8894   9.9664353422e+01   5.8183048696e+01    0.6472275     0.438548  80.19  0.001993955    2.523    0.604
        82  -8.0309     85.9791    250.5795   1.0912500579e+02   1.1184559633e+01     0.175022    0.1010067  37.91 2.238735e-05    1.483    0.326
        83  -9.3113     43.2017     55.2521   8.5737485708e+01   6.1102399381e+01     0.631062    0.2641456 -28.03  0.002232211    3.307    0.698
        84 -10.0373     34.4627     90.3876   9.9252299105e+01   5.4565218884e+01     0.570505    0.2995072 -74.40  0.001776306    2.635    0.621
        85 -10.1165     36.9919     80.7870   9.5932928182e+01   5.6498276425e+01    0.7207438    0.3640958 -13.24  0.002863184    3.141    0.682
        86  -9.1789     36.1315    111.1619   1.0305113206e+02   4.9463603050e+01    0.2521527    0.1812135  50.21  0.001353104    1.681    0.405
        87  -8.6104    150.0360    109.5968   6.8291473085e+01   3.0768319970e+01    0.2995001    0.2030715 -54.47 0.0006582266    1.630    0.386
        88 -10.9152     45.4571    102.7689   9.8110519506e+01   5.0538831335e+01    0.9789646    0.5333205  65.57  0.003405956    4.238    0.764
        89  -8.8033    149.9457     95.3887   6.4473626534e+01   3.3618243025e+01    0.5122718    0.3251336 -33.31  0.001902569    1.627    0.385
        90  -9.4613      6.4556    103.4221   1.1173900445e+02   5.3557005706e+01    0.3793686    0.2559032  79.41  0.001345374    1.772    0.436
        91  -8.1539    166.0010    103.8237   6.3134665312e+01   2.8417439846e+01    0.2565168    0.2052146 -43.27  0.000377518    1.215    0.177
        92  -9.4360    149.4789    103.0650   6.6679489865e+01   3.2212577428e+01    0.4113263    0.2668559 -53.88  0.001062397    1.721    0.419
        93  -9.7648     81.6350     99.3598   8.4908216143e+01   4.6408709719e+01    0.7946756    0.3143079 -50.11  0.002215107    2.405    0.584
        94  -8.2743     73.8222    102.5300   8.8332836363e+01   4.6907830073e+01     0.330101    0.1880022 -56.08 0.0008233617    1.762    0.433
        95  -8.7419    159.1264    101.2124   6.3956263832e+01   3.0446426298e+01    0.3151169    0.2290149 -50.21 0.0006623186    1.418    0.295
        96  -9.7143    244.1432     99.4686   4.8727565632e+01   1.3013411211e+01    0.3056489    0.2093783 -79.19  0.001594094    2.055    0.513
        97  -9.9287     81.6277     72.3793   7.6887906994e+01   5.2105872744e+01    0.4517452     0.343795 -69.70 0.0009203678    1.963    0.491
        98  -8.9786     83.6088     64.7168   7.3675446530e+01   5.3197523060e+01    0.5095346    0.3989151   6.00  0.002726294    1.328    0.247
        99 -10.1792     85.5412     86.5963   7.9991174353e+01   4.8543710449e+01    0.5235965    0.4017452  75.40 0.0009984314    2.046    0.511
       100  -9.5616     94.2387     97.1040   8.0234539353e+01   4.4749368635e+01    0.3909587    0.3305774  73.53 0.0006440897    1.545    0.353
       101 -10.4504     93.0279     91.9315   7.9136819437e+01   4.6086247907e+01    0.5514566    0.3404219  16.08            0    2.230    0.552
       102  -9.1671    188.5972     96.0686   5.6622401429e+01   2.4868629525e+01    0.4139435    0.2523859 -30.66  0.001106036    1.716    0.417
       103  -8.7028    164.3459     94.1385   6.0921100779e+01   3.0624722851e+01    0.3124314    0.2401362 -52.80 0.0007317161    1.356    0.263
       104  -9.6228    138.6744     92.7835   6.6460011697e+01   3.6623611260e+01    0.4625175    0.3586924 -56.46  0.001306735    1.436    0.303
       105  -8.9802    130.0507     56.9751   5.7785990320e+01   4.4840368845e+01     0.495089    0.2322261 -28.82  0.001645766    2.407    0.585
       106  -9.5963    140.5224     81.7972   6.2846024537e+01   3.8285977864e+01    0.8884097    0.3115418 -35.06  0.002885358    3.108    0.678
       107  -9.3959    127.3936     75.2277   6.4142560070e+01   4.2404014081e+01    0.4322357    0.2706577 -55.17 0.0008316681    2.002    0.501
       108  -9.1612    130.4123     66.1417   6.0579915732e+01   4.3296200806e+01    0.7701567    0.4523292 -22.13  0.003263806    2.111    0.526
       109  -8.8204    139.8885     75.3674   6.1104051745e+01   3.9577536202e+01    0.3330429    0.2048156 -44.22 0.0008317513    1.676    0.403
       110  -8.2203    140.9854     70.0077   5.9249799617e+01   4.0245230674e+01    0.2983314    0.2134106 -27.96  0.001007786    1.485    0.326
       111  -9.3411    138.0653     66.2892   5.8801583800e+01   4.1530998667e+01     0.639082    0.3059256 -32.62  0.002163786    2.218    0.549
       112 -10.0244      4.4774     89.4508   1.1016800790e+02   5.6948233497e+01    0.5737061    0.3059813  87.53   0.00208368    2.686    0.628
       113  -9.2303      6.6501     78.3203   1.0726912071e+02   5.9378678268e+01     0.648488    0.2010198 -33.33  0.002417165    3.754    0.734
       114  -8.8176    157.6101     91.1208   6.1559980404e+01   3.2705387336e+01    0.3312702    0.1410925 -39.94  0.001057885    2.295    0.564
       115  -9.2047    163.6507     87.1121   5.9166317040e+01   3.2067908825e+01    0.4790673    0.2773898 -42.08  0.001687465    1.693    0.409
       116  -8.6839    150.3873     88.7400   6.2521311943e+01   3.4780228232e+01    0.2816541    0.1831149 -38.02 0.0008346435    1.526    0.345
       117  -9.6294     87.7086     78.5559   7.6820956228e+01   4.9813047959e+01    0.6554007    0.3978138  17.44  0.002265862    2.190    0.543
       118 -10.4217     48.3312     82.7270   9.2106781135e+01   5.4829789672e+01     1.032078    0.4395806 -49.00  0.002844745    2.020    0.505
       119 -10.0064     62.8600     60.6899   7.9733630254e+01   5.7393233530e+01    0.7074423    0.2727042  33.84  0.002577704    2.676    0.626
       120 -10.5405     54.9454     70.7298   8.6068237062e+01   5.6554723376e+01    0.6354258    0.3798189  48.41  0.001195298    2.336    0.572
       121  -9.3942     40.0937    106.6122   1.0079584024e+02   5.0179269422e+01    0.3208399    0.2065453 -70.86 0.0009045441    1.615    0.381
       122 -10.3607    103.9030     82.6545   7.2993513652e+01   4.5939705961e+01    0.5370122    0.3468674 -55.43 0.0008521431    1.874    0.466
       123  -9.7006    104.9242     71.0698   6.9041116840e+01   4.7937152088e+01    0.8673313    0.5169811 -24.15   0.00373462    1.990    0.498
       124  -8.6414    157.7866     83.5455   5.9425955616e+01   3.4044826328e+01    0.2803285    0.2094573 -46.86 0.0006552448    1.354    0.261
       125  -8.9629    157.2415     76.8876   5.7673959412e+01   3.5333674066e+01    0.6045482    0.2343052 -42.95  0.001645929    2.594    0.614
       126  -7.9109    170.3733     83.2017   5.6740783143e+01   3.1225786770e+01    0.2100411    0.1302234 -46.80   0.00071668    1.624    0.384
       127  -8.8728    149.9990     79.5418   5.9999985416e+01   3.6537345449e+01    0.5244681    0.2072675 -36.53  0.001423371    2.568    0.611
       128  -9.2887    115.3662     71.9807   6.6341671409e+01   4.5596518880e+01    0.5718958    0.2921144 -32.34  0.001723194    2.102    0.524
       129  -8.6351    119.0439     80.4696   6.7965376196e+01   4.3251492390e+01    0.3140023    0.2477498 -56.52 0.0006170743    1.463    0.316
       130  -8.4661    119.9122     75.8142   6.6297542874e+01   4.3929934543e+01    0.2790226    0.2565225 -21.62 0.0004957613    1.078    0.072
       131  -9.2342     74.3139     79.1556   8.1558297526e+01   5.1970586821e+01    0.6546931    0.2624355 -45.74   0.00221822    2.357    0.576
       132 -10.1000     66.0236    110.8783   9.2981974163e+01   4.6061809064e+01    0.6821154    0.4583898  81.40  0.001927205    2.521    0.603
       133  -8.2092    184.1744     78.1995   5.2846917481e+01   2.8930310646e+01    0.2389161    0.1946241 -22.78 0.0005892887    1.344    0.256
       134  -7.7924    166.5418     78.7153   5.6280339077e+01   3.2876963282e+01    0.2014654    0.1332511 -49.06 0.0006709179    1.561    0.359
       135  -7.1222    174.3265     78.7080   5.4772104714e+01   3.1090040295e+01    0.1473699    0.1113676 -75.10 0.0007017908    1.620    0.383
       136  -8.9897     54.7708     63.4303   8.3788491699e+01   5.8036733736e+01     0.428889    0.3021463  -1.26  0.001365339    1.529    0.346
       137  -9.8015     15.9542     70.5094   1.0177880210e+02   6.0541228082e+01    0.4651074     0.214114 -56.59  0.001224307    1.769    0.435
       138  -9.7012     16.4859     61.8444   9.9324352741e+01   6.2356130746e+01    0.5678775    0.3764881 -40.49  0.003411247    1.206    0.171
       139 -10.8861     21.7029     53.3632   9.4537830403e+01   6.3679303337e+01    0.7445766    0.5117984 -83.74  0.002743077    2.785    0.641
       140 -10.0144     13.1883     45.2353   9.5931363967e+01   6.5934479088e+01    0.7352373    0.3390129 -13.55  0.002323678    2.753    0.637
       141  -9.7005    127.7336    102.4988   7.2013074259e+01   3.7013157088e+01    0.5011484     0.352354 -47.33  0.001277901    1.434    0.303
       142  -9.9638      7.4116     28.1285   9.2880265471e+01   6.9484351055e+01    0.3035971    0.2389507  44.29  0.001076768    2.030    0.507
       143  -8.3134    162.7677     72.8029   5.5395334028e+01   3.4741921959e+01    0.2779211    0.1859956 -48.47 0.0006340823    1.547    0.354
       144  -7.7298    175.4700     72.4721   5.2889831627e+01   3.1856637699e+01     0.140755     0.136948 -70.40 0.0002004492    1.009    0.009
       145  -9.0668    169.4796     70.6059   5.3489962728e+01   3.3543147812e+01    0.3847578    0.1401715 -35.31  0.001325278    2.755    0.637
       146  -9.2590    147.0432     69.2934   5.7675942157e+01   3.8969072654e+01    0.3801847    0.2562644 -57.72 0.0009702015    1.799    0.444
       147  -7.8787    146.9515     64.0269   5.6137656424e+01   3.9842967882e+01    0.2756751    0.1925323   4.18 0.0006812325    2.075    0.518
       148  -8.2786    156.5626     69.7682   5.5792154217e+01   3.6682145886e+01    0.2574198     0.143907 -30.99 0.0007051592    1.913    0.477
       149  -9.9094     94.8074     68.2029   7.1194136148e+01   5.0467595924e+01    0.6313736    0.2720624 -44.23 0.0008978065    2.416    0.586
       150  -9.3198     97.4400     58.0677   6.6952388701e+01   5.1712517566e+01     0.757156    0.5031467  -7.73  0.003511025    1.927    0.481
       151  -7.8140     23.3165     68.9568   9.8323832518e+01   6.0324790263e+01    0.1843196     0.133793 -46.45  0.000369713    1.148    0.129
       152  -9.0247    121.2351     65.9166   6.2833348836e+01   4.5379086525e+01    0.3527095    0.2504035 -46.39 0.0007360909    1.528    0.345
       153  -8.0333    122.0565     61.0475   6.1060003884e+01   4.6000135107e+01    0.3018548    0.1850455  37.18 0.0009270283    1.689    0.408
       154  -9.2839    109.7486     63.6597   6.5225647557e+01   4.8238004273e+01    0.3736236    0.2661806 -52.38 0.0008788528    1.682    0.405
       155  -8.6561    110.8918     58.2351   6.3105117726e+01   4.8890038181e+01    0.4059989    0.2320131  26.55  0.001494565    2.283    0.562
       156  -8.3358    157.8018     63.2203   5.3667596406e+01   3.7436122566e+01    0.2500055    0.1792404 -48.31 0.0006242738    1.452    0.311
       157  -9.1868     87.9685     56.5662   6.9411417398e+01   5.3815328322e+01    0.7549384    0.3480136 -30.30   0.00210945    2.402    0.584
       158 -10.2261     85.1167     47.9654   6.7244791833e+01   5.5745807223e+01    0.4013516    0.3506971 -86.45 0.0009102613    1.698    0.411
       159 -10.2923     91.0200     37.6135   6.1524759253e+01   5.6086998423e+01     1.005778    0.3641748  33.68  0.003219518    4.106    0.756
       160  -9.9999     73.1798     59.3257   7.5444852543e+01   5.5991627333e+01    0.5530959      0.28631 -51.84 0.0009025854    2.513    0.602
       161  -9.4379     75.3084     50.6974   7.1586698663e+01   5.7108549238e+01    0.6527544    0.3518978  15.12  0.002539151    2.996    0.666
       162  -8.9584     53.8352     39.1192   7.5294107779e+01   6.2472107539e+01    0.2392052    0.1704213 -44.29  0.001128091    1.638    0.390
       163 -10.1322     50.0086     54.1329   8.2517934428e+01   6.0443195780e+01    0.7659132    0.3132214 -49.37  0.003102937    2.611    0.617
       164  -9.5451     56.0084     43.6345   7.6188131822e+01   6.1420096826e+01    0.8193685    0.4176878   3.98  0.002768148    4.493    0.777
       165  -8.3120    164.5133     60.0499   5.1487395704e+01   3.6347609034e+01    0.2160813    0.1379818 -35.56 0.0008316801    1.589    0.370
       166  -7.4607    152.4459     60.2737   5.3883957739e+01   3.9144399904e+01    0.1924697     0.131652 -46.96 0.0007163956    1.537    0.349
       167  -9.6603      6.9222     32.3214   9.4685924067e+01   6.8778539941e+01     0.324242    0.1938861 -26.25 0.0009625567    1.378    0.274
       168  -8.7701    146.6487     58.5584   5.4570797698e+01   4.0761886405e+01    0.3213604     0.229151 -33.26  0.001601578    1.452    0.311
       169  -8.2091    148.0000     53.4967   5.2776507877e+01   4.1195708763e+01    0.4339666    0.1726104 -34.93  0.001672236    2.550    0.608
       170  -7.9143    143.2488     44.4306   5.0983080178e+01   4.3573606012e+01    0.2828257    0.1169632  52.86  0.001134087    2.189    0.543
       171  -8.3461    141.9359     48.3951   5.2467222492e+01   4.3341792689e+01    0.2705091     0.184813 -42.56 0.0003854252    1.549    0.354
       172  -8.9850    138.9124     56.7116   5.5675354630e+01   4.2842153112e+01    0.4079641    0.2058959 -43.31 0.0005458153    2.114    0.527
       173  -8.0719    139.3860     51.7996   5.4054661341e+01   4.3455887042e+01    0.2871286    0.1964548  35.01  0.001026144    1.590    0.371
       174 -10.0551    159.0377    249.2081   9.4049594593e+01   1.0572885748e+00    0.4852549    0.1642485  44.30  0.001885602    3.226    0.690
       175  -9.4366    118.1899     54.8191   6.0020063407e+01   4.7836565019e+01    0.4830612    0.3189126 -38.60  0.001439902    1.584    0.369
       176  -9.1006    121.1255     46.9793   5.6680952172e+01   4.8333247837e+01    0.3533957    0.2141468 -33.03 0.0005244853    1.727    0.421
       177  -7.5348    157.5318     55.5014   5.1498806639e+01   3.8662454581e+01    0.1401093     0.132915 -89.15 -4.926614e-06    1.055    0.052
       178  -8.9802    162.7839     53.5225   4.9962233330e+01   3.7711538126e+01    0.3788703     0.197096 -30.12 0.0008182901    2.073    0.518
       179  -8.6403    167.1593     49.9733   4.8199484637e+01   3.7180406736e+01    0.2769394    0.1491763  67.53 0.0009003442    1.949    0.487
       180  -7.9613    105.6786     49.0157   6.1403464076e+01   5.1428293710e+01    0.3245855     0.208583  18.61  0.001488272    1.970    0.492
       181  -8.5327    105.5109     53.1896   6.2896868105e+01   5.0830995384e+01    0.2583955    0.2302915 -87.17 0.0007486921    1.456    0.313
       182  -8.3806    157.5235     48.9730   4.9613503837e+01   3.9591207098e+01    0.1996685    0.1356584 -35.33 0.0004270685    1.521    0.342
       183  -9.5624    130.8287     45.8599   5.4053002934e+01   4.6275119292e+01     0.876821    0.4376636 -13.39  0.002660753    3.457    0.711
       184  -8.5033    132.8547     35.8071   5.0383359134e+01   4.7109745899e+01    0.2595855    0.1995132 -30.17  0.000576114    1.398    0.285
       185 -10.7730    134.0435     30.9764   4.8593925010e+01   4.7407449769e+01    0.3402583    0.2588698  10.58  0.001864868    1.580    0.367
       186  -9.6737    149.6105     46.0280   5.0225070717e+01   4.1861175170e+01    0.6549404    0.2433451 -37.80  0.002525157    2.692    0.629
       187  -9.1527    153.6015     40.9268   4.7974635585e+01   4.1588785638e+01    0.2800466    0.2082098 -50.14  0.000768839    1.438    0.305
       188  -8.5938    111.9398     46.7208   5.8915015378e+01   5.0410647581e+01    0.2861256    0.1928837 -36.54 0.0005039436    1.567    0.362
       189  -8.6849    113.7649     41.0446   5.6489705930e+01   5.0792161103e+01    0.5280667    0.2924537   1.64  0.001956208    3.450    0.710
       190  -8.7043     40.2105     34.6321   7.9306732460e+01   6.5083857981e+01    0.3795119    0.2520751  31.88  0.002093878    1.569    0.363
       191 -10.0687     37.5835     41.8561   8.3336916240e+01   6.4208210163e+01    0.4124306    0.3572693  53.38  0.001575265    1.786    0.440
       192 -10.0318     35.9043     37.9599   8.2588703243e+01   6.5073027748e+01    0.3620732    0.2332587 -12.95 0.0003654862    1.518    0.341
       193  -9.2473     60.2550     33.6610   7.0523198946e+01   6.2291476125e+01    0.4191667    0.2379547 -40.68  0.001196893    1.949    0.487
       194  -8.6312     63.0688     26.8417   6.6597518005e+01   6.2755637047e+01    0.4629583    0.1505809  40.65  0.001858808    2.831    0.647
       195  -8.0863    181.3282    246.3088   8.9150830232e+01  -1.6932667642e+00    0.1288459   0.08500875   2.30 0.0003622531    1.660    0.398
       196  -8.2048    237.8973    243.9495   7.8112546810e+01  -8.8747079464e+00    0.1505621    0.1442464  14.67 0.0008712724    1.722    0.419
       197  -7.5095    226.3216    240.6317   7.9643956014e+01  -6.9851843907e+00    0.1011759   0.09841659  53.50 0.0007036442    1.796    0.443
       198  -8.0425    168.3249    239.6684   9.0762627023e+01   1.2479765855e+00    0.1214588   0.09742235  58.85  0.000573719    1.706    0.414
       199  -8.6586      9.1823    236.8763   1.2299096170e+02   2.2638939296e+01    0.2348453   0.09259164  76.65  0.001143664    2.665    0.625
       200  -9.0954     84.9612     21.4989   5.7065270521e+01   5.9286147247e+01    0.2803577    0.2024989  32.82 0.0005350253    1.220    0.180
       201  -8.1481    163.8737     41.8339   4.6470098391e+01   3.9043068565e+01    0.2796621      0.17529  11.52  0.001186686    2.794    0.642
       202  -8.9880    110.2124     33.0976   5.4597484844e+01   5.2592633126e+01    0.2934859    0.2865889  33.29 0.0009354682    1.116    0.104
       203  -9.1539    104.9628     40.8632   5.8725380135e+01   5.2738389207e+01    0.3525492    0.2478162 -48.80  0.001060886    1.750    0.429
       204  -8.5790    106.0719     36.4374   5.6846743125e+01   5.3082311686e+01    0.3046162    0.1784897  33.27 0.0008573233    1.788    0.441
       205  -8.8334    139.5993     40.0195   5.0347491266e+01   4.5006427564e+01    0.3453193    0.2222727 -39.18  0.001442163    1.646    0.393
       206  -8.5256    123.4590     39.8446   5.3751730083e+01   4.8768151113e+01    0.4598953    0.2262371  29.28  0.001704415    3.133    0.681
       207  -8.3355    160.2859     38.5835   4.6142534458e+01   4.0303777359e+01    0.2327019    0.1223731 -29.35  0.001061281    2.058    0.514
       208  -9.2028    144.1095     36.4424   4.8367696230e+01   4.4393461837e+01     0.316487    0.2241997 -70.74 0.0007310705    1.790    0.441
       209  -8.6645    153.4572     34.9353   4.6238173613e+01   4.2367639563e+01    0.3062145     0.197914 -60.34  0.001508029    1.867    0.464
       210  -8.7754    118.8957     34.4698   5.2991496431e+01   5.0481975453e+01    0.2693505    0.1910108 -26.65 0.0006768736    1.516    0.340
       211  -9.3127    101.0338     31.7902   5.6496021720e+01   5.4749020641e+01     0.456709    0.2211161 -32.63  0.001476321    2.180    0.541
       212  -8.9534    188.0309    233.6818   8.5829520026e+01  -6.8522744173e-01    0.2474761    0.1867575 -57.18  0.001168368    1.945    0.486
       213  -7.8003    101.8059     25.7897   5.4073955884e+01   5.5284952983e+01     0.222606    0.1551188  16.17   0.00119205    1.590    0.371
       214  -8.9856    197.5777    231.4443   8.3566420050e+01  -1.7180206436e+00    0.2403645    0.2226472  67.18  0.000988278    1.678    0.404
       215  -8.2622     45.6352     15.4140   6.8444991814e+01   6.7023491684e+01    0.2136454      0.15184  12.34 0.0008198618    1.209    0.173
       216 -10.4054    217.7182    225.3376   7.8645087542e+01  -3.6310469124e+00    0.2246424    0.1884824   4.44  0.000367074    1.107    0.097
       217  -9.2030    185.8354    225.5439   8.4927493206e+01   9.6502759499e-01    0.2889292    0.2282871  21.51 0.0004195549    1.121    0.108
       218  -8.2936     42.0372     28.0276   7.5714565684e+01   6.5853109564e+01     0.203892    0.1537484 -11.29 0.0003202085    1.128    0.114
       219  -8.6312    228.9877     29.8983   3.5459507481e+01   2.5915931337e+01    0.1778162    0.1538975 -70.85 0.0004454438    1.058    0.055
       220  -9.8065    152.9074     28.4311   4.4419774618e+01   4.3254852958e+01    0.4509351    0.2650355  -7.52  0.002065444    2.512    0.602
       221  -8.5108      1.4265     28.4402   9.6209005090e+01   6.9827484245e+01    0.2221486   0.09209391 -51.86 0.0005991372    2.052    0.513
       222  -8.9589    132.8623     17.1737   4.4394047429e+01   4.9147263800e+01    0.2325674    0.1868834  46.63 0.0004888148    1.156    0.135
       223  -8.7331    128.3334     25.6914   4.8014116389e+01   4.9328095324e+01    0.2687378    0.2241544 -57.17 0.0007477195    1.385    0.278
       224  -8.8606    129.6474     21.6517   4.6435008745e+01   4.9449453782e+01    0.3036081    0.1339255  41.68  0.001281032    2.390    0.582
       225  -9.1247     91.4715     25.9141   5.6918188362e+01   5.7458532388e+01    0.3839411    0.2024144 -40.81  0.001183408    2.279    0.561
       226  -8.0235     92.4868     20.5200   5.4539827031e+01   5.7843149629e+01    0.2280077    0.1790185  23.53 0.0008275292    1.188    0.158
       227  -8.6697    144.2633     25.5248   4.5002722993e+01   4.5616969531e+01    0.2286747    0.1813246 -30.69 0.0006555037    1.380    0.276
       228  -7.8337    110.4735     26.3592   5.2137753674e+01   5.3319539789e+01    0.2323839    0.1141447  55.56 0.0009009678    1.831    0.454
       229  -7.9539    241.1641     24.8515   3.3374545824e+01   2.4053370541e+01    0.1692289    0.1284195 -67.19  0.000411592    1.091    0.083
       230  -8.9316    187.0425    221.0550   8.3920251937e+01   1.5332261744e+00    0.1932578    0.1675544   5.64 -0.001877172    1.035    0.034
       231  -7.3759    108.0378    220.0364   1.0089335418e+02   1.4032171399e+01     0.159274     0.139176  40.67 0.0009622079    1.048    0.045
       232  -8.3617    187.8976    216.2210   8.2907839665e+01   2.2236180374e+00    0.2062254    0.1720937 -19.36 0.0003015805    1.151    0.131
       233  -7.3583     56.1878    216.2596   1.1200126016e+02   2.1917057663e+01    0.1922916   0.09146903 -81.10 0.0007225969    2.428    0.588
       234  -7.5995    214.5438    213.5295   7.7154112456e+01  -1.3460012073e+00     0.129568    0.1085928  -2.75 5.494113e-05    1.040    0.039
       235 -10.2813    154.6250    210.5025   8.9000882803e+01   8.5825284885e+00    0.2498082    0.2318469 -14.06 0.0003086044    1.092    0.085
       236 -10.0480     10.8315    207.2563   1.2094371734e+02   2.8645458528e+01        0.523    0.2874181  14.97  0.002802933    2.703    0.630
       237  -8.2836    111.6651     21.5795   5.0158558151e+01   5.3566891417e+01     0.293127    0.2062416 -25.36  0.001646447    1.556    0.357
       238  -8.4862    106.8525    206.6584   9.9290553259e+01   1.7024268842e+01    0.2080168     0.180684 -42.71 0.0005282783    1.252    0.202
       239  -9.0354    192.6835    195.3559   7.8101198215e+01   5.1447015832e+00    0.6642456    0.3487819 -61.95  0.002070989    5.351    0.813
       240  -8.4483    177.1920    196.0070   8.1477759664e+01   7.6056333348e+00    0.2161128     0.182913  24.07 0.0002717983    1.126    0.112
       241  -9.3432     38.9834    195.0929   1.1379875525e+02   2.8633778221e+01    0.1960935    0.1725222  69.92 -0.0009232552    1.068    0.064
       242  -7.8873    162.7301    193.2603   8.4127457638e+01   1.0604522857e+01    0.2860395    0.1255078 -53.23  0.001069639    2.788    0.641
       243  -7.1956    222.9642    188.0358   7.0762876471e+01   1.5780303159e+00    0.1587206    0.1293341 -18.98            0    1.057    0.054
       244  -7.1983     85.9974    184.0299   1.0098943911e+02   2.5282250101e+01    0.1602031    0.1527292  72.08            0    1.012    0.012
       245  -8.3995    139.1416     18.1423   4.3607171794e+01   4.7584099050e+01    0.3433025    0.1617029  48.55  0.001397274    1.964    0.491
       246  -8.2737    155.1726     17.1791   4.0801718753e+01   4.3907621224e+01    0.1789642    0.1412105 -73.62 0.0006822756    1.339    0.253
       247  -7.4673    104.6092    183.2124   9.6176280703e+01   2.2625848469e+01    0.1851699    0.1311159 -45.66 0.0002347149    1.469    0.319
       248  -7.9194    246.9705     16.7495   3.1336661849e+01   2.3841478754e+01    0.1435314   0.08669315  78.77 0.0008537358    1.605    0.377
       249  -8.8449     40.9369    179.5603   1.1171046255e+02   3.2080304160e+01    0.2204562     0.181462 -72.55 0.0003413953    1.118    0.105
       250  -7.2715    100.9955    175.9909   9.5868382319e+01   2.4891038694e+01    0.1597634    0.1553277 -75.15            0    1.021    0.021
       251  -8.3562    230.4148    168.6757   6.5543889768e+01   3.6937347643e+00    0.2714347    0.1145533 -42.73  0.001143853    2.228    0.551
       252  -6.8234    136.2885    165.2947   8.4869428970e+01   2.1287641222e+01    0.1502526    0.1166852 -10.91 0.0004020053    1.549    0.354
       253  -8.0299    247.6865    160.9818   6.1078714458e+01   2.2695045419e+00    0.2194129   0.09000143 -23.27 0.0007044989    4.242    0.764
       254  -8.3446    133.7262    148.1547   8.1843126113e+01   2.5662362713e+01     0.437892    0.1285015 -50.96  0.001238341    3.607    0.723
       255  -8.2253    237.4877    146.0079   5.9643392140e+01   6.4162707189e+00    0.1975936    0.1054361 -19.60 0.0008104166    2.560    0.609
       256  -9.6601     66.8401    144.2933   9.9619818031e+01   3.7709142057e+01    0.5044332    0.3366425  60.12  0.002369653    1.826    0.452
       257  -7.6807    227.9769    145.7662   6.1175813023e+01   8.0847192580e+00    0.1624778    0.1155487  40.58   0.00041299    1.580    0.367
       258  -7.8339    189.7657     15.0513   3.5935475339e+01   3.6097025481e+01    0.1679712    0.1510742 -75.99 0.0006795091    1.071    0.066
       259  -9.6361    183.4127    142.7734   6.8974884601e+01   1.7000082802e+01    0.2516639    0.2432068 -16.56 0.0002548822    1.062    0.058
       260  -8.0225    188.6967    139.8172   6.7198277038e+01   1.6541220227e+01    0.2405452    0.1980689  25.70  0.000717554    1.293    0.227
       261  -7.6893     95.8211    136.3050   8.9550385830e+01   3.5328675233e+01    0.2078323    0.1842266 -68.75 0.0005321205    1.175    0.149
       262 -11.0120     70.1691    126.4122   9.5115698266e+01   4.1705483088e+01     1.038817    0.6164882 -41.98  0.001716015    1.678    0.404
       263  -9.8900     79.1225     24.1195   5.9918225934e+01   6.0145955167e+01    0.7426522    0.2614076  36.08  0.002186273    3.183    0.686
       264 -10.1879     58.3261    124.5176   9.8440278464e+01   4.3738338519e+01    0.6559012    0.4105571  76.95  0.002084714    2.595    0.615
       265  -8.5354    112.3971    133.7793   8.4260574774e+01   3.3020360746e+01    0.3565992    0.2552353  70.08  0.001361083    1.991    0.498
       266  -9.1167     83.7418    132.0083   9.2170618794e+01   3.8326104342e+01    0.6625911    0.4089396  76.45   0.00241198    3.120    0.679
       267  -8.7941    135.6882    132.6535   7.7731788834e+01   2.8795136364e+01    0.8218036    0.1848697 -46.22  0.002127791    4.319    0.768
       268  -8.9672    132.3371    131.6532   7.8359492879e+01   2.9688219825e+01    0.3352447    0.2593215  82.94  0.001493508    1.844    0.458
       269  -7.4243    187.7010    132.3138   6.5654405913e+01   1.8216636845e+01    0.1455377    0.1178737 -73.73 0.0007015709    1.607    0.378
       270  -9.8241     98.8688    128.7838   8.6961363842e+01   3.6624581331e+01    0.7216936     0.439946  67.06  0.002638056    2.913    0.657
       271 -10.0563    140.6355    118.6767   7.2976456466e+01   3.0862142775e+01    0.7266275    0.4054918 -52.87   0.00226194    1.974    0.494
       272  -9.7337    129.9560     96.9969   6.9884350883e+01   3.7677299468e+01    0.7062761    0.2957619  36.61  0.002370889    2.855    0.650
