#   1 NUMBER                 Running object number                                     
#   2 MAG_AUTO               Kron-like elliptical aperture magnitude                    [mag]
#   3 X_IMAGE                Object position along x                                    [pixel]
#   4 Y_IMAGE                Object position along y                                    [pixel]
#   5 X_WORLD                Barycenter position along world x axis                     [deg]
#   6 Y_WORLD                Barycenter position along world y axis                     [deg]
#   7 A_WORLD                Profile RMS along major axis (world units)                 [deg]
#   8 B_WORLD                Profile RMS along minor axis (world units)                 [deg]
#   9 THETA_WORLD            Position angle (CCW/world-x)                               [deg]
#  10 FWHM_WORLD             FWHM assuming a gaussian core                              [deg]
#  11 ELONGATION             A_IMAGE/B_IMAGE                                           
#  12 ELLIPTICITY            1 - B_IMAGE/A_IMAGE                                       
         1 -12.2816    112.6833     25.1355   3.1899944966e+00   5.3488362430e+01    0.7468279     0.322738  56.53  0.003135089    2.117    0.528
         2 -11.7843     58.0875     29.3823   2.1174413311e+01   6.5774802402e+01    0.5358174    0.3585767  -6.26  0.001128694    2.159    0.537
         3 -12.7613    164.7152     27.3948   3.5632071853e+02   4.0561238947e+01    0.3989203    0.2926956  73.38 0.0007304639    1.344    0.256
         4 -11.0967     20.5983     21.0079   3.8087706419e+01   7.3779575058e+01    0.4624151     0.273254 -21.95  0.001754483    2.081    0.519
         5 -11.6716    179.5350     20.5498   3.5299414894e+02   3.7986628643e+01    0.6002534    0.2439161  48.83  0.002413239    3.699    0.730
         6 -11.3789     16.5405     13.4731   3.6712441265e+01   7.5664852980e+01    0.3083028    0.2239828 -15.69  0.000908713    1.405    0.288
         7 -11.2370     16.6926     10.2959   3.4494828528e+01   7.6177745189e+01    0.3122066    0.2168236  51.82 0.0009630636    1.938    0.484
         8 -11.6756     35.5515     17.5306   2.6030222822e+01   7.1995305167e+01    0.5378599    0.3629335 -22.60  0.002014749    1.641    0.391
         9 -12.1960    164.3332     18.3563   3.5379284277e+02   4.1681654870e+01    0.4149498    0.2914842  36.19  0.002261924    2.032    0.508
        10 -11.8924     22.9323     10.6893   2.9933555166e+01   7.5181585404e+01     1.069413    0.4688114  39.27  0.004967151    2.145    0.534
        11 -12.1877    127.4170     15.7558   3.5731835800e+02   5.0873307229e+01    0.5834187    0.3494118 -23.02  0.002257007    1.918    0.479
        12 -11.1854    132.7555     15.2306   3.5640668405e+02   4.9605599511e+01    0.3656315    0.2371264  55.33   0.00181743    1.587    0.370
        13 -10.9295    137.0403     14.2298   3.5552481292e+02   4.8654130938e+01      0.27867    0.2068252  84.37 0.0009096899    1.221    0.181
        14 -10.6704     88.7932      8.0742   9.9352979214e-01   6.1278118794e+01    0.3017175    0.2665651  52.98 0.0009292778    1.112    0.100
        15 -11.1037     85.8286     14.7132   4.7243866903e+00   6.1333968769e+01    0.4194814    0.2699103 -10.89  0.001894841    1.986    0.496
        16 -10.7140    225.5803     13.4821   3.4820593725e+02   2.9331563718e+01    0.1976639    0.1341193 -46.25 7.209947e-05    1.154    0.133
        17  -9.8240     84.7734     10.0191   2.8009926350e+00   6.2079325910e+01    0.2252452    0.1597011 -30.05 0.0006011713    1.541    0.351
        18 -11.5940    243.5201     14.4612   3.4753058025e+02   2.6004459636e+01    0.2098397    0.1719612 -13.54   0.00156718    1.721    0.419
        19 -11.2360    186.6038     14.5947   3.5088523720e+02   3.7083322244e+01    0.2559685    0.1498083 -52.45   0.00145929    1.415    0.293
        20 -11.8327    104.6198     12.0266   3.5956857613e+02   5.6953723436e+01    0.4387934    0.3116607 -31.45  0.001390054    1.518    0.341
        21 -11.2399    190.5837     11.7653   3.4989135046e+02   3.6523174571e+01    0.2907672   0.09451839 -32.59  0.001289647    2.598    0.615
        22 -11.6666    212.1320      9.7556   3.4810345116e+02   3.2301451468e+01    0.3678248    0.2256712 -19.39  0.001806443    2.060    0.515
        23 -10.8826    121.1864     11.6129   3.5673241926e+02   5.2847909461e+01    0.3776654    0.1569905  77.93   0.00154098    2.399    0.583
        24 -11.6565     63.2831      9.0141   8.3536658863e+00   6.7309135848e+01    0.4275369    0.2946343 -44.05  0.001236391    1.652    0.395
        25 -11.5609    168.4956      9.5636   3.5095390685e+02   4.1640881324e+01    0.4289248    0.1842396  65.39  0.002042567    2.259    0.557
        26 -12.3013     48.3538     12.7531   1.6412214839e+01   7.0167860217e+01    0.7409642    0.2651618  51.94  0.002924719    2.513    0.602
        27 -10.0444    145.2614      9.4189   3.5304245022e+02   4.7132195607e+01    0.1932084    0.1385401  45.60 0.0006993996    1.690    0.408
        28  -9.9830      5.6569      8.9865   4.3518873343e+01   7.7764744622e+01    0.1729243    0.1450061 -24.41 0.0009787912    1.096    0.088
        29 -10.2690      1.1155      7.8996   4.7422461710e+01   7.8404833292e+01    0.2981118   0.06019931 -53.89  0.001043808    4.248    0.765
        30 -11.1154    185.8732      6.8292   3.4896624740e+02   3.8037478770e+01     0.171804     0.156137 -83.20 0.0006769395    1.216    0.178
        31 -11.0290    153.9029      6.7842   3.5139976371e+02   4.5315632144e+01    0.1844238    0.1590195  75.37 0.0004290419    1.204    0.169
        32  -9.7392     78.0538      7.4714   3.2201109427e+00   6.3965428133e+01    0.2015016    0.1196613  66.56  0.000610867    1.520    0.342
        33 -11.8729    236.4149      4.1042   3.4575693927e+02   2.8310795924e+01    0.3013359    0.1484526 -42.24   0.00190543    1.473    0.321
        34 -11.5787    134.0773      2.5568   3.5198022958e+02   5.0492023300e+01    0.4181481    0.2407227  83.81  0.001313509    1.573    0.364
        35 -10.8636    128.9639      4.7583   3.5329137649e+02   5.1557974188e+01    0.1920141     0.168002 -81.21            0    1.026    0.025
        36 -11.0688     40.8080      4.1208   1.4491374137e+01   7.2761446291e+01    0.3330685    0.2045098  34.00  0.001042669    1.610    0.379
        37 -10.6977    223.9332      2.6582   3.4597662048e+02   3.0740526825e+01    0.2157736    0.1685361 -72.47 0.0007294887    1.165    0.141
        38 -11.2778    218.8289      3.1870   3.4631611802e+02   3.1658087341e+01    0.2464577    0.1652137  81.86  0.001032906    1.548    0.354
        39 -11.0842    142.0981      3.2885   3.5141719137e+02   4.8470682230e+01     0.253971    0.1742806 -44.15  0.001466842    1.391    0.281
        40  -9.4907     30.5116      4.5150   2.0450345588e+01   7.4737822130e+01    0.1260592    0.1108452  25.24 0.0005238513    1.024    0.023
        41  -9.6255     28.8073      1.5860   1.9337102908e+01   7.5415212507e+01    0.1837793    0.1473025  81.42 0.0004181256    1.891    0.471
        42 -11.8902    208.1521      2.0772   3.4657067711e+02   3.3858183665e+01    0.4927832    0.1810089  82.34  0.002424277    2.709    0.631
        43 -10.1885    148.4931      5.5046   3.5150669226e+02   4.6726535811e+01    0.1294869    0.1091115 -76.72  0.000153911    1.004    0.004
        44 -11.2748    113.5478      1.9313   3.5418317365e+02   5.5639455325e+01    0.3844751    0.1803702  78.02   0.00118457    1.947    0.486
        45 -11.6734      9.0950     19.5075   4.6492274766e+01   7.5427461546e+01    0.6092601    0.2968288  -1.23  0.000403042    3.128    0.680
        46 -10.0354      1.9326      1.8342   4.2406697120e+01   7.9411470350e+01    0.1936673    0.1376177 -13.52  0.001198379    1.327    0.246
        47 -10.6012    105.6049      2.1353   3.5539275895e+02   5.7610384835e+01    0.2895509    0.1787325 -63.59  0.001484547    1.722    0.419
        48 -10.2795    152.5441      1.4507   3.4992021264e+02   4.6128861439e+01    0.2388921    0.1108974  80.56 0.0006351217    1.965    0.491
        49  -9.9678     48.9644    111.5357   5.2698827438e+01   4.8619220351e+01    0.2291927    0.1479331  30.03 0.0006233704    1.578    0.366
        50 -11.5977    246.0194    247.4955   2.9517528354e+01  -4.7272597714e+00    0.1793273    0.1584838  30.85   0.00150791    2.251    0.556
        51 -11.6261     15.7464    108.9133   6.5826943996e+01   5.2790039139e+01    0.4419886    0.3693472  -5.01  0.002190801    1.348    0.258
        52 -10.1290    105.0152    108.4121   3.2464643771e+01   3.9880895093e+01    0.3194642    0.2110202  20.17  0.001299433    2.119    0.528
        53 -10.6154     47.4931    102.5253   5.1412526444e+01   5.1230218735e+01    0.5501581    0.2857579 -41.22  0.002144113    2.192    0.544
        54 -10.9492     50.5069    101.0108   4.9841155130e+01   5.1222180675e+01    0.4524829    0.2779242 -47.32  0.001981822    1.635    0.388
        55 -10.4680     91.3532    102.5417   3.5163395430e+01   4.3942628841e+01    0.3875357    0.2892077  -2.26  0.001681541    1.943    0.485
        56 -10.0783     85.9747    103.2565   3.7133749301e+01   4.4792060013e+01    0.2138044    0.2001905  41.21 0.0004028641    1.083    0.076
        57 -11.4632     17.4891    101.1779   6.4013644094e+01   5.4779506760e+01    0.4312002    0.2183149  87.96  0.001253951    2.305    0.566
        58 -11.4732    210.3699     98.1114   8.3120556358e+00   2.0922776584e+01    0.2063773     0.185239 -49.65 0.0002713156    1.096    0.087
        59 -10.6940     29.5119     97.7149   5.8117124622e+01   5.4641637211e+01    0.5563291    0.1519328 -48.19  0.001670891    3.690    0.729
        60 -12.2487     67.9882     95.2914   4.1481934792e+01   4.9986860932e+01    0.4590393    0.3867694  21.84 0.0007586255    1.280    0.219
        61 -12.2563     75.3831     78.0066   3.3595791436e+01   5.2782458077e+01     1.370585    0.8748516 -75.07  0.005427171    2.376    0.579
        62 -11.0014     77.2737     96.5937   3.8383958892e+01   4.8026891155e+01    0.4836295     0.253101  46.05  0.001556494    1.980    0.495
        63 -11.3596     79.1830     93.1750   3.6751858957e+01   4.8504724993e+01    0.7020825    0.4136434  42.87  0.002962068    1.703    0.413
        64 -10.2994     12.3215     97.3283   6.5763711711e+01   5.6210739107e+01    0.1542377   0.09354469 -41.86 0.0004607572    1.690    0.408
        65 -11.5700     22.6757     94.6062   6.0625904004e+01   5.6135389363e+01    0.4629546    0.2720583 -29.50  0.002019816    2.026    0.506
        66 -10.2556      7.9937     96.0111   6.7548707710e+01   5.6848718592e+01    0.2247738    0.2059493 -80.19  0.001322773    1.025    0.024
        67 -10.3471     42.9695     94.6772   5.1571609479e+01   5.3905713184e+01    0.3254548    0.2587383  68.56  0.001622998    1.410    0.291
        68 -10.4647     43.8779     90.5560   5.0205047403e+01   5.4869744507e+01    0.2478424    0.1959921 -60.03 0.0003687136    1.217    0.178
        69  -9.4415    125.8244     93.6514   2.2771174986e+01   3.8786406257e+01    0.2000798    0.1401487  60.70 0.0003155711    1.565    0.361
        70  -9.9664     35.4926     92.0860   5.4299188625e+01   5.5503976520e+01    0.2299922    0.1411942 -66.77 0.0008973861    1.578    0.366
        71 -10.8631     98.4157     90.7522   2.9616836077e+01   4.5261496259e+01    0.2713559    0.2545393  50.92 0.0003359811    1.073    0.068
        72 -11.2464     52.1704     87.3008   4.5760315770e+01   5.4539610433e+01    0.4035373    0.3099783  -9.79   0.00146289    1.604    0.376
        73 -11.2535     19.0885     87.9734   6.1116660036e+01   5.8230791519e+01    0.6140165     0.291062 -75.81  0.002491675    2.136    0.532
        74  -9.3911     38.5355     90.4738   5.2566500030e+01   5.5570011075e+01    0.1486618    0.1387091 -44.91 7.668569e-05    1.056    0.053
        75 -11.4993      5.9521     88.0868   6.7456857782e+01   5.9111282257e+01    0.5709121    0.3356311   9.25  0.002147788    1.887    0.470
        76 -10.0631     66.9646     88.0656   3.9883931162e+01   5.1951720088e+01    0.2460618    0.1831712 -23.73 0.0007096251    1.667    0.400
        77 -11.5511     27.7831     84.8241   5.6306030694e+01   5.8265576240e+01    0.4886143       0.4349 -32.05  0.001560779    1.138    0.121
        78 -10.1554     90.1030     85.4963   3.0726895939e+01   4.8154505630e+01    0.3350933    0.2036709 -64.69  0.001336161    2.078    0.519
        79 -11.6423     44.6935     84.1431   4.8221026524e+01   5.6416230786e+01    0.4556956    0.4223636 -86.31  0.002096776    1.124    0.110
        80 -13.6620    247.6976     77.6118   3.5990476419e+02   1.7694927622e+01    0.8703188    0.2677864 -39.64  0.004096461    2.294    0.564
        81  -9.8069     36.9922     85.5468   5.2112112417e+01   5.7048508547e+01    0.2223114      0.14537  24.89  0.001029572    1.594    0.373
        82 -12.3075     60.9090     83.3853   4.0971983773e+01   5.4129441215e+01    0.3194565    0.2895504  66.75 0.0004680972    1.175    0.149
        83 -10.6715     58.1847     77.8908   4.0473392746e+01   5.5915281040e+01    0.2714114    0.2093501 -75.73 0.0004957579    1.510    0.338
        84 -10.3713    112.9802     82.6285   2.2937258445e+01   4.3874066445e+01    0.2720947    0.2503486 -82.55  0.001447825    1.101    0.092
        85 -10.5282     67.5302     81.1075   3.7603707026e+01   5.3527886530e+01    0.3051296    0.2449368 -10.99  0.001405667    1.543    0.352
        86 -10.6569      2.5273     81.0837   6.8187507253e+01   6.1163355009e+01    0.3611707    0.2041905  64.54  0.001561887    2.062    0.515
        87  -9.5898    118.7986     78.0909   2.0016735383e+01   4.3481406822e+01    0.1960601    0.1163572 -44.82 0.0002768709    1.655    0.396
        88 -10.7792     89.1510     77.0923   2.8414801340e+01   5.0204435156e+01     0.465847    0.2598187  51.09  0.001908785    1.858    0.462
        89 -10.7754     94.5458     75.4480   2.6121988727e+01   4.9405919328e+01    0.4849511    0.3384686 -67.90  0.001448335    1.774    0.436
        90 -11.3708     53.3260     76.1642   4.2065334813e+01   5.7122684221e+01    0.3832709      0.33568 -89.86  0.001679254    1.286    0.222
        91  -9.3796    158.7721     75.9838   1.0829035422e+01   3.4840438284e+01    0.1723469    0.1105096 -39.94 0.0002401171    1.462    0.316
        92  -9.7098    118.4854     85.4949   2.2318423985e+01   4.2069008497e+01    0.1505887    0.1458257 -72.15 -0.0001035464    1.014    0.014
        93 -11.0282     14.2316     74.5462   6.0993701133e+01   6.2166518018e+01    0.2774477    0.2548336 -66.68  0.001641381    1.048    0.046
        94  -9.7673    103.4913     74.5030   2.3085365321e+01   4.7637917553e+01    0.1511607    0.1455748 -87.69 0.0008105896    1.013    0.013
        95 -11.6637     27.7418     73.2609   5.3594630021e+01   6.1269342546e+01    0.3179167    0.2589968 -17.64  0.000262825    1.304    0.233
        96 -10.4253     80.7672     71.9647   2.9630378405e+01   5.3048415391e+01    0.3994971     0.196085 -37.64  0.001490473    2.366    0.577
        97 -10.2863     41.0443     72.7139   4.6748820600e+01   5.9784284937e+01    0.2932161    0.2431598 -15.69 0.0008594363    1.314    0.239
        98 -10.9049     40.2036     68.6769   4.5943704672e+01   6.0885220851e+01    0.3184393    0.2468734  36.29  0.001022918    1.319    0.242
        99 -10.7768      2.1468     71.1158   6.6908188975e+01   6.3804245367e+01    0.3664968    0.2085815 -64.79  0.001353927    1.530    0.347
       100 -10.6240     34.7929     71.2220   4.9425068614e+01   6.0968680065e+01    0.3779942    0.2181854  34.11  0.001216469    1.751    0.429
       101 -11.4081    122.7708     68.4121   1.6025791340e+01   4.4400506394e+01    0.3815159    0.2558518  45.07 0.0006241236    1.595    0.373
       102  -9.5618     11.3003     68.3384   6.1311013974e+01   6.3985073453e+01    0.1513021   0.08897598 -39.61 0.0007035785    1.664    0.399
       103 -10.0563    222.6742     67.2957   1.2485876816e-01   2.3285248093e+01    0.1263917   0.07628319 -59.66 0.0002276038    1.626    0.385
       104  -9.6545    218.6725     67.3302   5.3681365581e-01   2.4003463606e+01    0.1318475   0.07666735 -59.15  0.000617324    1.709    0.415
       105 -10.0675    101.9940     66.7401   2.0959682773e+01   4.9507825629e+01    0.2075359    0.1896904  57.33 0.0003554491    1.080    0.074
       106 -11.5847      9.4743     55.5396   5.9440681766e+01   6.7331729399e+01    0.6931652    0.4519201  34.18  0.003614468    1.653    0.395
       107 -10.7477    105.7190     63.4816   1.8795096722e+01   4.9270870851e+01    0.2592278    0.2057996 -43.59 0.0007008101    1.271    0.213
       108 -11.5783     39.5089     56.5177   4.2231977958e+01   6.3833947725e+01    0.3122433    0.2377413  32.80 0.0005900518    1.318    0.241
       109 -11.5731     43.2554     60.5573   4.1733496793e+01   6.2359592644e+01    0.5117098    0.2510313 -56.54 0.0008197768    2.090    0.522
       110 -11.7864     46.4607     59.4924   3.9751837413e+01   6.2106149698e+01    0.7153949    0.2643217  44.53  0.002475061    3.038    0.671
       111 -11.2188     92.6687     62.5559   2.2338658065e+01   5.2416308906e+01     0.336362     0.255757  71.61 0.0008092173    1.501    0.334
       112  -9.5174    159.5022     62.4719   6.9759197287e+00   3.6898339660e+01    0.1368006    0.1296428 -60.18 0.0008083001    1.094    0.086
       113  -9.6782    202.2075     63.0299   1.3258519090e+00   2.7732809950e+01    0.1774182   0.08881704 -36.45 0.0005631528    1.728    0.421
       114  -9.8668    113.5586     60.7202   1.5783224093e+01   4.7941492499e+01    0.2079645    0.1354993 -50.96 0.0009450295    1.575    0.365
       115  -9.4897    150.6129     60.5453   7.9230471465e+00   3.9240311347e+01    0.1399329    0.1276156 -61.42 0.0001533541    1.032    0.031
       116 -10.0494     21.4820     57.5549   5.2699306486e+01   6.5816235119e+01    0.2251976    0.2067363  50.07 0.0007499558    1.214    0.176
       117 -10.4123     26.1977     59.3801   5.0524643315e+01   6.4877118848e+01    0.3081244    0.1960562  25.38  0.001511008    1.600    0.375
       118 -10.7563     25.2811     55.7858   4.9915527079e+01   6.5836768522e+01    0.3494974    0.2217654 -37.55  0.001039098    1.585    0.369
       119 -11.1304    124.1883     57.0119   1.2030958261e+01   4.6054354631e+01    0.3605306    0.2608604  17.93 0.0004076507    2.133    0.531
       120 -11.9772     75.6431     55.2782   2.5484291352e+01   5.7531712168e+01    0.6882679    0.2642451 -47.91   0.00242328    2.802    0.643
       121 -11.6526     72.5343     46.3085   2.3050543924e+01   5.9867143587e+01    0.7020338    0.3675028 -58.27   0.00264766    2.846    0.649
       122 -10.5811    106.4828     58.4705   1.6859899580e+01   5.0003927661e+01    0.2494539    0.1420192  66.53 0.0007441249    2.058    0.514
       123 -11.2258     88.0644     56.2340   2.1515902247e+01   5.4643672179e+01    0.5225329    0.1843772 -38.45  0.001589191    3.065    0.674
       124 -10.2712     33.4044     56.8373   4.5646221713e+01   6.4605073735e+01    0.2205141    0.1600332  19.61 0.0005733007    1.427    0.299
       125  -9.8389     50.2494     56.4309   3.6767208302e+01   6.2162337200e+01    0.2043799     0.132617  46.42 0.0009489594    1.625    0.385
       126 -12.4940    244.2571     52.0676   3.5505905316e+02   2.1552880131e+01    0.4605251    0.2306696 -61.13  0.001687477    2.005    0.501
       127 -11.4721     31.1304     53.2212   4.5654757350e+01   6.5732171927e+01    0.4220904    0.2673571   2.60  0.001933081    2.007    0.502
       128 -11.5814      7.6819     63.3170   6.2323770265e+01   6.5505987929e+01    0.2923027    0.2226188 -27.15 0.0008232382    1.309    0.236
       129  -9.8481    156.7886     53.5968   4.8908797082e+00   3.8884136660e+01    0.1923744     0.127372  82.94 0.0009430189    1.661    0.398
       130 -10.4789     59.8362     50.4166   2.9954797282e+01   6.1678054223e+01    0.5101874    0.2990148 -59.76  0.002156338    2.232    0.552
       131 -10.2491     61.6240     46.2351   2.7427981127e+01   6.2136844716e+01    0.3043433    0.1718643 -32.45  0.001303112    2.068    0.517
       132 -11.1184    110.4739     40.1983   9.2925159338e+00   5.2015639654e+01    0.7881761    0.4569508 -47.36  0.003600491    1.781    0.439
       133 -11.9982    119.8413     37.5632   6.3215517919e+00   5.0092372665e+01    0.5678861    0.3285817 -56.29  0.001613993    1.918    0.479
       134 -10.4164    112.5638     50.2392   1.2419156173e+01   4.9956771382e+01    0.2847128    0.2622155  15.87 0.0007657742    1.279    0.218
       135 -10.8864    116.8713     47.8521   1.0575255910e+01   4.9296075946e+01    0.4088628    0.3168499  49.90  0.001079777    1.326    0.246
       136 -11.2054    117.0300     43.4913   9.0092538992e+00   4.9924945010e+01      0.37979    0.3099628  76.04  0.001386048    1.191    0.160
       137  -9.4031     55.3907     50.2152   3.1879368746e+01   6.2554877923e+01    0.1435221    0.1065531  14.49 0.0006844013    1.617    0.382
       138  -9.9564    155.3240     48.7862   3.7232067154e+00   3.9932182144e+01    0.1856558    0.1259863 -26.65 0.0003922851    1.662    0.398
       139 -10.5663    118.5146     56.3869   1.3118222876e+01   4.7514098016e+01    0.3647465    0.2056284 -88.84  0.001225375    3.530    0.717
       140 -10.5242     82.6480     47.6360   1.9983100135e+01   5.7409708181e+01    0.3887177     0.232456 -15.18  0.001472243    2.947    0.661
       141  -9.5292     52.2981     48.2956   3.2539718941e+01   6.3504799802e+01    0.1417691    0.1099487  -3.96 0.0002647956    1.569    0.363
       142 -12.8559      4.2409     61.0426   6.3892820105e+01   6.6282908863e+01    0.5264558    0.3825875 -31.60 0.0003855008    1.341    0.254
       143 -12.3198     42.2718     44.1849   3.5874277213e+01   6.6060016807e+01    0.7914565    0.3466319  34.17  0.002726004    2.307    0.567
       144 -11.3596     26.1468     42.5159   4.4574954395e+01   6.8747683578e+01    0.4169083    0.2804752  49.50  0.001469023    1.818    0.450
       145 -10.4720     23.5824     37.3287   4.4061843260e+01   7.0174971167e+01    0.3951949     0.168977  42.00  0.001605596    2.694    0.629
       146 -10.6099     20.6484     45.5957   4.9263367553e+01   6.8704045457e+01    0.2507853     0.202319 -18.25  0.000540314    1.225    0.184
       147 -10.1446     13.8261     45.8857   5.3839024919e+01   6.9302829547e+01    0.2181492    0.1626987 -32.76 0.0006885389    1.271    0.213
       148  -9.9546    156.0831     42.1284   1.6639089123e+00   4.0692062031e+01    0.1922316    0.1873616  32.21 0.0007118339    1.259    0.205
       149 -10.2440     57.1598     41.8474   2.7484337369e+01   6.3833471836e+01     0.249304    0.1802104  51.03   0.00111141    1.417    0.294
       150 -10.4449     18.1116     40.5280   4.9043735586e+01   7.0107812052e+01    0.2974345    0.1541428 -41.95   0.00113791    1.852    0.460
       151 -11.5343     79.0078     35.4667   1.6097500468e+01   6.0237294045e+01    0.6806144    0.4520776 -33.27  0.002840396    1.615    0.381
       152 -10.8231    249.7726     38.9298   3.5205460649e+02   2.2225576427e+01    0.1873154    0.1329459 -67.62 0.0003926064    1.302    0.232
       153 -11.3567      3.6833     36.3287   5.7932584278e+01   7.2277049854e+01    0.4376773    0.3160657 -43.93  0.001229729    1.225    0.183
       154 -10.2513     60.5560     36.7562   2.3665757172e+01   6.4056088378e+01    0.2619562    0.1770054 -37.75 0.0006109948    1.549    0.354
       155 -10.6906     62.9784     33.4815   2.1111295095e+01   6.4094675664e+01    0.5504379     0.154373  44.22  0.001534945    3.554    0.719
       156 -10.4897    153.0482     35.7850   2.0764302126e-01   4.2255289108e+01     0.218707    0.1814754 -51.61  0.000542582    1.128    0.113
       157 -10.3406    175.6836     34.5012   3.5708529110e+02   3.7192687449e+01    0.2770001    0.1499915 -56.64 0.0008608794    1.732    0.423
       158 -11.8053    106.4041     31.5927   6.9711315329e+00   5.4223377443e+01    0.6245428    0.3111789  43.94  0.002584846    2.301    0.565
       159 -10.4669    229.0000    248.0320   3.2165086439e+01  -3.3514123270e+00    0.1518342   0.04777904 -37.80 0.0007423356    2.913    0.657
       160 -12.7571    105.5683     19.9415   2.5720741393e+00   5.5871965749e+01     0.362861    0.2769443 -70.69 0.0005900633    1.371    0.270
       161 -11.3455    239.9357     32.4739   3.5136198540e+02   2.4641163760e+01    0.2084256    0.1824055  13.47  0.001014462    1.780    0.438
       162  -9.6376    216.9956     31.9716   3.5278976257e+02   2.8894766138e+01    0.1459761    0.1101655 -51.68 0.0003444006    1.042    0.040
       163 -10.1430    219.0262    248.4797   3.3809044536e+01  -2.5167260814e+00    0.1466804   0.06893548   3.54 0.0008086951    2.424    0.587
       164 -11.4104     48.8642     29.9900   2.5752164408e+01   6.7523867450e+01    0.7290545    0.2370514  39.90  0.002533045    3.187    0.686
       165 -10.6000      9.6394     30.0094   5.0980494192e+01   7.3218874171e+01    0.2933465    0.2326908 -85.93  0.001705334    1.667    0.400
       166 -10.9836    170.7486     30.0076   3.5639465382e+02   3.8861454516e+01    0.3073862    0.1674514  89.50 0.0009765516    1.986    0.497
       167 -10.1220    239.4819    250.4580   3.0893442770e+01  -4.5179642967e+00    0.1014828   0.06812549  -6.89 0.0002089718    1.015    0.015
       168 -10.7084    157.2311     29.0100   3.5765402747e+02   4.2116947687e+01    0.2550986    0.2245816 -38.72 0.0009250486    1.219    0.180
       169 -12.1803    127.2118     28.2400   1.6957135714e+00   4.9496415303e+01    0.6637307    0.3630933  78.59  0.001665262    1.907    0.476
       170 -11.7638     26.5226     27.4767   3.7409151866e+01   7.1752013933e+01    0.4529912    0.3207232 -55.16  0.001787125    1.623    0.384
       171 -10.1602    177.5094     29.0187   3.5542840348e+02   3.7457478162e+01    0.1930041    0.1152526 -35.33 0.0006799536    1.572    0.364
       172 -10.5963    189.2502     27.1565   3.5385372144e+02   3.5108996847e+01    0.2953113    0.2233363  28.39  0.001615635    2.058    0.514
       173 -10.8567    183.6849     26.7677   3.5424949440e+02   3.6360326783e+01    0.3558952    0.1334504 -43.16 0.0009224804    2.152    0.535
       174 -11.4551    230.3568     26.5685   3.5071976269e+02   2.7020186055e+01    0.1963889    0.1880379 -62.49  0.001154418    1.354    0.262
       175 -10.6614    149.5866     27.5411   3.5817037483e+02   4.4114148509e+01    0.4421611     0.103543  65.41  0.001481997    3.676    0.728
       176 -11.1472    143.1841     25.2438   3.5829802591e+02   4.5934395294e+01    0.3242742    0.1638793  76.62  0.001473583    1.962    0.490
       177 -11.9124    248.3748     20.8593   3.4856589205e+02   2.4494142975e+01    0.3025348    0.1824581  89.28  0.002084534    1.776    0.437
       178  -9.5745    206.4823     25.4907   3.5207507473e+02   3.1718664669e+01    0.1222502   0.09616031 -58.01 5.460576e-05    1.006    0.006
       179  -9.6238     20.3095     25.3225   4.0643481609e+01   7.3008282351e+01    0.1879218    0.1199815 -32.15 0.0005585314    1.589    0.371
       180 -10.4879    244.3040    241.3420   2.8913514304e+01  -3.8974831616e+00     0.106637   0.05585578 -10.35 0.0004732407    1.681    0.405
       181 -10.0535     46.6184     19.7672   2.1350995729e+01   6.9565320986e+01    0.2097798    0.1886033 -71.54  0.001009797    1.400    0.286
       182 -10.9745    131.9232    240.5078   4.8996400309e+01   7.7738469880e+00    0.1867888   0.09960383  26.20 0.0007416966    1.563    0.360
       183 -10.5786    169.3313     22.9475   3.5458978667e+02   4.0016744382e+01    0.2220608    0.1699504  76.84 0.0002891043    1.288    0.224
       184 -10.8594    134.4766     22.2814   3.5854131523e+02   4.8409790029e+01    0.2742922    0.2384347  89.86  0.001236866    1.039    0.038
       185 -10.7161     46.4284     24.0249   2.3821656281e+01   6.8959033758e+01    0.2903673    0.2308879   7.65  0.000813269    1.385    0.278
       186 -11.7577    149.2099     22.3036   3.5660813829e+02   4.4817822096e+01      0.47969    0.1764754  73.34  0.001833723    2.664    0.625
       187 -10.9128     68.8507     20.5332   1.2533070256e+01   6.4678590693e+01    0.3372312    0.2786075 -43.20  0.001359678    1.323    0.244
       188 -10.9068     73.0058    238.0169   6.1791715129e+01   1.5033749870e+01     0.154591    0.1291537  34.64  0.001025444    1.018    0.017
       189 -10.0116    246.4517    230.4645   2.7043340611e+01  -2.8281301230e+00    0.1031997    0.0712171 -11.38 0.0001741393    1.004    0.004
       190  -9.3689     53.6322     21.6978   1.9130081656e+01   6.7857721822e+01    0.1436214   0.09781414  22.76 0.0005635041    1.741    0.426
       191  -9.5218     39.3022     21.3482   2.6118162324e+01   7.0721492104e+01    0.1905271     0.125148  28.54 0.0009787612    1.560    0.359
       192 -10.9547    248.7166    223.8265   2.5740737273e+01  -2.2443839059e+00    0.1705867   0.09326749 -18.41 0.0009958987    1.463    0.316
       193  -9.3788    171.3375    208.3270   3.6439976179e+01   8.2652698869e+00    0.1311126   0.08340398  -8.17 0.0006069286    1.726    0.421
       194 -11.9725      5.9269    185.7179   7.5155368144e+01   3.3170878536e+01    0.3637764    0.2202141  39.18  0.001969529    1.440    0.306
       195 -11.7972    236.2109     16.3077   3.4825506901e+02   2.7092124757e+01    0.1769321     0.159143 -64.78  0.001412284    1.287    0.223
       196  -9.1565     34.7198    180.3601   6.6695348271e+01   3.1945201941e+01     0.149945   0.08869099  60.21 0.0007013855    1.669    0.401
       197 -11.9559      9.3190    166.8812   7.3209068139e+01   3.7623365980e+01    0.2993633    0.2225338  20.31  0.001012631    1.431    0.301
       198 -12.8209     13.0398    160.4477   7.1661446849e+01   3.9004950048e+01    0.5532181    0.3616484 -44.54  0.002793546    1.783    0.439
       199  -9.7437    157.2931    165.6779   3.1987418052e+01   1.7917049442e+01    0.1276544    0.1106042  88.79 0.0005667536    1.613    0.380
       200 -10.0809    205.0397    163.0549   2.2404954676e+01   1.1211705211e+01      0.19386    0.1591664 -25.04 0.0008227226    1.031    0.030
       201 -11.3790    228.5209     15.5023   3.4848177515e+02   2.8572187969e+01    0.2031644    0.1451939 -56.39 0.0005658319    1.043    0.041
       202  -9.9719     28.6682    160.3156   6.6741479027e+01   3.7680394829e+01    0.1560701   0.09126461  57.01 0.0005977729    1.684    0.406
       203 -10.0466    104.5106    154.0210   4.2705561940e+01   2.9112873746e+01    0.2297293    0.1466161 -55.99  0.001036167    1.601    0.375
       204 -11.9802     16.5210    147.8997   6.9586920901e+01   4.2056708608e+01    0.9611866     0.226965 -87.98  0.002096021    7.858    0.873
       205 -11.4784     21.2120    150.5508   6.8258476618e+01   4.0953862830e+01     0.297938    0.2556659 -38.95 0.0003983822    1.325    0.245
       206 -11.7053     24.5214    147.4360   6.6862953407e+01   4.1498172228e+01    0.4665916    0.2541933 -47.09  0.001072276    2.042    0.510
       207 -10.7774      4.2428    153.4073   7.3990076770e+01   4.1493569502e+01    0.1980283    0.1099572  35.46 0.0009550201    1.690    0.408
       208  -9.4822    240.6740    152.3366   1.5072871434e+01   8.1079971342e+00      0.10907   0.08133397 -53.91 0.0007051536    1.722    0.419
       209  -9.6213     55.6603    152.6776   5.7214190712e+01   3.6696068849e+01    0.1537243    0.1104975 -29.97 0.0006595211    1.720    0.419
       210 -11.0116     47.0939    146.2890   5.9134470092e+01   3.9445520999e+01    0.5337874    0.2370867 -59.19  0.002105148    2.133    0.531
       211 -10.7074     32.9936    143.9224   6.3609526377e+01   4.1636302518e+01    0.2636592    0.2431158  76.50 0.0007529281    1.007    0.007
       212 -12.1406      3.5310    141.9931   7.3521717748e+01   4.4576160818e+01     0.499917    0.3247415  27.68  0.002103774    1.566    0.361
       213 -11.7800     24.2180    136.8590   6.5872543416e+01   4.4397789050e+01    0.4863192    0.2774252 -45.03  0.002156847    1.940    0.485
       214 -10.7497     40.4672    137.6833   6.0223212638e+01   4.2534569424e+01    0.2792176    0.2231097  74.20 0.0005864539    1.259    0.206
       215 -12.1642     12.2721    135.5394   6.9995681268e+01   4.5729087604e+01    0.5925322    0.2644849 -47.85  0.002386957    2.443    0.591
       216 -11.4503     30.3048    132.6738   6.3191873967e+01   4.4972662033e+01    0.3250442    0.2488731 -23.54 0.0008844042    1.560    0.359
       217 -10.8994     20.2995    133.9962   6.6969874049e+01   4.5521324143e+01    0.2634393    0.2418189 -50.35  0.000984096    1.163    0.140
       218 -11.0938     11.3776    125.1506   6.9374244607e+01   4.8635970648e+01    0.5458694    0.2314247 -49.46  0.002157844    2.431    0.589
       219  -9.7272     33.2983    125.6434   6.1141328603e+01   4.6602606765e+01    0.1600082    0.1026474  63.78 0.0007035441    1.703    0.413
       220  -9.7404      1.6102    124.7611   7.3012072112e+01   4.9354666099e+01    0.2048991    0.1172195  83.65 0.0009503637    1.666    0.400
       221 -10.9939    104.1465    122.4943   3.6190189265e+01   3.6725176337e+01     0.327326    0.2807121  39.25 0.0009286233    1.179    0.152
       222  -9.9489     49.0200    122.5307   5.4746530470e+01   4.5636428547e+01    0.2304956    0.1497559  26.08 0.0008931483    1.600    0.375
       223 -10.7822     44.0000    120.0101   5.6195050013e+01   4.6947173723e+01    0.3388726    0.2116991 -82.70  0.001284261    1.756    0.430
       224 -10.2680     78.9918    114.5558   4.2310288837e+01   4.3229387418e+01    0.2954162    0.2101181 -40.25 0.0007370414    1.517    0.341
       225  -9.4065     58.6746    115.2980   4.9752051095e+01   4.6265624291e+01    0.1599939    0.1136418  64.63  0.000454059    1.630    0.386
       226 -11.1819     35.3211    102.9021   5.6579478339e+01   5.2617237300e+01    0.5188274    0.2632996   6.47 0.0003372116    2.795    0.642
       227 -11.7610     26.6674    105.6761   6.0747164045e+01   5.2752072528e+01    0.6326631      0.57275 -77.13  0.003548759    1.043    0.041
       228 -11.5138     22.5637    114.0087   6.3699760392e+01   5.0833016227e+01    0.4650533    0.3024632   0.65  0.001528402    1.861    0.463
       229 -11.9750     27.4994    112.2762   6.1442278147e+01   5.0860273945e+01    0.6172719    0.3219524  47.82  0.002581045    2.036    0.509
       230 -11.0110      7.8223    114.5870   6.9724249455e+01   5.1774089118e+01    0.3000456     0.250286 -79.62 0.0003318813    1.090    0.082
       231 -12.1707      2.6490    111.5330   7.1525325243e+01   5.2911945860e+01    0.5152819    0.3341289 -73.79  0.001527878    1.378    0.274
       232 -11.4053      3.2187    104.5245   7.0621656476e+01   5.4797561666e+01    0.4657044    0.2949756  37.12  0.001086625    1.638    0.389
       233 -11.8230     79.6509    108.1788   4.0550171580e+01   4.4725696766e+01    0.5987622    0.4130618   5.85  0.002470586    2.139    0.532
