#   1 NUMBER                 Running object number                                     
#   2 MAG_AUTO               Kron-like elliptical aperture magnitude                    [mag]
#   3 X_IMAGE                Object position along x                                    [pixel]
#   4 Y_IMAGE                Object position along y                                    [pixel]
#   5 X_WORLD                Barycenter position along world x axis                     [deg]
#   6 Y_WORLD                Barycenter position along world y axis                     [deg]
#   7 A_WORLD                Profile RMS along major axis (world units)                 [deg]
#   8 B_WORLD                Profile RMS along minor axis (world units)                 [deg]
#   9 THETA_WORLD            Position angle (CCW/world-x)                               [deg]
#  10 FWHM_WORLD             FWHM assuming a gaussian core                              [deg]
#  11 ELONGATION             A_IMAGE/B_IMAGE                                           
#  12 ELLIPTICITY            1 - B_IMAGE/A_IMAGE                                       
         1 -14.8267      7.5326    148.3790   1.4641756527e+02   4.2512311902e+01      5.38378     1.584748 -83.03   0.02189115    3.600    0.722
         2 -11.7948      2.0000     44.5438   1.3327596952e+02   6.5062705579e+01    0.7247692    0.1406879 -64.52  0.002472543    4.781    0.791
         3 -13.1952    191.9807     27.8306   7.2152910560e+01   3.3429827252e+01       1.4357     1.201222  44.57  0.007016634    1.212    0.175
         4 -13.4488    205.6064      8.9957   6.5129189719e+01   3.2020295664e+01     1.586276      1.00244  44.02    0.0080128    1.731    0.422
         5 -12.9096      2.3363      6.6282   1.2087890826e+02   7.2043255451e+01     1.608557    0.4068678 -52.06  0.006930316    3.446    0.710
         6 -10.4221     33.0058      7.4439   1.0616083602e+02   6.9150569755e+01    0.7484857   0.08774596 -39.72  0.002038305    7.443    0.866
         7 -10.1192     98.5215    249.5117   1.3807329990e+02   1.3168589486e+01    0.1951123    0.1510389  65.47  0.001495227    1.115    0.103
         8 -10.9184    140.1207    250.0604   1.3111349957e+02   7.0761401175e+00    0.3992117    0.1179958  40.94  0.001790792    2.681    0.627
         9 -11.0616    102.4876    247.9925   1.3727595256e+02   1.2848598315e+01    0.2970532    0.1948003  58.47  0.001037828    1.258    0.205
        10 -10.1419     25.4234    247.2684   1.4949821678e+02   2.2347910335e+01    0.1934268   0.07770713  65.48 0.0006216542    2.097    0.523
        11 -11.3006     34.1211    245.9304   1.4811748618e+02   2.1648023758e+01    0.4544892    0.3327945 -68.57  0.003756033    1.691    0.408
        12 -10.5527      1.9982    240.4877   1.5264772879e+02   2.5704755499e+01    0.2829864    0.1273961 -87.63  0.001826413    1.860    0.462
        13 -10.4546      2.1364    248.5400   1.5293377278e+02   2.4409501340e+01    0.3106543    0.1555983 -88.77  0.002385619    1.659    0.397
        14  -9.8157     82.0189    242.9275   1.4025691398e+02   1.6408102445e+01    0.1723595    0.1282418  58.58  0.001298369    1.029    0.028
        15 -10.6890     12.8569    241.4522   1.5109542320e+02   2.4533691563e+01    0.2476714    0.1270497  85.40  0.001436268    1.610    0.379
        16 -14.0412      8.9363    206.5004   1.5001517401e+02   3.0920586295e+01     8.231624    0.6617391  40.88   0.03582864    4.523    0.779
        17 -12.3841     39.7541    234.5646   1.4658076980e+02   2.2898413429e+01     0.266377    0.2166373 -78.67 0.0007859938    1.424    0.298
        18 -14.3073     45.8251    227.0868   1.4510264878e+02   2.3491683066e+01     2.420556     1.396729  35.19  0.005936773    1.963    0.491
        19 -10.4907    173.4400    222.4571   1.2167192551e+02   5.6766378978e+00    0.3545162     0.260892  59.55   0.00217468    1.583    0.368
        20 -10.4745      5.3455    227.8161   1.5162397180e+02   2.7497333415e+01    0.3156646    0.2688879  -8.90  0.002601035    2.440    0.590
        21  -8.5994    152.4890    213.0540   1.2421139265e+02   1.0600892939e+01    0.1526369    0.1254732 -52.19 0.0002851236    1.443    0.307
        22  -9.9957    249.2663    249.0449   1.1266836796e+02  -9.1711199914e+00    0.2154883     0.129162   5.61  0.001414755    1.618    0.382
        23 -11.2187     21.4798    200.6340   1.4751750954e+02   3.0838001185e+01     0.329017    0.1521948  57.33  0.001455212    1.837    0.456
        24 -11.2153     65.0717    199.6816   1.3941870384e+02   2.6173388398e+01    0.2950951    0.2140072 -49.82  0.001175265    1.800    0.444
        25 -10.3532     13.0919    197.3674   1.4878751341e+02   3.2237786014e+01    0.2600409    0.1353173  53.36  0.000847507    1.632    0.387
        26  -8.1463     51.4769    197.4712   1.4179710774e+02   2.8247590658e+01    0.1142638   0.08950377  74.98 0.0001648232    1.020    0.019
        27  -9.3997    192.0431    193.2449   1.1344468973e+02   6.7696439371e+00      0.31709    0.1780347 -64.00  0.001090919    5.180    0.807
        28 -11.5096     70.7798    191.6167   1.3748304841e+02   2.7001462816e+01    0.2455267    0.2120796 -60.37 0.0006612822    1.367    0.269
        29 -12.9487     67.4016    176.7338   1.3650532693e+02   3.0429346979e+01    0.4539861    0.2634374 -45.61  0.001797642    2.278    0.561
        30 -10.5854     80.2893    178.6736   1.3402684095e+02   2.8308862177e+01    0.2166273    0.1897058  82.02 0.0003696878    1.031    0.030
        31  -8.2437    171.2708    173.0327   1.1381260321e+02   1.3946869253e+01    0.1565334    0.1218881 -37.53 0.0002628907    1.383    0.277
        32 -11.4073     87.2672    169.2947   1.3127011115e+02   2.9249080069e+01    0.5329989    0.4892219 -72.77  0.003513352    1.142    0.124
        33 -11.4248     32.6075    155.1060   1.4159435003e+02   3.8926693330e+01    0.6688977    0.1058513 -68.31  0.002219585    4.813    0.792
        34 -10.1554    190.5878    154.0785   1.0603039942e+02   1.3440347320e+01    0.4751182    0.3278388 -78.16  0.001928784    3.017    0.668
        35  -9.6959     99.4500    152.9095   1.2595075308e+02   3.0861019910e+01    0.2612098    0.2376937 -63.26 0.0007362972    1.108    0.097
        36 -11.6786     88.1858    152.3685   1.2850220365e+02   3.2712299691e+01    0.2669821    0.2320057 -40.01 0.0005992444    1.339    0.253
        37  -8.6220    102.1694    148.7975   1.2459212115e+02   3.1306480748e+01    0.1757493    0.1574398 -31.74 0.0003168179    1.298    0.230
        38 -12.1512     67.1826    143.8857   1.3217534087e+02   3.7490218364e+01     0.656034     0.437725  68.47  0.003387032    1.669    0.401
        39  -9.2616    184.1943    147.6817   1.0593415835e+02   1.5871996788e+01    0.2854403    0.2246561 -75.18  0.001162798    1.854    0.461
        40 -12.5907     33.0093    133.6556   1.3906062958e+02   4.3559423404e+01     1.203961    0.1601794 -61.16  0.004073702    4.286    0.767
        41  -8.3238    192.0480    144.0444   1.0352702910e+02   1.4884297513e+01    0.1722918    0.1596691  -0.37 0.0003944817    1.034    0.033
        42  -8.5540    180.2297    143.1765   1.0575120605e+02   1.7507869151e+01    0.1934609    0.1750013 -80.10 0.0006343794    1.364    0.267
        43  -9.4162    110.5602    137.7097   1.2047051512e+02   3.2290469802e+01    0.3256207    0.2314233 -20.85  0.001236119    2.055    0.513
        44  -9.9851     86.3762    136.4181   1.2621047654e+02   3.6480938079e+01    0.2460881    0.1981879  77.76 0.0004549209    1.327    0.246
        45 -10.4227     97.7148    135.1369   1.2313759945e+02   3.5002644532e+01    0.2436541    0.2314332 -21.34 0.0004960137    1.195    0.163
        46 -10.0504     56.4315    129.2825   1.3257913420e+02   4.2073224498e+01    0.2565437    0.1033454 -59.04  0.001143648    2.113    0.527
        47  -9.4719    163.4561    127.8754   1.0581318471e+02   2.3941503952e+01     0.480245    0.3147927  81.86  0.001765638    3.091    0.677
        48  -9.0159    107.2709    124.2092   1.1846930900e+02   3.5797928434e+01     0.191851    0.1810485 -33.98 0.0004335872    1.106    0.096
        49 -10.6772     33.1650    117.6205   1.3685511269e+02   4.7116916739e+01    0.6955631    0.1227476 -68.44  0.001908681    6.177    0.838
        50 -10.0497    168.0067    113.1215   1.0114319137e+02   2.5776526978e+01    0.3367815    0.2847757 -82.86 0.0007864376    1.510    0.338
        51  -8.7660    203.4801    111.4902   9.3472925266e+01   1.8052330722e+01    0.1509503     0.139759   0.94 7.854129e-05    1.035    0.034
        52 -11.1770      2.8888    152.6424   1.4773484635e+02   4.1964782816e+01     0.473654    0.2358147 -82.88  0.001467965    1.592    0.372
        53  -9.1227     33.6081     93.2763   1.3271223700e+02   5.2524061774e+01    0.2367357    0.1298479 -55.09  0.001293422    1.473    0.321
        54  -9.0174     74.4688     86.9902   1.1879094453e+02   4.9199727225e+01    0.3371943    0.1715393  56.41  0.001289334    3.381    0.704
        55 -11.7161     10.6040     64.3398   1.3449299329e+02   6.0515305376e+01     0.448953    0.2165263  36.17  0.002214828    2.640    0.621
        56 -10.0789     30.3064     61.2120   1.2675397165e+02   5.9745261407e+01    0.3290334    0.1888022  34.65  0.001331438    2.125    0.529
        57 -10.5288    121.6401    249.6283   1.3420759928e+02   9.8747512722e+00    0.2959854   0.07386559  45.17  0.001261525    3.018    0.669
        58 -10.2366     81.3341    248.6165   1.4082821541e+02   1.5606786666e+01    0.2276243    0.1496982  67.98  0.001177837    1.318    0.241
        59  -9.5050     47.0896    249.5000   1.4633121659e+02   1.9647994094e+01    0.1440473   0.07667572  46.72 0.0003824989    1.516    0.340
        60  -9.6586    238.4893    247.9778   1.1424089080e+02  -7.5540605482e+00     0.124047   0.09702098 -54.17 0.0008104732    2.599    0.615
