#   1 NUMBER                 Running object number                                     
#   2 MAG_AUTO               Kron-like elliptical aperture magnitude                    [mag]
#   3 X_IMAGE                Object position along x                                    [pixel]
#   4 Y_IMAGE                Object position along y                                    [pixel]
#   5 X_WORLD                Barycenter position along world x axis                     [deg]
#   6 Y_WORLD                Barycenter position along world y axis                     [deg]
#   7 A_WORLD                Profile RMS along major axis (world units)                 [deg]
#   8 B_WORLD                Profile RMS along minor axis (world units)                 [deg]
#   9 THETA_WORLD            Position angle (CCW/world-x)                               [deg]
#  10 FWHM_WORLD             FWHM assuming a gaussian core                              [deg]
#  11 ELONGATION             A_IMAGE/B_IMAGE                                           
#  12 ELLIPTICITY            1 - B_IMAGE/A_IMAGE                                       
         1 -14.3304    228.8802     66.1345   9.2633863693e+00   2.3969124013e+01     2.377282     1.248035 -62.83   0.01463398    1.779    0.438
         2  -7.2853    212.1498     20.2555   2.2578391927e+00   3.2414106124e+01    0.5372988    0.4550397 -31.40  0.004273712    1.674    0.403
         3 -14.4431    196.1674     81.2505   1.5523841561e+01   2.7265199717e+01     1.678021     1.467404 -32.15   0.01168602    1.407    0.289
         4 -12.6258    245.8492     52.2034   5.5508639977e+00   2.3169250197e+01    0.6199508    0.2878485 -50.24  0.004079743    1.556    0.357
         5 -12.1005    233.1450     36.2821   3.7305672627e+00   2.7056881833e+01     0.852122    0.2776338 -66.06  0.003514216    4.622    0.784
         6 -12.6711    225.1090     24.0907   2.1261785318e+00   2.9771243672e+01    0.8307794    0.4352122  52.75  0.005018926    3.096    0.677
         7 -12.1193    241.8792     22.6271   9.1340746426e-01   2.7235300819e+01    0.9216962    0.3239364  64.85  0.005447818    3.226    0.690
         8 -13.1529    188.8069     45.0099   9.0193653316e+00   3.3730177044e+01    0.9890553    0.8972202 -40.64  0.004204887    1.425    0.298
         9 -13.1320    200.6573     36.7290   6.2512558094e+00   3.2562834775e+01     1.670116    0.6992871 -60.50  0.008234215    2.282    0.562
        10 -12.3347    146.1904     65.0230   1.9237196865e+01   3.9488252018e+01     1.694493     0.909486 -52.90  0.008341999    1.859    0.462
        11 -12.8840    179.1670     37.9351   8.5197202552e+00   3.6492787850e+01    0.7720138    0.5828687  52.74  0.004280221    1.710    0.415
        12 -12.7695    221.2273     38.2360   4.9048373140e+00   2.8776632661e+01     0.625259    0.3547904 -59.99 0.0009776999    1.382    0.276
        13 -15.2266     63.8810     84.4545   4.6780815625e+01   5.2837410759e+01     2.374516     1.681807  50.39   0.01167066    1.459    0.314
        14 -13.5076     65.6383     15.2922   2.2077060040e+01   6.3917727360e+01     1.123654     1.061673 -20.64  0.007867928    1.279    0.218
        15  99.0000     76.0179      7.0963   1.5920766376e+01   6.2467753558e+01    0.9581395    0.5777104  77.05  0.002529149    1.644    0.392
        16 -12.4786     80.4682     22.1227   2.0445425340e+01   5.9912676651e+01    0.7393668    0.3807413  55.38  0.002498969    1.608    0.378
        17 -13.1969     25.8479     40.1894   5.0186184180e+01   6.7650573439e+01     1.744004     1.171466 -21.41    0.0075547    1.707    0.414
        18 -13.7462     36.6625     56.7149   5.0281683931e+01   6.2992476804e+01     2.017475     1.358407  26.07   0.01061966    1.380    0.275
        19 -12.0364     52.6656     21.1078   2.9091157893e+01   6.5938191746e+01    0.8257523    0.5272011 -64.35  0.001381199    2.680    0.627
        20 -13.5775      5.9935     37.7830   6.1775372320e+01   7.0377272593e+01     1.155893    0.7333573 -87.69  0.004371871    2.983    0.665
        21 -13.3853     13.5452     34.6740   5.5606463087e+01   7.0197726186e+01     1.030573    0.5972015 -63.84  0.005212921    2.428    0.588
        22  99.0000     35.6816     21.1340   3.6731663708e+01   6.9137255916e+01     2.684466      1.37916  53.76   0.01284117    2.224    0.550
        23 -14.3027     62.9377     39.2759   3.2434429023e+01   6.1373480271e+01     1.624233     1.192796 -21.40  0.009019042    1.722    0.419
        24 -13.4171      4.2274     55.6569   6.8188530741e+01   6.6833370792e+01     1.176892    0.7460911 -53.23  0.003255642    1.522    0.343
        25 -11.6790    158.9802     26.9564   8.2276004612e+00   4.1926393556e+01    0.3776997    0.2431798 -21.97  0.001632217    2.326    0.570
        26 -10.1095    151.4581     24.3825   8.4745492346e+00   4.3814585473e+01    0.5791472    0.3536178 -88.80  0.003392756    1.519    0.342
        27 -12.0027    149.6166     41.1804   1.2837689288e+01   4.2160724527e+01    0.6662112    0.5693465  75.46  0.004464194    1.163    0.140
        28 -10.6190    101.8252     20.7781   1.5058784947e+01   5.5260074291e+01    0.3456365    0.2033416 -32.99  0.001818343    2.006    0.501
        29 -12.3788    135.3586     21.4040   9.7439617940e+00   4.7647768687e+01    0.5054789     0.327917 -27.43  0.002891454    1.986    0.497
        30 -11.4532    123.8371     23.3954   1.1966732326e+01   4.9991839746e+01    0.3640427    0.2603327 -21.00  0.001618229    1.938    0.484
        31 -10.5787    113.7996     21.3464   1.3018631091e+01   5.2482479754e+01     0.747094    0.5102478  20.80  0.003958842    2.518    0.603
        32 -11.2081    113.4279     14.2659   1.0948421726e+01   5.3314927553e+01    0.2928232    0.2451424  -3.97 0.0008034537    1.708    0.414
        33 -12.1397    115.8354      8.2266   8.7709799795e+00   5.3361069845e+01    0.5970984    0.3187656 -53.37  0.002505705    1.981    0.495
        34 -10.7965    202.8404     17.7849   2.4152810657e+00   3.4348654236e+01    0.3470774    0.3001596 -72.46  0.002252662    1.271    0.213
        35  -8.2925    227.2195      8.7352   3.5934179437e+02   3.1071410783e+01     0.397895    0.1547048 -56.06  0.002485438    1.876    0.467
        36  99.0000    228.0924     15.5729   4.7149264824e-01   3.0208960568e+01    0.5534365    0.3400665  89.20  0.002703645    1.480    0.325
        37 -11.2210    219.7844     12.2886   3.5529326905e-01   3.1950973079e+01    0.2929901    0.1633745  76.18  0.001055914    1.768    0.434
        38 -12.8684    220.7165      7.4355   3.5944797024e+02   3.2295908902e+01    0.2523397    0.1616819 -62.74 0.0008419426    1.114    0.103
        39 -10.3377    156.4337     12.0217   4.9641525827e+00   4.4090896462e+01    0.2198483    0.1870371 -25.97 0.0009597162    1.611    0.379
        40  -9.9310    156.6158      8.1176   4.0236953700e+00   4.4444423206e+01    0.2817262    0.1725301  47.74  0.001659063    2.255    0.557
        41 -12.4635    250.0228     11.2613   3.5868555879e+02   2.7202757487e+01    0.3143332    0.1534059 -43.69  0.001626325    1.623    0.384
        42 -13.4176    244.0432      8.0100   3.5843080052e+02   2.8451595614e+01    0.7915525    0.3137161 -86.81  0.004704235    2.537    0.606
        43 -10.7883    150.2540     13.1859   5.8681289324e+00   4.5282508572e+01    0.1989468     0.148782 -78.22 0.0005027375    1.101    0.091
        44  -9.2032     14.5299     13.4120   4.5496281455e+01   7.3570996368e+01    0.2346018    0.1560042  55.40  0.001283669    2.302    0.566
        45 -10.7794    125.2379     11.8107   8.4896204068e+00   5.0902114522e+01    0.2732418    0.1804332  68.90  0.001339914    1.292    0.226
        46 -10.2862    108.6512     10.8084   1.0663468743e+01   5.4740064089e+01    0.3162021    0.1960516  -6.24  0.001651386    2.796    0.642
        47 -10.6484     38.0370     12.2818   3.1367430468e+01   6.9847301186e+01     0.187238     0.157951  19.14  0.000320884    1.192    0.161
        48  -9.9148     92.9084     11.8890   1.3892977997e+01   5.8208965450e+01    0.1629166    0.1267258 -82.66 0.0003806202    1.302    0.232
        49 -10.2878     88.6810     12.0834   1.4848026650e+01   5.9146383157e+01    0.1549144    0.1443988  64.78 0.0004377171    1.169    0.144
        50  -9.6213    179.6134     10.7204   2.6745096547e+00   3.9499618759e+01    0.1766359   0.09861035 -36.13  0.001095215    1.908    0.476
        51  -9.9292    144.6544     10.3353   5.7540399498e+00   4.6774172798e+01    0.2566863    0.1190624  86.40  0.001137981    2.079    0.519
        52 -10.4077    100.3151      6.6701   1.0744885669e+01   5.7022199704e+01    0.4733455    0.2035479 -53.06  0.002189843    2.843    0.648
        53 -10.5415     26.4536      9.5602   3.5999474983e+01   7.2244795570e+01    0.3029211    0.1725197  28.59  0.001082211    1.712    0.416
        54  -9.5914      9.3274     10.1720   4.7538059160e+01   7.4738202223e+01    0.1265499    0.1082223 -32.72 0.0002547476    1.381    0.276
        55 -11.6689    193.8091      8.0773   1.1322322908e+00   3.7040910671e+01    0.2381178    0.1812211  79.20  0.001232616    1.353    0.261
        56 -13.0490    173.2517      5.9221   2.1338890112e+00   4.1246510142e+01    0.3577939    0.2012499 -31.87  0.001927079    2.082    0.520
        57 -10.8569     46.1181      2.2774   2.2997843164e+01   6.9333986053e+01    0.2414647     0.172711  37.03  0.001536047    1.299    0.230
        58 -10.2251     44.5242      7.9885   2.6407374297e+01   6.9079962162e+01    0.2044245    0.1221754 -18.97  0.001124215    2.214    0.548
        59 -10.5571     48.3532      6.2087   2.4036185735e+01   6.8493770254e+01    0.3147931     0.179717  44.33 0.0009042823    1.476    0.323
        60  -9.2554    164.2758      7.6576   3.2399965668e+00   4.2897585442e+01    0.1197777   0.06524339 -65.32 0.0007001481    1.621    0.383
        61  -8.7374    209.7977      6.1728   3.5980723071e+02   3.4318794475e+01    0.2303682    0.1672518  60.71  0.001747145    1.858    0.462
        62 -10.4058    217.5654      2.5085   3.5873846908e+02   3.3331262394e+01    0.1954758    0.1296195  89.52 0.0008947686    1.338    0.252
        63 -10.8792    214.2724      1.5376   3.5872971732e+02   3.3996698199e+01    0.1811973    0.1133435  68.73 0.0007768875    1.812    0.448
        64 -10.5049      3.4311      6.1462   4.9976682978e+01   7.6051663994e+01    0.3178676    0.1560458  10.80  0.001515065    2.551    0.608
        65  -9.7294    188.7654      5.2795   9.0439633935e-01   3.8276577970e+01    0.1060763   0.05894955 -64.00 0.0002311764    1.439    0.305
        66 -10.1344    133.6989      5.0057   5.5768265715e+00   4.9676465662e+01    0.1502889    0.1232281 -66.56 0.0001622054    1.188    0.158
        67  -9.4040    107.5514      5.2990   9.1190227809e+00   5.5504332392e+01    0.1385799    0.1214621   0.86 0.0008060279    1.588    0.370
        68  -8.7232    184.2506      2.9186   7.2176079336e-01   3.9375721393e+01    0.2505048    0.1589244  77.60  0.001750739    1.440    0.306
        69 -11.0396     56.3207      3.2667   1.9871888800e+01   6.7117112017e+01    0.4054312    0.2013808  45.09 0.0006814198    1.775    0.437
        70 -11.8627    154.4254      2.1915   2.8168705567e+00   4.5472495274e+01    0.1963841     0.151478 -83.75 0.0003281339    1.019    0.019
        71 -11.7003     87.7636      1.4904   1.1262961748e+01   6.0323343513e+01    0.3685146    0.1131302  59.48 0.0005833766    2.400    0.583
        72 -10.5451    126.9666      1.9113   5.5070694877e+00   5.1444829716e+01    0.1759685    0.1350668 -88.80 0.0003438611    1.045    0.043
        73 -12.6982    161.6729     65.2927   1.6817356561e+01   3.6242261201e+01     2.111951    0.5378644  62.43     0.007105    4.429    0.774
        74 -10.5912    250.5426     93.5425   1.1984274825e+01   1.7057151374e+01    0.1857573    0.1059597 -49.83   0.00048916    1.296    0.228
        75 -10.4160     16.9791     97.0002   7.0256061995e+01   5.6062909406e+01    0.2106835     0.195512 -21.29 0.0003252941    1.022    0.021
        76 -10.3471    159.0875     95.6015   2.4092425913e+01   3.1786906799e+01    0.3202025    0.1522039  56.66  0.001437603    2.257    0.557
        77 -10.2869    163.0294    115.2811   2.7618352369e+01   2.7475915077e+01    0.1810882    0.1697789 -77.50 0.0005126378    1.058    0.054
        78  -9.3546    210.9863    112.0000   1.9501332108e+01   1.9996773406e+01    0.1688757   0.06770011  52.37 0.0008096034    2.992    0.666
        79 -11.0484    196.1234    107.8955   2.0745530286e+01   2.3031658144e+01    0.3499745    0.1980023 -64.09   0.00177742    2.125    0.529
        80 -14.4378     42.1229     75.3454   5.3380057808e+01   5.8317838030e+01     2.091569     1.286846  -3.03  0.005435977    2.397    0.583
        81 -12.9069     87.7277     61.4335   3.1658205484e+01   5.2677233319e+01    0.9508591    0.7085536 -21.59   0.00117325    1.796    0.443
        82 -11.9368    100.4701     54.0172   2.5827663528e+01   5.1146449150e+01    0.7132372    0.4594387  48.36  0.003674761    1.477    0.323
        83 -10.4423    199.8148    105.7533   1.9820248210e+01   2.2777040538e+01    0.2805306    0.1500995 -48.32  0.001207074    1.584    0.369
        84 -12.0148    160.7593    105.0831   2.5864738407e+01   2.9771142619e+01    0.2864597    0.2186167 -62.14 0.0002496454    1.277    0.217
        85 -13.9113      6.5371     68.0778   6.9788254317e+01   6.3884368680e+01     1.126942    0.9377801  80.32  0.002510302    1.499    0.333
        86 -14.1880     23.0010     64.2176   5.9716991998e+01   6.3223647006e+01     1.787125    0.9338971  30.05  0.005352186    1.775    0.437
        87 -10.1191    160.5507    100.4629   2.4899122643e+01   3.0643495281e+01     0.241655    0.1625072 -47.33  0.001074125    1.390    0.281
        88 -10.4381     15.4738    106.8044   7.2612615480e+01   5.3671835605e+01    0.2741167    0.1962405 -30.71 0.0006261839    1.420    0.296
        89 -13.6028    100.3933     71.8993   3.1115389595e+01   4.8158619456e+01     1.478647     1.204075  -1.79  0.007798615    1.731    0.422
        90 -13.7427    118.0624     62.4974   2.4084257648e+01   4.5945461076e+01     1.299427    0.7857072 -65.90  0.005040819    2.095    0.523
        91 -10.6003    210.6051    104.8349   1.8230840237e+01   2.1196020928e+01    0.2792405    0.2243561  70.09  0.001650924    1.439    0.305
        92 -11.3939    215.8790    100.1187   1.6719191385e+01   2.1108632492e+01    0.3410161    0.1873042 -33.24  0.001116127    2.059    0.514
        93 -13.0266     57.6818     59.9813   4.1822658637e+01   5.8887116109e+01    0.7146533    0.4829786 -64.41  0.003496413    1.990    0.497
        94 -12.8105     50.7250     55.3355   4.3208310555e+01   6.0985820598e+01    0.6510469    0.5522022  48.75     0.001856    1.194    0.163
        95 -13.2550     51.4211     44.8518   3.9155722174e+01   6.2703613873e+01     1.029603    0.5688159  30.04  0.003658865    1.952    0.488
        96 -13.4721     79.1389     49.8516   3.0597747932e+01   5.6400851695e+01     1.170219    0.6232429  43.20  0.004324574    1.783    0.439
        97 -12.8253     81.5315     40.8596   2.6805759349e+01   5.7251313535e+01     0.602198    0.3627895  55.23  0.001807324    1.459    0.315
        98 -12.4252     75.3365     41.7794   2.9046250142e+01   5.8440780160e+01    0.3323859    0.2625029  74.12 0.0008734965    1.377    0.274
        99 -11.9709     44.9784     92.9990   5.6754819591e+01   5.3876881065e+01    0.4558215    0.2433186  18.68  0.001858672    2.103    0.525
       100 -10.4686    227.2837     92.0365   1.3994058061e+01   2.0578659240e+01    0.1559342    0.1155201 -52.13 0.0003247878    1.055    0.052
       101  -9.3882     78.2795     92.3127   4.3674672421e+01   4.8536111511e+01    0.1437707    0.1158539  -9.28 0.0003574966    1.567    0.362
       102 -10.2387    167.4312     90.0399   2.1447413589e+01   3.1142419675e+01    0.2808378    0.1774745  76.23  0.001188893    1.936    0.483
       103 -10.8909    172.8462     90.9010   2.0767548296e+01   2.9972824814e+01    0.2623537    0.2183022  62.32 0.0005338474    1.284    0.221
       104 -12.4523    176.2085     85.5911   1.9125209755e+01   3.0214962720e+01     1.025285    0.5481405  32.14  0.003707435    5.139    0.805
       105 -12.2652    179.7980     79.2888   1.7275440624e+01   3.0544145553e+01    0.5267262    0.3765553  25.78  0.002794353    2.581    0.612
       106 -11.5881    212.7716     89.7176   1.5167090600e+01   2.3183655677e+01    0.2267813    0.1502897 -57.59 0.0006020042    1.286    0.222
       107 -11.8756    148.2906     84.6325   2.3562280946e+01   3.5839506238e+01    0.4159234    0.3156663  82.51 0.0007410789    1.402    0.286
       108 -11.1559    147.1560     78.6921   2.2367257836e+01   3.7081369446e+01    0.3787988    0.2445465 -58.68  0.001426226    1.563    0.360
       109 -11.1467    144.4898    103.0418   2.8567523948e+01   3.3267826234e+01    0.3340118    0.2718135  50.12  0.001201223    1.281    0.219
       110 -11.0366     18.2312     82.4880   6.6759437487e+01   5.9531253774e+01     0.402202    0.1938997 -16.02  0.001491228    2.973    0.664
       111 -11.6867    141.5448     96.2127   2.7600861615e+01   3.5128019418e+01    0.5323949    0.2562711  53.70  0.001478213    2.138    0.532
       112 -10.9023     82.6679     79.2614   3.8584193654e+01   5.0407999721e+01    0.4607857    0.2257781  43.91  0.001919861    1.912    0.477
       113 -11.1631     86.6070     75.5509   3.6241057920e+01   5.0343436756e+01    0.4639435    0.2424452 -46.10  0.001574183    2.050    0.512
       114 -11.5722     83.2127     72.0536   3.6300711975e+01   5.1695257435e+01    0.4616353    0.3122849  36.64  0.002269124    1.501    0.334
       115 -11.3884     66.8618     70.6628   4.1611470006e+01   5.5149922486e+01    0.6228552    0.3307542  50.77  0.002674469    1.964    0.491
       116 -12.0824     73.8556     75.1975   4.0415812419e+01   5.2930964907e+01    0.7817973    0.4145225  46.67  0.002910405    1.789    0.441
       117 -11.0011     74.3975     70.7599   3.8892381493e+01   5.3692491407e+01    0.3906195    0.3018993  20.41  0.002018998    1.507    0.337
       118 -13.7195    208.9843     68.0860   1.1515489036e+01   2.6964466436e+01    0.9052406    0.4643315 -50.54  0.001832699    1.591    0.371
       119 -12.2830    172.6056     44.2545   1.0618117893e+01   3.6990574801e+01    0.4170433    0.2994809  78.07 0.0004631968    1.296    0.228
       120 -10.7793    126.8558     58.9803   2.1272771191e+01   4.4577593931e+01    0.3794335      0.24736  36.91   0.00187282    2.090    0.522
       121 -11.8947    173.7039     56.8551   1.3261553166e+01   3.5060673140e+01    0.2623463    0.2183185  88.04 0.0004229157    1.118    0.105
       122 -13.1372    120.8560    100.7131   3.3357431575e+01   3.8416815296e+01    0.8577722    0.3475635 -45.20  0.003268782    2.513    0.602
       123 -11.6425    123.4102     53.6076   2.0504519849e+01   4.6146656199e+01    0.3488992    0.2088221  67.02 0.0007879274    1.598    0.374
       124 -14.1663     76.6400     58.7860   3.4360179592e+01   5.5434366232e+01    0.8399165     0.393385  48.44  0.002849181    1.944    0.486
       125 -11.8233    137.6178     81.4657   2.4873222819e+01   3.8581312543e+01    0.5554773     0.482238 -76.47  0.002435378    1.097    0.089
       126 -13.5848    128.3618     95.7026   3.0350450323e+01   3.7882736748e+01    0.9998723    0.5506686  57.55  0.004045498    1.938    0.484
       127 -11.5560    162.6949     21.0389   6.4506480298e+00   4.1822024340e+01    0.2528953    0.1947598 -76.04 0.0003851899    1.050    0.048
       128 -10.9179    143.8612     45.9587   1.4877492139e+01   4.2761112662e+01    0.3772242    0.1956052  52.45  0.001065345    2.044    0.511
       129 -10.8879    163.9724     30.5201   8.5002778563e+00   4.0467358906e+01    0.6957686    0.3245789 -59.35  0.003552464    2.133    0.531
       130 -10.6047    155.3537     42.3328   1.2329876522e+01   4.0792130647e+01    0.4820566    0.3329727 -11.12   0.00195264    2.708    0.631
       131 -11.9881    127.4195     90.1011   2.9192915649e+01   3.9136002070e+01    0.5166336    0.2741546  37.82  0.001551696    2.387    0.581
       132 -12.3598    161.8275     40.1128   1.0971423069e+01   3.9725660661e+01    0.4155023    0.3138087  51.65   0.00201943    1.624    0.384
       133 -11.3875    161.4737     35.5327   9.9483975686e+00   4.0376319145e+01    0.2748609    0.1899633  73.07 0.0005283087    1.331    0.249
       134 -12.6280    177.0591     70.6247   1.5809426237e+01   3.2395661685e+01     1.370921    0.4354671  65.43  0.005148337    3.974    0.748
       135 -10.9351    133.4170     46.4801   1.6717082143e+01   4.4964514336e+01    0.2839391    0.2213961 -82.71 0.0007178378    1.212    0.175
       136 -11.3130    133.1191     40.3750   1.5143160400e+01   4.5853011882e+01    0.4018035     0.261083 -76.91  0.002183794    1.659    0.397
       137 -11.7696    126.1444     45.6193   1.7782448433e+01   4.6688579177e+01    0.2854132    0.2498351  87.06 0.0005632769    1.021    0.021
       138  -9.8882     99.2405     46.6698   2.3879900151e+01   5.2527980081e+01    0.2211925    0.1561966 -54.87 0.0007074582    1.563    0.360
       139 -12.0762     95.6427     42.0522   2.3325191934e+01   5.3988224434e+01    0.5449896    0.2398338  57.48  0.001522971    2.011    0.503
       140 -10.3259    104.8002     42.5972   2.1292306305e+01   5.1871573029e+01    0.3454149    0.1826615  75.16  0.001499805    2.346    0.574
       141  -9.3509     94.2575     47.6572   2.5473971480e+01   5.3480965310e+01    0.1321366   0.09939066 -79.54 0.0006960799    1.587    0.370
       142 -11.4154    247.9804     42.2637   3.7764260843e+00   2.4057851144e+01    0.3347022    0.1535492 -64.43  0.001719605    1.945    0.486
       143  -9.6394    250.6496     39.2899   3.1298066100e+00   2.4012725013e+01    0.1548027   0.08968921 -70.01  0.000703135    1.460    0.315
       144  -9.6963    111.8501     38.7130   1.8590058508e+01   5.0818147766e+01    0.2590042   0.09120908  54.81 0.0007556835    2.481    0.597
       145 -11.7479     91.3510     33.7967   2.1706068791e+01   5.6060846594e+01    0.6480751     0.309708  46.34  0.002971821    2.074    0.518
       146  -8.9634    211.2705     34.2928   4.9279520811e+00   3.0957957563e+01   0.08587318   0.08345971 -73.51 0.0006923695    1.514    0.339
       147 -10.7163    131.7811     33.0551   1.3392333440e+01   4.7080765409e+01     0.311206     0.170767 -55.22 0.0009101531    1.889    0.471
       148 -10.7509    121.7221     33.1537   1.5092005447e+01   4.9312932161e+01    0.2018809    0.1661765  80.58 0.0007048142    1.033    0.032
       149 -10.3205    247.8007     32.8351   2.2524984019e+00   2.5184288862e+01    0.1436279   0.09407254 -61.54 0.0004374227    1.073    0.068
       150  -9.8023    112.1251     32.4795   1.6670886042e+01   5.1556627399e+01    0.3520182    0.1982466  45.80  0.001762456    1.986    0.496
       151  -9.4403    114.5429     28.3885   1.4991781338e+01   5.1508295171e+01    0.1269673    0.1053908  68.88 -2.12025e-05    1.095    0.086
       152 -10.1088    238.9185     30.8711   2.4495538247e+00   2.6772183160e+01    0.2654994    0.1205988  76.48  0.001726634    2.308    0.567
       153 -11.2203    104.0492     29.3882   1.7350115317e+01   5.3760635060e+01     0.404586    0.2731896  74.30  0.001457021    1.355    0.262
       154 -11.7756    132.3765     86.8928   2.7301491011e+01   3.8703729498e+01    0.5678663    0.2902833  56.23  0.002232697    1.983    0.496
       155 -11.4053     97.4960     22.0497   1.6363687684e+01   5.6100032748e+01    0.2402299    0.2168689 -84.80 0.0007865661    1.137    0.120
       156  -9.9536    138.4395     29.8180   1.1535734147e+01   4.6003856180e+01    0.1389588    0.1223156 -20.33 0.0002757367    1.551    0.355
       157 -10.3260     80.4418     30.4773   2.3478386487e+01   5.8901276870e+01    0.1846813    0.1129871  58.82 9.480505e-05    1.413    0.292
       158 -10.8061     85.1408     28.9234   2.1641221723e+01   5.8061641021e+01    0.5159928     0.175651  56.68  0.002031227    2.440    0.590
       159  -9.3903    120.2901     28.3675   1.3968905656e+01   5.0215185336e+01    0.1683363    0.1041438  78.32 0.0003744217    1.501    0.334
       160 -10.8383     87.9606     97.8419   4.1912674420e+01   4.5512843102e+01    0.4502401    0.3187744  -3.42  0.001239897    2.276    0.561
       161  -9.9160    130.5312     19.4450   9.8779435548e+00   4.8931090445e+01    0.2008889    0.1223335  71.65 0.0005248016    1.396    0.283
       162 -11.4007    176.1702     24.1873   5.8472434100e+00   3.8725421519e+01    0.2748544    0.1652191 -47.89 0.0007426111    1.503    0.335
       163  -9.5050    179.6436     20.6919   4.7857853033e+00   3.8428501225e+01    0.2138051    0.1173269  81.36 0.0009760436    1.640    0.390
       164 -10.0578    128.6981     24.1332   1.1429372519e+01   4.8821154807e+01     0.232502    0.1505475 -30.80  0.001336836    1.885    0.469
       165 -11.2134     82.8098    101.6073   4.4549521124e+01   4.5648075799e+01    0.2714143    0.2159899  53.84 0.0002515767    1.279    0.218
       166 -11.7448     83.0369     98.1658   4.3598826089e+01   4.6370485854e+01    0.5285476    0.3130723  27.88  0.001585376    1.961    0.490
       167 -11.9726    152.1035     98.1663   2.5954226895e+01   3.2683765297e+01    0.6373829    0.3524266 -63.87  0.002791466    2.313    0.568
       168 -11.0717    115.0587    101.4540   3.5006375029e+01   3.9427832470e+01    0.2176943    0.1384754  46.57 0.0002842622    1.548    0.354
       169 -10.1846    186.9392     23.8356   4.8232484916e+00   3.6654398284e+01    0.2463745    0.1201207 -84.77  0.001346929    2.106    0.525
       170 -12.0232    249.6170     72.8276   8.6682138184e+00   1.9986084481e+01    0.5290662    0.2833931 -41.46  0.002404188    1.553    0.356
       171  -9.7761    170.7460     19.3588   5.2907557565e+00   4.0355068231e+01    0.1557201   0.08828243  66.39  0.000934137    1.702    0.412
       172  -9.1126     14.4793     19.4877   4.8513663091e+01   7.2661652137e+01    0.1228283    0.1020211  18.03 -2.281536e-05    1.057    0.054
       173  -9.9812    194.5262     18.1209   3.0703661125e+00   3.5847663120e+01    0.1559232   0.08652018 -47.10  0.001002454    1.544    0.352
       174 -10.8146    180.9660    244.0552   4.6386246485e+01   1.2999817848e+00    0.1838972    0.1450109  -8.17  0.001295356    1.024    0.023
       175 -12.4491    195.0571     56.1979   1.0648395244e+01   3.1078685394e+01    0.4990434    0.4648196  59.16  0.001930162    1.455    0.313
       176 -11.3567    160.7546     53.7458   1.4283442015e+01   3.8114716479e+01     1.029374    0.7322208  50.03  0.006118374    1.683    0.406
       177  -9.6577    218.5119    239.5383   3.9150070055e+01  -1.3976508109e+00    0.1083538   0.08069353 -17.79 0.0001180889    1.025    0.024
       178  -9.9836    154.6467     15.6450   6.0066324195e+00   4.4092270664e+01    0.1677643    0.1219576 -39.25  0.001108209    1.536    0.349
       179 -12.0879    162.1382     83.6002   2.0895052330e+01   3.3246070650e+01    0.4956826    0.3419395  52.76  0.001450171    1.557    0.358
       180 -12.8743    169.0059     78.9773   1.8781128542e+01   3.2655693857e+01     1.885853    0.7175272 -60.20  0.001822073    4.908    0.796
       181 -10.3280     15.9256    238.6173   8.4610348166e+01   1.9607228753e+01    0.2037886    0.1719197 -60.98 0.0006564413    1.364    0.267
       182 -14.0628    236.1561     84.0409   1.1719114202e+01   2.0403679562e+01     1.716644    0.6358485  61.06  0.009170393    3.314    0.698
       183  -9.5591    160.2243     14.0459   5.0738094152e+00   4.3087762124e+01    0.1530079    0.1225438 -76.49 0.0003008031    1.057    0.054
       184 -12.1600    248.9404     83.0107   1.0397859871e+01   1.8719991749e+01    0.2181712     0.166995 -67.72  0.000325779    1.193    0.162
       185  -9.3440    102.2568     14.6332   1.2991342650e+01   5.5812397157e+01     0.124326   0.08338279 -70.15 0.0006969947    1.636    0.389
       186 -12.8130    242.4560     61.2542   7.3076369857e+00   2.2532069401e+01    0.7936679    0.4436821  84.23  0.002173896    2.093    0.522
       187  -9.7442    101.0990    176.0956   5.4270062641e+01   2.4791358075e+01    0.1835748    0.1651394  58.49            0    1.218    0.179
       188 -11.9316    137.7152     71.4136   2.2362652560e+01   4.0260486190e+01    0.8949996    0.3615259  62.18  0.003543073    2.717    0.632
       189 -13.1489    184.3636     61.2837   1.2895830502e+01   3.2367966828e+01    0.9103214    0.5365248 -63.68  0.002119619    1.632    0.387
       190  -9.8115    236.7180    146.0094   2.2112111185e+01   1.1090836055e+01    0.1548216    0.1114575 -41.74 0.0003710796    1.069    0.065
       191  -9.6337    222.1884    124.8166   2.0357142812e+01   1.6308953566e+01    0.1522329    0.1326869 -53.35 0.0003340053    1.102    0.093
       192  -9.1929      1.7336     12.3417   5.4575372927e+01   7.5293013074e+01    0.1051069   0.08834101  45.99 0.0001732536    1.601    0.375
       193 -10.1871    221.2655    121.5513   1.9901257614e+01   1.6956588835e+01    0.2303247     0.170734  50.62  0.001379715    1.676    0.403
       194 -10.2091    228.8673    118.8743   1.8505129967e+01   1.6309185354e+01    0.1974117    0.1460301  55.64 0.0009090947    1.700    0.412
       195 -10.6138    203.8530    116.8075   2.1349224483e+01   2.0316192194e+01    0.3498793    0.2238049 -76.21  0.001873928    2.260    0.558
       196 -10.9004    171.9382    116.5625   2.6280945006e+01   2.5652360810e+01    0.2385357    0.1720326 -49.15  0.001356416    1.252    0.201
       197 -13.7682    207.0010     60.1236   1.0197356811e+01   2.8407625341e+01     1.175701    0.7110656  46.12  0.005127479    2.543    0.607
       198  -9.3396     50.3335    117.2714   5.9974647419e+01   4.7136056107e+01    0.1535275    0.1131436 -18.98 0.0004707894    1.594    0.372
       199 -11.4723    126.5669    115.8982   3.5522722189e+01   3.4189941831e+01    0.3495133    0.2307718  44.17 0.0006286669    1.535    0.349
       200 -12.1875    238.0883     51.1705   5.9314246104e+00   2.4472164565e+01    0.3436318     0.177832 -57.13  0.001817986    1.499    0.333
       201 -13.0502    229.9235     47.0236   5.8194584336e+00   2.6272798937e+01    0.6072783    0.3882416  61.34  0.003321497    1.951    0.488
       202 -11.1906    169.7660     97.7234   2.2717972461e+01   2.9390492563e+01    0.4107089    0.2722845 -39.87  0.002252725    1.512    0.339
       203  -9.6716    165.6630     96.0272   2.3041093363e+01   3.0454883550e+01    0.1794873    0.1558027 -53.04 0.0005605894    1.098    0.090
       204 -12.6592    199.5326     96.3904   1.8057747715e+01   2.4331306178e+01    0.2790312    0.2141867 -53.47 0.0001670213    1.091    0.083
       205 -10.7981    205.2281     97.2723   1.7493758583e+01   2.3248083235e+01    0.3149209    0.1797863 -38.85  0.001724891    1.664    0.399
       206 -13.1497    102.8734     96.4639   3.7062940365e+01   4.2889073653e+01     0.866006    0.4953615  31.57 0.0007389135    2.169    0.539
       207 -11.9718     95.4406     89.9997   3.7541565665e+01   4.5702436579e+01    0.5673718    0.3965964  62.34  0.001746809    1.587    0.370
       208 -13.0432    121.3664     87.6733   2.9993807555e+01   4.0842882505e+01    0.7333132    0.5522313  18.18  0.003601202    1.981    0.495
       209 -11.9760    106.2850     87.2352   3.3715894140e+01   4.4050582963e+01    0.6137236    0.3829965  62.20  0.002582706    1.800    0.444
       210 -12.1700    124.1560     81.9981   2.7896187684e+01   4.1304423463e+01    0.7910413    0.3505778  39.13  0.002917598    3.111    0.679
       211 -11.4260    128.0280     76.0246   2.5505466044e+01   4.1540325316e+01    0.3912666    0.2713706  59.85  0.001009539    1.389    0.280
       212 -12.2236    114.8624     86.5106   3.1286286860e+01   4.2413999614e+01    0.3662437    0.2912684  56.74 0.0002478843    1.210    0.173
       213 -12.7406    115.0515     80.9755   2.9789774838e+01   4.3407578631e+01    0.6641777    0.4956904 -52.07   0.00228904    1.374    0.272
       214 -11.3755     11.5189     98.1499   7.3003962026e+01   5.6206401057e+01    0.2764452    0.2572192 -68.11 0.0007655558    1.110    0.099
       215 -11.0414    250.1868     97.6186   1.2683221368e+01   1.6537154164e+01    0.2544613    0.1255402 -49.75 0.0007638369    1.527    0.345
