#   1 NUMBER                 Running object number                                     
#   2 MAG_AUTO               Kron-like elliptical aperture magnitude                    [mag]
#   3 X_IMAGE                Object position along x                                    [pixel]
#   4 Y_IMAGE                Object position along y                                    [pixel]
#   5 X_WORLD                Barycenter position along world x axis                     [deg]
#   6 Y_WORLD                Barycenter position along world y axis                     [deg]
#   7 A_WORLD                Profile RMS along major axis (world units)                 [deg]
#   8 B_WORLD                Profile RMS along minor axis (world units)                 [deg]
#   9 THETA_WORLD            Position angle (CCW/world-x)                               [deg]
#  10 FWHM_WORLD             FWHM assuming a gaussian core                              [deg]
#  11 ELONGATION             A_IMAGE/B_IMAGE                                           
#  12 ELLIPTICITY            1 - B_IMAGE/A_IMAGE                                       
         1 -14.9364      5.8496    141.5008   1.3116955162e+02   4.4641867492e+01     6.060431    0.8980192 -79.94   0.01868174    7.005    0.857
         2 -13.1086    200.2093     32.6382   5.9900772656e+01   3.0942042568e+01     1.369544     1.158627  16.99  0.007195383    1.266    0.210
         3 -13.4858    217.7078     14.0127   5.2127445654e+01   2.8443159904e+01     1.471528    0.9752621  30.96  0.007030936    1.780    0.438
         4 -12.2624      2.3785      5.0093   1.1038065356e+02   7.3321163762e+01    0.6527668    0.3903998 -48.13  0.004433994    1.206    0.171
         5 -10.8636     14.6968     12.9883   1.0694220944e+02   7.1027256103e+01    0.2115581    0.1288821 -28.00  0.001003301    1.591    0.372
         6 -11.0974    138.6918    248.7905   1.1588373919e+02   1.0650176357e+01    0.2444014    0.1639937 -56.57  0.001874421    2.044    0.511
         7 -11.9442    127.4180    245.0234   1.1730892904e+02   1.2700931916e+01    0.3002989    0.2255553  70.08  0.002408823    1.373    0.272
         8 -11.6490     99.7987    248.6605   1.2192490302e+02   1.5964923477e+01    0.2999353    0.1999885  31.65  0.002207721    1.858    0.462
         9 -12.7085     32.8086    246.4528   1.3184565209e+02   2.4073875817e+01     0.702831    0.4266146  37.65   0.00568871    1.834    0.455
        10 -13.5465      8.4156    244.8304   1.3525141216e+02   2.6657299756e+01     1.194765    0.8478744  69.52   0.01165132    1.170    0.146
        11 -10.3649    155.2517    248.7613   1.1329109103e+02   8.2833879906e+00    0.1571682   0.07664347  38.20 0.0006949134    1.640    0.390
        12 -12.0688      3.7963    226.6044   1.3535301773e+02   2.9768011325e+01    0.6590602    0.3039936  85.10  0.005017527    1.761    0.432
        13 -10.0790    212.0000    248.0000   1.0443971326e+02   7.5083060287e-02     0.180025   0.04351399  43.08 0.0008071192    2.975    0.664
        14 -10.7686     60.4054    242.8423   1.2757953035e+02   2.1600163749e+01    0.2534879    0.1336405  67.34 0.0008713582    1.578    0.366
        15 -10.3353     55.7766    240.8233   1.2816974037e+02   2.2416267382e+01    0.1819287    0.1257955  59.09 0.0006643001    1.057    0.054
        16 -12.8311      9.3972    207.5255   1.3382139460e+02   3.2299065761e+01    0.6421129    0.5215288  46.77  0.003316769    1.513    0.339
        17 -11.4541     47.3770    235.4772   1.2916429560e+02   2.4130924443e+01     0.339864    0.1305774  59.98  0.002147501    2.060    0.515
        18 -10.6330    231.3810    249.8053   1.0176843862e+02  -2.8478189956e+00    0.2791227   0.05844483  44.64  0.001156609    3.884    0.743
        19  -8.9079    180.2864    232.6555   1.0750670294e+02   6.3732820402e+00    0.1016329   0.07540992  62.70 0.0007020356    1.647    0.393
        20 -12.6384    108.0352    230.1784   1.1910596220e+02   1.7385633263e+01     1.026257   0.08995289  43.82   0.00324676    6.203    0.839
        21 -11.7793     88.0526    226.1139   1.2206203286e+02   2.0659042461e+01    0.6941687   0.09813578  48.21  0.002558826    4.811    0.792
        22 -11.8476      3.6787    184.4969   1.3383021807e+02   3.6716404115e+01     0.465832    0.2276752  87.46  0.001613173    1.619    0.383
        23 -13.5718     39.0490    195.3480   1.2821624844e+02   3.1490680114e+01     4.587087      1.09492  62.47   0.01199074   11.097    0.910
        24 -13.7469     32.8487    220.3856   1.3065906237e+02   2.7980974284e+01    0.6777102    0.4405274  60.90  0.002557986    1.094    0.086
        25  -8.3344    152.5438    213.0350   1.0972680856e+02   1.3158889106e+01    0.1310363    0.1149782 -58.87 0.0003371796    1.443    0.307
        26 -11.6534    248.8515    246.5252   9.8777051593e+01  -5.0148867454e+00    0.3648286    0.2439352  27.54  0.002891053    1.018    0.018
        27 -11.3144     55.8165    194.8995   1.2519340942e+02   2.9713556748e+01    0.2235199    0.1880343 -69.67 0.0005323653    1.478    0.323
        28  -9.4207    192.9728    194.7970   1.0010054915e+02   8.8583112597e+00    0.2780152    0.1601569 -64.93  0.001083581    5.248    0.809
        29 -11.4972     62.5156    186.9363   1.2331750292e+02   3.0326756447e+01    0.2102146    0.1901685  71.89 0.0004651592    1.280    0.218
        30 -10.4728     73.5727    174.6618   1.2002049008e+02   3.1185939174e+01    0.1982836    0.1704037  74.67 0.0004768643    1.104    0.094
        31 -12.8795     59.8713    172.3101   1.2251460909e+02   3.3335534308e+01    0.4004969    0.2394387 -50.01  0.001927908    2.274    0.560
        32 -11.3710     81.4350    165.8064   1.1744392774e+02   3.1810129796e+01    0.4778216    0.3936571 -62.56  0.003292372    1.364    0.267
        33  -9.6198     95.2783    150.7048   1.1249663056e+02   3.2758858730e+01      0.22171    0.2086058  88.78 0.0007862721    1.143    0.125
        34 -11.6672     83.5536    149.4912   1.1491537871e+02   3.4712228700e+01    0.2492388    0.2045915 -62.82 0.0006506878    1.285    0.222
        35  -8.7090    134.3584    148.2416   1.0357916339e+02   2.6717456081e+01      0.17909    0.1235413 -63.12 0.0006551871    1.656    0.396
        36 -11.9167     67.2869    143.6273   1.1778713447e+02   3.8084298796e+01    0.6088201    0.3387183  61.54  0.003291205    1.857    0.462
        37  -8.6522     98.4856    146.5286   1.1115913817e+02   3.3097153513e+01    0.1253472    0.1136803  74.90 0.0001080613    1.044    0.042
        38  -9.1313    108.4327    135.8291   1.0713177178e+02   3.3644165856e+01     0.223508    0.1717863  -6.16 0.0007246013    2.146    0.534
        39 -10.0908     94.8056    133.2973   1.0987461129e+02   3.6349581761e+01    0.2087487    0.1965354 -64.90 0.0003363486    1.167    0.143
        40  -9.8891     50.2450    130.0336   1.2004260829e+02   4.2951592823e+01    0.2150765    0.1521702  56.42 0.0006028358    1.368    0.269
        41  -8.9384    105.7069    123.0756   1.0541659820e+02   3.6704387511e+01    0.1742441    0.1598027 -70.00 0.0002745204    1.075    0.069
        42  -9.4358    167.4382    112.5872   8.8914879874e+01   2.6617723458e+01    0.2683386    0.2350423 -76.86 0.0007582214    1.360    0.265
        43  -8.6860    203.3121    111.3553   8.1532364205e+01   1.8860963437e+01     0.154279    0.1073356  13.87  0.000704429    1.734    0.423
        44 -12.7285     42.8501    209.6835   1.2844684856e+02   2.8658115305e+01    0.7206251    0.4041973  87.14  0.004591631    1.611    0.379
        45 -10.5122    198.9807    248.5100   1.0648427107e+02   1.9214536580e+00    0.1931252    0.1210123  -3.96  0.001275279    2.421    0.587
        46 -10.1205    169.2640    249.7655   1.1121246135e+02   6.1380934494e+00    0.1737037   0.06218085  37.07 0.0007202837    2.404    0.584
        47 -11.8137    150.5076    249.7469   1.1413025014e+02   8.8537369232e+00    0.4092181    0.1944325  48.19  0.002623335    1.561    0.360
        48 -12.5411     27.0802    227.2619   1.3187827498e+02   2.7490607571e+01    0.2495226    0.2028329  71.33 0.0007412007    1.301    0.232
