#   1 NUMBER                 Running object number                                     
#   2 MAG_AUTO               Kron-like elliptical aperture magnitude                    [mag]
#   3 X_IMAGE                Object position along x                                    [pixel]
#   4 Y_IMAGE                Object position along y                                    [pixel]
#   5 X_WORLD                Barycenter position along world x axis                     [deg]
#   6 Y_WORLD                Barycenter position along world y axis                     [deg]
#   7 A_WORLD                Profile RMS along major axis (world units)                 [deg]
#   8 B_WORLD                Profile RMS along minor axis (world units)                 [deg]
#   9 THETA_WORLD            Position angle (CCW/world-x)                               [deg]
#  10 FWHM_WORLD             FWHM assuming a gaussian core                              [deg]
#  11 ELONGATION             A_IMAGE/B_IMAGE                                           
#  12 ELLIPTICITY            1 - B_IMAGE/A_IMAGE                                       
         1 -14.5587     86.5606     66.4589   1.0107061852e+02   5.2230967493e+01     2.230355     1.301647   4.72  0.008507296    3.306    0.697
         2 -13.9749    111.8997     40.6788   8.5190609255e+01   5.1317173331e+01     1.572482    0.8642812   2.04  0.005819974    3.668    0.727
         3 -14.9061    122.3786     36.9253   8.1367077375e+01   4.9527349819e+01     1.450942    0.6499621  42.75  0.003664465    2.163    0.538
         4 -15.2016    119.4033     54.9129   8.7940864644e+01   4.7669805274e+01     1.571406    0.8564227  35.07  0.006044105    2.047    0.511
         5 -12.7178    187.2280     13.4261   6.3364266212e+01   3.6803798400e+01    0.6637645    0.4450672  39.34  0.002311803    1.881    0.468
         6 -13.5166    230.4184      2.7545   5.6659682615e+01   2.7922617832e+01     1.227392    0.4387323  59.24  0.004445287    2.765    0.638
         7 -13.3325    216.5780     28.1357   6.3422128945e+01   2.8132840242e+01    0.8460199    0.4646639 -78.63   0.00321904    2.059    0.514
         8 -12.9435    222.9815     21.4531   6.1261149029e+01   2.7473470176e+01    0.4337105    0.3874559  82.01   0.00137837    1.198    0.165
         9 -13.2769    215.1156     20.9547   6.1966127625e+01   2.9350603726e+01    0.5168752    0.4890061  -8.93  0.002198587    1.448    0.310
        10 -13.7500    218.7212     15.1458   6.0313168762e+01   2.9193011326e+01    0.6022667    0.4707702  61.31  0.003038107    1.378    0.274
        11 -13.2838    215.2206      9.5885   5.9441675982e+01   3.0618697037e+01    0.6305205     0.353014  69.33  0.001621221    1.559    0.359
        12 -14.2696    217.7969     42.0819   6.6460112297e+01   2.6009781013e+01     1.280948    0.6724567  65.79  0.004381178    1.787    0.441
        13 -13.6152     53.2123     29.4669   9.9389451318e+01   6.3241297839e+01     1.322635    0.6001432  16.85  0.005177719    3.948    0.747
        14 -14.9404     42.3442      8.2883   9.4760214723e+01   6.7303939135e+01     1.640888     1.017095  -5.69  0.009290904    1.505    0.336
        15 -13.2977      8.5450      3.0133   1.0725489931e+02   7.1667559504e+01    0.5747949    0.4228104  17.18  0.004597703    1.446    0.308
        16 -12.9903     25.1477     31.2670   1.1127025975e+02   6.6279880883e+01    0.6419188    0.5258157 -79.24  0.004084807    2.603    0.616
        17 -14.9410      8.2753     29.3820   1.1789923432e+02   6.7967616507e+01     0.873885    0.7108722  20.13  0.006835646    1.535    0.349
        18 -15.2174     14.6657     18.9957   1.1116059853e+02   6.9031173889e+01      1.17043    0.6066128 -21.31  0.007187185    1.767    0.434
        19 -13.5748     25.2736     14.1018   1.0439943873e+02   6.8676862726e+01    0.5324421    0.2776014  24.90  0.002837569    1.845    0.458
        20 -12.8218    139.0235     21.6404   7.2982874790e+01   4.7485784181e+01    0.6461565    0.5644485 -85.91  0.002181732    1.257    0.205
        21 -14.6340    166.5943     30.2182   7.0669880028e+01   3.9927542051e+01     1.431847    0.6750047  64.24  0.002875577    1.897    0.473
        22 -14.2749    146.1181     30.6850   7.4388694476e+01   4.4808418693e+01     1.099649    0.5114968  56.46  0.003864418    1.855    0.461
        23 -15.6643     99.9352     13.0116   7.8541216623e+01   5.6940431964e+01     1.351446    0.6335434  52.18  0.003100184    1.813    0.448
        24 -11.3643    153.6141      8.2788   6.6560029496e+01   4.5353351606e+01    0.2381281     0.187304  56.34 0.0004727473    1.133    0.118
        25 -11.2393    125.9246      8.7088   7.1403639423e+01   5.1728709808e+01    0.2078753    0.1885308   6.82  0.001284091    1.226    0.185
        26 -12.0344    120.5480      3.8044   7.0841494544e+01   5.3336723555e+01    0.5056079    0.2870454 -88.01  0.002248531    3.045    0.672
        27 -12.5233    202.1578     11.7511   6.1256213101e+01   3.3429996301e+01    0.3569578    0.2924696  -9.87  0.001064027    1.720    0.419
        28 -11.2020     67.7212      3.7873   8.3895842145e+01   6.3835489495e+01    0.2474034    0.1622345  21.77  0.000997002    1.343    0.256
        29 -11.4882     26.6068      3.9690   9.9332093311e+01   6.9738713204e+01     0.202515    0.1324302  18.17 0.0006016989    1.313    0.238
        30 -10.3438    192.6580      2.8805   6.0200619570e+01   3.6573141670e+01    0.1667521    0.1022384 -46.65 0.0003330888    1.684    0.406
        31 -12.1052     80.7099      1.9070   7.9335386235e+01   6.1664367305e+01    0.5547439    0.1322035  50.40  0.002251024    3.102    0.678
        32 -14.4141    190.9926     25.0116   6.5761298767e+01   3.4607118698e+01     1.590004     0.855666 -54.79  0.007618321    1.997    0.499
        33 -10.8378     62.4972      1.5111   8.4593644834e+01   6.4914043013e+01    0.1998212    0.1304291  33.59 0.0005931009    1.255    0.203
        34 -11.0458     59.4881      1.5229   8.5584041525e+01   6.5406686977e+01    0.2298654    0.1369129  27.93  0.001101941    1.427    0.299
        35 -12.8136    201.5859    191.3619   1.0358200345e+02   2.4799550588e+00    0.5932571    0.4305137   2.91  0.002024542    1.755    0.430
        36 -14.4172     96.6584    237.9565   1.3285713170e+02   1.2466097203e+01      1.89688    0.9299443  63.01  0.006261037    2.295    0.564
        37 -13.7138     27.4777    244.7367   1.4610322298e+02   2.0684429067e+01    0.9601059    0.5436465  88.61  0.005971892    1.474    0.322
        38 -14.2401     23.7990    224.1540   1.4530772469e+02   2.5214435382e+01     1.119276    0.6167227 -81.25  0.006147412    1.517    0.341
        39 -13.9006      8.8640    210.5472   1.4703708784e+02   2.9607349384e+01    0.8472408    0.6783763  78.57   0.00637001    1.155    0.134
        40 -13.3200     16.4516    196.5957   1.4454991360e+02   3.1854838717e+01     1.050157    0.2519071 -66.96  0.004362629    3.130    0.681
        41 -13.6752     30.0138    169.4189   1.3904542960e+02   3.6631679502e+01    0.7303793    0.5456288 -42.43  0.001231994    1.700    0.412
        42 -13.4811     22.6065    181.1698   1.4191130901e+02   3.4682695285e+01     0.602394    0.4292805 -80.88  0.002213072    1.120    0.107
        43 -15.0439      8.3682    183.5050   1.4507840928e+02   3.5500727777e+01     1.182885    0.8935496  80.49  0.008303739    1.102    0.093
        44 -14.1269      9.0992    245.5646   1.4916643554e+02   2.2564210969e+01    0.7470003    0.3953781  64.54  0.003133451    1.441    0.306
        45 -10.4593    107.5066    193.0313   1.2449267688e+02   2.0182281612e+01    0.2112445    0.1362229 -59.40 0.0008574129    1.562    0.360
        46 -10.8192     81.0635    193.3779   1.3052027575e+02   2.4449110483e+01    0.2939256    0.1242359  39.30   0.00122718    2.363    0.577
        47 -12.4337    210.3152    190.5411   1.0167700796e+02   9.7717358000e-01    0.4170685    0.2826798 -16.49    0.0019968    1.802    0.445
        48 -12.2659     98.6054    187.1433   1.2560268143e+02   2.3058260608e+01    0.3943849    0.3348191  12.73  0.002139274    1.607    0.378
        49 -11.7346    110.2976    183.2298   1.2223907458e+02   2.1931099945e+01    0.5182905     0.311866  16.59  0.001893262    3.386    0.705
        50 -12.3024     48.7763    181.0185   1.3616658922e+02   3.1802487900e+01    0.5870681    0.2784241 -58.18  0.002812485    1.964    0.491
        51 -12.1190    198.6159    182.7465   1.0244933309e+02   4.6868710915e+00        0.379    0.2837257  43.30  0.001416932    1.326    0.246
        52 -12.4462    194.8919    177.8945   1.0221482686e+02   6.3718882256e+00    0.4518361    0.3747017 -77.41  0.001593333    1.546    0.353
        53 -11.0843    123.1729    182.4869   1.1909795227e+02   1.9741739123e+01     0.389932    0.2516082  80.15  0.001625201    2.220    0.550
        54 -12.5266     90.0184    182.1085   1.2681149984e+02   2.5652360858e+01    0.4661507    0.1981549  58.45  0.001606367    3.317    0.698
        55 -15.1708     15.5732    175.4794   1.4286330277e+02   3.6647709397e+01     2.499631     1.154261  82.73   0.01102962    2.395    0.583
        56 -13.0673    123.8371    166.5520   1.1594687825e+02   2.3294833003e+01    0.7259037    0.4836124 -79.98  0.003104836    1.971    0.493
        57 -10.5941    177.4659    167.4901   1.0371875946e+02   1.2079938643e+01    0.1491884    0.1479863  46.87 0.0001717153    1.008    0.008
        58 -12.4430    112.2730    156.3819   1.1678277994e+02   2.7889081548e+01    0.8205215    0.4689582  73.03  0.002833835    3.183    0.686
        59 -13.0689    237.7104    159.8832   9.0171668600e+01   1.3848615850e+00    0.9334596    0.2108432  42.24  0.002651909    5.191    0.807
        60 -10.6596    101.6279    161.3814   1.2043202233e+02   2.8619649004e+01    0.3464881    0.1471806  33.94  0.001237708    2.815    0.645
        61 -11.0650     27.7635    158.7664   1.3831962817e+02   3.9342800989e+01    0.2858517    0.1762055 -78.65  0.001612787    1.375    0.273
        62 -12.1078     26.0958    155.1147   1.3827299393e+02   4.0357958536e+01    0.4594844    0.3454044 -33.04  0.002638832    1.774    0.436
        63 -12.0835     85.5232    153.6145   1.2307906495e+02   3.3189489861e+01    0.6165218    0.3876345 -41.05  0.002823036    1.856    0.461
        64 -12.3799     77.5367    157.2919   1.2578237674e+02   3.3538159625e+01     0.867539    0.4361422  51.14  0.001559398    2.188    0.543
        65 -12.9177     74.4630    153.3630   1.2588623949e+02   3.4945700754e+01    0.6798297     0.516842  14.77   0.00271343    1.803    0.445
        66 -12.2116    121.8898    156.2710   1.1435095391e+02   2.6084265320e+01    0.5264659    0.3845969  -3.81  0.002220959    2.286    0.563
        67 -13.0463    208.3407    154.7096   9.4509048757e+01   8.1869092376e+00    0.7818725    0.5322862  43.51  0.003713304    1.518    0.341
        68 -12.0106    103.3792    149.9404   1.1774953503e+02   3.1052993425e+01     0.408181    0.3442774 -21.83  0.001565132    1.487    0.328
        69 -11.8390      2.7721    249.9876   1.5039557124e+02   2.2388833605e+01    0.2951584    0.1523271  55.09  0.002014824    1.529    0.346
        70 -11.6519     55.4950    156.0666   1.3116353444e+02   3.6883994598e+01    0.4299639    0.3056641 -11.30  0.002136583    2.366    0.577
        71 -11.3957     60.1905    149.3070   1.2888781785e+02   3.7907779712e+01    0.2160591    0.1917384 -52.80 0.0008286263    1.186    0.157
        72 -12.1325    244.3985    147.4963   8.6379029688e+01   2.3501842626e+00     0.351978    0.2748482 -40.26  0.001948918    1.159    0.137
        73 -10.9593     44.5716    145.3718   1.3231259635e+02   4.0748607508e+01    0.2103196    0.1925283  76.10 0.0005283653    1.154    0.134
        74 -11.7236     38.2090    145.2323   1.3393393546e+02   4.1473982712e+01    0.3723991    0.2093922 -73.34  0.001835637    1.590    0.371
        75 -11.0840    162.3580    142.7042   1.0156245053e+02   2.0702269082e+01    0.3465567    0.1987142 -38.91  0.001369543    1.851    0.460
        76 -11.6760    149.8164    141.2641   1.0417121347e+02   2.3777832809e+01    0.5155266    0.3301958  73.97  0.001943564    2.419    0.587
        77 -12.0887     38.9733    136.4883   1.3240176852e+02   4.3465810928e+01    0.3174384    0.2291399  22.91  0.001576128    1.738    0.425
        78 -12.7118     42.4815    139.8135   1.3199397633e+02   4.2303366302e+01    0.7227213    0.2371647 -54.14  0.002709897    2.544    0.607
        79 -10.5327     15.0461    139.0355   1.3899190307e+02   4.5063297071e+01    0.1786414    0.1456287 -74.58 0.0004194793    1.039    0.038
        80 -12.5159    246.5676    134.2323   8.3165759164e+01   4.3123206376e+00    0.4828794    0.3834156 -70.92  0.002444482    1.503    0.334
        81 -13.7472    232.4320    132.7257   8.5169195975e+01   7.4033453806e+00    0.9492909    0.6977901  63.28  0.004831337    1.588    0.370
        82 -12.5170    223.1941    128.2874   8.5768286193e+01   1.0166871444e+01    0.5519485    0.4589663 -86.10  0.002494602    1.413    0.292
        83 -13.4236    233.0345    126.6788   8.3715462271e+01   8.3992380282e+00    0.6528203    0.4558671  68.59  0.003182825    1.767    0.434
        84 -12.0567     62.0125    133.9027   1.2567897210e+02   4.1370942923e+01    0.4160451    0.2736688  36.96 0.0007046153    1.686    0.407
        85 -11.5900    137.4976    133.0542   1.0524153898e+02   2.8295186333e+01    0.2942425    0.2249272  25.53 0.0007525539    1.573    0.364
        86 -12.4258    132.5685    131.6003   1.0613365929e+02   2.9671414500e+01    0.5662525    0.3633139 -66.07  0.002317514    1.924    0.480
        87 -12.2193    110.4137    131.9467   1.1199346507e+02   3.4034187442e+01     0.573014    0.4521344  16.05  0.002621664    1.611    0.379
        88 -14.3957    105.4777    123.3346   1.1130434696e+02   3.6969016940e+01     2.478872     1.131932  36.77    0.0093247    2.418    0.586
        89 -14.9743    106.1280    107.8820   1.0724955813e+02   4.0344283427e+01     1.930277     1.535594   0.58  0.009452768    1.600    0.375
        90 -13.3744     85.2741    115.3899   1.1510764876e+02   4.2325669350e+01     1.105579    0.6938039  19.85  0.004878351    2.176    0.540
        91 -13.4754    135.7712    103.3268   9.8080346039e+01   3.5196447845e+01     1.741252    0.4461112  49.62  0.004686772    4.200    0.762
        92 -10.5765     83.4935    134.0227   1.1977237549e+02   3.8232180721e+01    0.2261567    0.1337709 -56.46  0.000611944    1.560    0.359
        93 -11.1647     46.7796    135.6254   1.3015817445e+02   4.2821809552e+01    0.4306665    0.1686978 -47.29  0.001742602    2.594    0.614
        94 -11.6783     59.7912    125.9803   1.2477594284e+02   4.3542828056e+01    0.5298535    0.3215745 -26.60  0.002361417    2.442    0.591
        95 -14.2125     29.7734    119.3764   1.3213896539e+02   4.8360853016e+01     4.185895          nan -56.06  0.009006816    9.086    0.890
        96 -15.1329     16.6225    109.4459   1.3427560943e+02   5.1695701341e+01     2.257401     1.072654 -67.62  0.003818763    1.758    0.431
        97 -13.7340      2.5811     96.9546   1.3641046265e+02   5.5351729099e+01    0.9200868    0.3185582 -67.26  0.003409269    2.297    0.565
        98 -13.7247     20.8487     96.8262   1.3072934795e+02   5.4173284894e+01    0.7223731    0.4661283 -65.47  0.003168834    1.349    0.259
        99 -14.0683     29.0289     92.0829   1.2714322323e+02   5.4536878155e+01    0.9719403    0.5812952 -57.90  0.004098502    1.392    0.282
       100 -10.5034    126.6537    124.7099   1.0597579287e+02   3.2477470306e+01    0.2831411    0.1883018  33.02  0.001218631    1.711    0.416
       101 -12.4830    180.7766    121.0887   9.2256320523e+01   2.1128376599e+01    0.4816134    0.3287591  40.92  0.001490431    1.574    0.365
       102 -11.5011    184.9985    124.0526   9.2098301092e+01   1.9541634544e+01    0.3027567    0.2534212  81.53 0.0003887826    1.345    0.257
       103 -13.7221     91.0293    109.1490   1.1190304380e+02   4.2786603953e+01     1.321144    0.7957146  29.40  0.005894695    1.941    0.485
       104 -12.4820      3.9664    119.9015   1.3939881097e+02   5.0211358220e+01    0.4243242     0.212536  20.46  0.001958866    2.590    0.614
       105 -12.4000    193.7946    117.3861   8.8679878144e+01   1.8855055203e+01     0.504878    0.2454877  53.98  0.001925473    2.151    0.535
       106 -12.1182    199.0050    115.1699   8.7123923019e+01   1.8087473820e+01     0.279626    0.2186998 -31.95  0.001355235    1.349    0.259
       107 -11.6886    176.1234    111.9850   9.0961541316e+01   2.4079332450e+01    0.3899532    0.2335715 -42.74  0.001629567    1.649    0.394
       108 -12.4811    120.5380    111.3449   1.0419755560e+02   3.6730553282e+01    0.5569885    0.4006468 -83.86  0.001884434    2.027    0.507
       109 -10.4976     42.5013    113.5129   1.2735403121e+02   4.8467452335e+01    0.1928425    0.1322506  25.86 0.0008044142    1.728    0.421
       110 -11.9860     46.5143    109.9645   1.2543499367e+02   4.8847451826e+01    0.4848635    0.3064516 -49.45  0.001829216    1.369    0.269
       111 -11.6542     43.0717     91.0144   1.2231391535e+02   5.3419809488e+01    0.5590934    0.2055059 -57.78  0.002042236    2.466    0.594
       112 -13.1158     49.6547     98.4817   1.2194425059e+02   5.1071579909e+01    0.7856293    0.5705495   2.44  0.002894946    1.709    0.415
       113 -11.5613     61.2749    109.1078   1.2077325203e+02   4.7271536559e+01    0.6397232    0.4030901 -84.67  0.002820967    2.489    0.598
       114 -12.8987     62.1913     99.4637   1.1822254897e+02   4.9312244550e+01    0.7231831    0.5065094 -78.09  0.003538344    1.902    0.474
       115 -11.5234    222.4190    109.6090   8.1593042778e+01   1.3837602527e+01    0.2728879    0.2657389  29.93  0.001445076    1.162    0.140
       116 -10.7672     38.4993    109.9838   1.2785932668e+02   4.9684042751e+01    0.2049544      0.10944 -60.06 0.0007623254    1.573    0.364
       117 -13.0438    136.7854     96.0642   9.5830367011e+01   3.6461798927e+01    0.5393364    0.4496631 -46.57  0.001735396    1.204    0.169
       118 -12.1894    249.1355     98.6746   7.5039009661e+01   1.0068935437e+01    0.4282211    0.1874404 -40.55  0.001813888    2.022    0.505
       119 -11.2819    161.9687     97.2634   9.0197219222e+01   3.0381182582e+01     0.367648    0.2582776  52.40  0.001483234    1.413    0.292
       120 -10.7808    188.7793     96.7909   8.4513828721e+01   2.4040760551e+01    0.2206606    0.1787863 -76.13  0.001076844    1.346    0.257
       121 -11.8981    127.4114     95.2890   9.8018196953e+01   3.8683879216e+01    0.5304459    0.3371547  77.04  0.001962189    2.834    0.647
       122 -13.0642     98.1110     93.2832   1.0560064650e+02   4.4973599279e+01    0.6770908    0.4755959  47.15  0.002877939    1.524    0.344
       123 -11.1859     76.0286     95.7783   1.1296418013e+02   4.8150839577e+01    0.2178338    0.1834472 -43.29 0.0002391092    1.088    0.081
       124 -13.7534    197.8324     71.0397   7.6336866676e+01   2.6410356825e+01     1.224479    0.7416614  36.97  0.003990045    2.288    0.563
       125 -13.8451    188.3204     84.3901   8.1417388893e+01   2.6428445811e+01     1.213513    0.5395744  47.89  0.001780207    2.363    0.577
       126 -15.1191    165.0887     78.6293   8.4444363313e+01   3.3111262389e+01     2.630673     1.169609  43.89  0.007044882    2.481    0.597
       127 -13.6940    214.5384     79.1385   7.5655144222e+01   2.1065982570e+01     1.130784    0.7077999  79.83  0.005100305    1.905    0.475
       128 -12.1381    219.6553     74.8902   7.3871436378e+01   2.0583142921e+01    0.3350229    0.2696015  70.62 0.0003979812    1.237    0.192
       129 -11.5077     90.0163     87.7912   1.0646280746e+02   4.7549256398e+01    0.4581774    0.2400532  48.69  0.001944632    2.218    0.549
       130 -12.5579    131.4551     85.6519   9.4227630281e+01   3.9700370115e+01    0.5909343    0.3725843  61.49  0.002537744    1.865    0.464
       131 -12.0111    125.2103     86.7047   9.6149393384e+01   4.0866658440e+01     0.518611    0.3300173  54.12   0.00231384    1.664    0.399
       132 -12.8434    242.2192     83.9971   7.2769405358e+01   1.4011258277e+01    0.6071257    0.3052791  63.35   0.00272821    2.164    0.538
       133 -13.3696    238.4890     80.3293   7.2459813379e+01   1.5430268423e+01    0.9200286     0.349294  64.22  0.003475544    3.024    0.669
       134 -10.8654     98.2031     84.0023   1.0290849836e+02   4.6840621043e+01    0.2110386    0.1934326 -79.15 0.0005176495    1.294    0.227
       135 -11.7199    100.3308     64.7526   9.6354129981e+01   4.9996963047e+01    0.5549884    0.3479615  37.92  0.002230889    1.584    0.369
       136 -13.2967     66.7216     50.2821   1.0220060441e+02   5.8195973132e+01    0.6246855    0.4879777 -16.51  0.003646249    1.170    0.145
       137 -13.2094     64.4379     58.1835   1.0566241359e+02   5.7210943053e+01    0.7796383    0.5625696  23.09  0.004552588    1.404    0.288
       138 -12.4747     39.3167     67.5879   1.1750743842e+02   5.8594356978e+01     1.474966    0.4362119  24.24  0.005434767    4.455    0.776
       139 -13.4769     51.1968     68.6138   1.1357047901e+02   5.7064704857e+01    0.8357124    0.6736061 -77.54  0.004923102    1.825    0.452
       140 -12.5466     77.1405     73.3558   1.0623020337e+02   5.2531588474e+01    0.4286593    0.3320919  -7.08  0.001473562    1.394    0.283
       141 -11.7513    235.2690    248.7630   1.0759776835e+02  -1.2288719513e+01    0.2487247    0.1787201  28.74  0.001615577    1.214    0.176
       142 -12.2381     52.2690     79.9696   1.1642768006e+02   5.4695810981e+01    0.2542939    0.2008801 -47.09 0.0003162002    1.153    0.133
       143 -13.2125     56.5119     78.7976   1.1466888269e+02   5.4409535780e+01    0.5547385    0.2725996 -37.61  0.001067874    1.975    0.494
       144 -13.4144     60.8491     75.4650   1.1225359127e+02   5.4507683902e+01    0.5554333    0.3699365 -46.21  0.001170904    1.376    0.273
       145 -11.8792    113.8968     80.6258   9.7411665105e+01   4.4421432108e+01    0.3868243    0.3742371  18.37  0.001308228    1.022    0.021
       146 -12.5196      6.1465     50.9565   1.2542957305e+02   6.4411718531e+01    0.9996903    0.1090924 -49.37  0.003798139    3.846    0.740
       147 -15.1890      6.7023     71.7580   1.3029071300e+02   6.0382404932e+01     1.192611    0.6222309 -49.02   0.00391542    1.430    0.301
       148 -13.1422    135.0821     79.6026   9.1555389512e+01   4.0020672985e+01    0.8489763    0.4145755  52.40  0.002542724    2.057    0.514
       149 -11.6619     90.5809     80.1805   1.0406755239e+02   4.8968634361e+01    0.4048276    0.3139817   9.05  0.001566093    1.471    0.320
       150 -12.1120     41.8827     77.2914   1.1926713932e+02   5.6409504580e+01    0.3247804    0.2286609 -49.10 0.0008923151    1.238    0.192
       151 -13.7547      4.8500     64.0513   1.2921815019e+02   6.2012457392e+01    0.5008076    0.3869202  -5.73  0.002873282    1.423    0.297
       152 -11.9809    241.5023     71.8737   7.0194573422e+01   1.6148643443e+01    0.5644752     0.296933 -70.90  0.002303762    2.674    0.626
       153 -13.4756    134.5253     67.0098   8.7943924202e+01   4.2358175680e+01     1.162463    0.6842406  41.29  0.005156497    1.729    0.422
       154 -13.7049    170.5918    242.1611   1.1878640434e+02  -8.5703917972e-01     1.038467    0.7111908  30.05  0.005822983    1.401    0.286
       155 -12.4955    147.2394    238.7572   1.2291881812e+02   3.7974845670e+00    0.5155634    0.3522289  74.34  0.002040259    1.954    0.488
       156 -12.2274    144.9997    231.5581   1.2232259996e+02   5.5030466331e+00    0.3615856    0.2109831 -48.76  0.001814221    1.963    0.491
       157 -14.1600    102.0178     50.6138   9.1214900066e+01   5.1942369179e+01    0.8650887    0.5675095  57.66  0.001929173    1.768    0.434
       158 -11.3190    158.1051     63.7246   8.1706851198e+01   3.7322775716e+01     0.338615    0.1980074 -51.73  0.001458975    1.941    0.485
       159 -11.3830     86.0183     50.5739   9.5961383337e+01   5.4970465212e+01    0.5109541    0.2754217 -17.12  0.001876815    2.617    0.618
       160 -12.9272     79.0425     61.3136   1.0179900980e+02   5.4408518104e+01    0.5295599     0.459883 -18.33  0.002059252    1.059    0.055
       161 -11.4586     82.3364     56.8474   9.9257335314e+01   5.4609909700e+01    0.3900605    0.1978358 -45.57  0.001305294    2.141    0.533
       162 -13.8052    178.1911     57.7627   7.6225683368e+01   3.3332943921e+01    0.7475207    0.6164841 -81.63  0.002115778    1.247    0.198
       163 -12.1645     38.9952     60.3915   1.1551409362e+02   5.9985336303e+01    0.2825315    0.2613523  37.82  0.001979311    1.412    0.292
       164 -12.1665    248.1715     54.3495   6.5638813487e+01   1.7400595232e+01    0.5374596    0.3100542 -58.59  0.002587687    1.602    0.376
       165 -11.9171    250.1194     48.9469   6.4303019299e+01   1.7771316515e+01     0.333296    0.2437158 -46.49 0.0009973942    1.285    0.222
       166 -11.7158    231.2486     55.5758   6.7868592609e+01   2.0959208924e+01     0.424688    0.2316153  72.66  0.001843183    1.880    0.468
       167 -13.7121     64.7607     65.6933   1.0796862643e+02   5.5825007346e+01    0.7850223    0.6993679  -9.99  0.004191692    1.044    0.042
       168 -12.2381     24.5612     60.1905   1.2085853407e+02   6.1381217834e+01    0.2761278     0.184098 -44.60  0.001104917    1.220    0.180
       169 -10.4687     23.1657     49.9507   1.1838760161e+02   6.3369009131e+01    0.1609814    0.1415528 -38.22 0.0005150725    1.242    0.195
       170 -12.7724    169.0201     43.4583   7.3925005434e+01   3.7648843449e+01    0.7676249    0.2644615  55.35   0.00285665    2.537    0.606
       171 -13.3640    153.7340     46.6294   7.7643435111e+01   4.0939514923e+01     1.172714    0.2552176  51.02  0.003487349    3.926    0.745
       172 -11.8934    201.4521     45.9506   6.9522843192e+01   2.9366672704e+01     0.462503    0.2936519 -81.83  0.002143486    1.796    0.443
       173 -13.1197     57.6630    246.8423   1.4103190966e+02   1.6472535247e+01     1.008302    0.4656197  34.16  0.004979003    2.699    0.629
       174 -10.5197    136.6709    237.3322   1.2483450655e+02   5.8977299889e+00    0.1376884    0.0931868  69.04 0.0006481064    1.718    0.418
       175 -12.9793    236.8109    230.7404   1.0422053748e+02  -1.0054658448e+01    0.6780888    0.4262865 -57.52  0.003274263    3.085    0.676
       176 -11.3686     41.2794    249.8872   1.4412561460e+02   1.8024539826e+01    0.2503951    0.1519579 -81.82  0.001625094    1.484    0.326
       177 -12.3284     45.7598    208.6763   1.3982279152e+02   2.5915729275e+01    0.4652803      0.23747  87.61  0.002296554    2.064    0.516
       178 -13.2550     57.3815    203.9885   1.3696063228e+02   2.5447089618e+01    0.8825767    0.3916114 -70.21  0.004142869    2.097    0.523
       179 -12.5339     52.8759    214.2603   1.3895425851e+02   2.3789376669e+01    0.4924822    0.2668062  70.43  0.002243332    1.857    0.461
       180 -13.8586     66.9025    223.3813   1.3710588756e+02   1.9925942928e+01    0.8842006    0.5986248  38.83   0.00517133    1.609    0.379
       181 -13.2688    205.3741     40.3587   6.7631152301e+01   2.9193521308e+01    0.7636876    0.3910871  86.81  0.003158579    2.487    0.598
       182 -13.1355    158.8035     43.3998   7.5739916726e+01   4.0152697654e+01    0.5733266    0.3527041  54.53  0.002038873    1.481    0.325
       183 -11.1444    249.0339    225.4850   1.0108676100e+02  -1.1147417668e+01    0.1861165    0.1095025  34.00  0.001042069    1.618    0.382
       184 -13.1863      8.7382     42.9927   1.2210376551e+02   6.5671052612e+01    0.7770626    0.5480168  39.41  0.005302693    2.060    0.514
       185 -10.2804    163.3473    225.3030   1.1760002248e+02   3.3579906731e+00    0.1366503    0.1035971  10.18   0.00070401    1.691    0.409
       186 -13.3522     94.4880    218.7739   1.3098560395e+02   1.6719230446e+01    0.3852141    0.3451277  76.83  0.001817492    1.100    0.091
       187 -13.7422     98.8114    216.4640   1.2978456490e+02   1.6506009474e+01     0.618408    0.4292898 -58.45  0.003400346    1.543    0.352
       188 -12.8648     33.7885     32.7721   1.0824516668e+02   6.5174315756e+01    0.4334905    0.3566809  44.38  0.002338095    1.836    0.455
       189 -14.2245     62.9585    215.0914   1.3702035751e+02   2.2247906054e+01    0.9109001    0.6122028  69.04  0.004167662    1.326    0.246
       190 -11.4495    204.8466    217.8302   1.0794961193e+02  -2.7990474086e+00    0.1749887    0.1634369  67.04 0.0007601106    1.338    0.253
       191 -11.1654     85.5687    215.8655   1.3247525192e+02   1.8750205690e+01    0.2707689    0.1704017  52.96  0.001448823    1.422    0.297
       192 -10.6427     25.6873     43.0075   1.1515859976e+02   6.4346804396e+01    0.1669836    0.1180832 -33.23 0.0004179211    1.139    0.122
       193 -12.9190     75.7562     37.4842   9.4574812527e+01   5.8668314883e+01     0.484404    0.2941613  23.08 0.0008424154    1.743    0.426
       194 -12.3289     70.4860     36.7505   9.6050108312e+01   5.9640714245e+01    0.4194267    0.2826573   3.99  0.001800518    1.606    0.377
       195 -12.8448    241.8393     35.9668   6.2453062405e+01   2.1377499098e+01    0.7242008    0.3249439  71.92  0.002720386    2.173    0.540
       196 -11.3789    245.4793     31.5127   6.1179624184e+01   2.1175957185e+01    0.2748935    0.2170948 -46.30  0.001388615    1.309    0.236
       197 -11.2377    104.6047     37.0854   8.5878126943e+01   5.3309176612e+01    0.2900235    0.2255807 -17.59  0.001206904    1.343    0.255
       198 -11.5736    185.1758    213.7426   1.1115384360e+02   1.4564111341e+00     0.255444    0.1656053 -60.44  0.001210262    2.098    0.523
       199 -10.7965    157.5877    213.7319   1.1688968351e+02   6.5975317400e+00    0.1789941    0.1358683 -65.58 0.0004600204    1.554    0.356
       200 -12.5935    152.2651     31.4019   7.3461877706e+01   4.3255344550e+01    0.3783126    0.2935843 -12.55  0.001286027    1.568    0.362
       201 -11.2149    136.8239    211.2309   1.2090775647e+02   1.0954927395e+01    0.2369861    0.1903832 -76.05 0.0009459081    1.376    0.273
       202 -11.0917     51.3272     36.4619   1.0276296274e+02   6.2510138780e+01    0.3342316    0.1101076  34.81   0.00142909    3.087    0.676
       203 -11.0326    211.3089     33.1148   6.5172374949e+01   2.8737530109e+01    0.1867965    0.1549924 -67.34 0.0005186109    1.112    0.101
       204 -10.3401     89.2663     30.3321   8.7760386583e+01   5.7179383156e+01    0.1297748   0.08847347  13.40 0.0002258435    1.581    0.368
       205 -12.0416     96.9796     27.3060   8.4482776579e+01   5.6044027793e+01     0.329587    0.2647944  30.68  0.001160952    1.095    0.087
       206 -11.4458     76.2027     23.0992   8.8995651729e+01   6.0412999289e+01    0.3421901    0.2384678  20.64  0.002071215    1.333    0.250
       207 -11.1158     39.9269    210.8368   1.4118379052e+02   2.6161908491e+01    0.2862156    0.1625114  42.30  0.001631556    1.772    0.436
       208 -11.3546     70.8374     17.0012   8.8303403743e+01   6.2016364228e+01    0.1953758     0.149661  31.73 0.0004209679    1.154    0.133
       209 -11.5894     16.5049    235.1569   1.4733011210e+02   2.3792573434e+01    0.3508784    0.1267566  68.33  0.001632033    2.902    0.655
       210 -11.0253     80.3301    208.3363   1.3264342413e+02   2.1194579319e+01    0.2837967    0.1605912  70.92  0.001264845    2.017    0.504
       211 -10.8477    149.7372    206.8419   1.1739746710e+02   9.4410459874e+00    0.2477844     0.185885  33.88 0.0009735352    1.348    0.258
       212 -10.6103    215.3250    202.3085   1.0300467312e+02  -2.0229721721e+00    0.2249683    0.1321086  36.51 0.0007096133    1.651    0.394
       213 -10.6332    212.5561    200.2350   1.0314337079e+02  -1.1648657104e+00    0.2814966    0.1303752 -36.74  0.001186906    2.240    0.553
       214 -11.7774     41.5146    201.0159   1.3992569808e+02   2.8127457469e+01    0.2935213    0.1475169  85.63  0.001407883    2.150    0.535
       215 -13.8858     39.3507    195.3640   1.3980316473e+02   2.9649697640e+01    0.8864695    0.4646931  56.39  0.004560538    1.832    0.454
       216 -10.1106    250.5128    200.5128   9.6157174491e+01  -7.6719871490e+00    0.1292103    0.1101745  -7.29 0.0001464217    1.001    0.001
       217 -13.0360    164.7203    195.2760   1.1208076147e+02   8.9048366924e+00    0.7478058    0.4724818 -74.25   0.00303917    2.610    0.617
       218 -11.4098    180.4909    198.4960   1.0931937353e+02   5.1900169831e+00    0.1429633     0.134092  27.68 5.419896e-05    1.014    0.014
