#   1 NUMBER                 Running object number                                     
#   2 MAG_AUTO               Kron-like elliptical aperture magnitude                    [mag]
#   3 X_IMAGE                Object position along x                                    [pixel]
#   4 Y_IMAGE                Object position along y                                    [pixel]
#   5 X_WORLD                Barycenter position along world x axis                     [deg]
#   6 Y_WORLD                Barycenter position along world y axis                     [deg]
#   7 A_WORLD                Profile RMS along major axis (world units)                 [deg]
#   8 B_WORLD                Profile RMS along minor axis (world units)                 [deg]
#   9 THETA_WORLD            Position angle (CCW/world-x)                               [deg]
#  10 FWHM_WORLD             FWHM assuming a gaussian core                              [deg]
#  11 ELONGATION             A_IMAGE/B_IMAGE                                           
#  12 ELLIPTICITY            1 - B_IMAGE/A_IMAGE                                       
         1 -13.6744    226.8240     31.1831   3.6368612978e+01   2.5792026748e+01     1.024135     0.781276  48.91  0.006367415    1.731    0.422
         2 -10.7968      2.4761      2.9702   8.5383104978e+01   7.4147101028e+01    0.2543026    0.1612954 -30.61  0.001791247    1.328    0.247
         3 -11.4122    250.1156      7.4682   2.9881645565e+01   2.3850733015e+01    0.4385313    0.1682484 -36.33  0.002022975    2.441    0.590
         4  -9.0578     93.1812      2.1537   4.7656721464e+01   5.9631911344e+01    0.1575113    0.1391522  86.02 0.0003736942    1.324    0.245
         5 -10.3646     48.4307    237.2570   1.1492045213e+02   1.8561359616e+01    0.2393078    0.1540492  57.66 0.0007142551    1.294    0.227
         6 -11.4439     49.2079    249.2698   1.1567750720e+02   1.6077647158e+01    0.7000129    0.3037887  34.74  0.003576034    2.125    0.529
         7 -12.2932     34.3077    249.4642   1.1856203434e+02   1.7810160714e+01      1.10436    0.4075492  38.39  0.005606644    2.218    0.549
         8 -14.2958    106.8404    229.5196   1.0168128599e+02   1.2004090562e+01     3.521797    0.5201084  41.10   0.01001955    4.858    0.794
         9 -13.6481      3.3532    243.3929   1.2397751739e+02   2.2264444674e+01     2.635388    0.8226345 -72.80   0.01312981    2.895    0.655
        10 -15.3774     21.4517    172.7215   1.1543324867e+02   3.6083506121e+01      7.36063     2.822118  84.77    0.0257791    3.864    0.741
        11 -12.8906     85.3952    233.8910   1.0685230403e+02   1.4312146897e+01      1.04274    0.7218251 -83.26  0.005977847    1.607    0.378
        12 -10.3574     43.1393    217.9908   1.1445584326e+02   2.3271171543e+01    0.2672812    0.1732498  82.07 0.0004624664    1.456    0.313
        13 -14.1677     23.5511    199.9648   1.1728771876e+02   2.9475652426e+01     2.429297     0.844628  55.13   0.01012819    2.896    0.655
        14  -9.7226     59.1520    231.1829   1.1218559987e+02   1.8459247967e+01    0.2109122    0.1553927 -65.48  0.001295154    1.482    0.325
        15 -11.6274     86.4846    223.6595   1.0547656401e+02   1.6264465379e+01    0.3877615    0.2876879  71.46 0.0002977378    1.364    0.267
        16  -8.7019    226.7069    206.3039   7.3013386081e+01  -2.8393154740e+00    0.1085663    0.1028352 -71.58 0.0002129515    1.575    0.365
        17  -9.8972    192.3876    193.5873   7.7254360920e+01   4.7517043758e+00    0.2615095    0.1228909 -56.19 0.0009468546    3.431    0.709
        18 -11.6520     47.7154    180.0411   1.0959845426e+02   3.1499762494e+01    0.3775532    0.2964725 -35.44  0.001305613    1.639    0.390
        19 -11.4579     54.8493    173.8768   1.0700670892e+02   3.2124294216e+01    0.2821418    0.2467716 -48.63 0.0004612421    1.286    0.222
        20  -8.5790    110.5218    167.5339   9.1302231740e+01   2.5145227090e+01    0.1502839    0.1420731  70.89 0.0001123522    1.037    0.035
        21 -10.8261     66.8773    163.8633   1.0237954671e+02   3.3005740430e+01    0.2689096    0.2485979 -59.45 0.0003536129    1.129    0.114
        22 -13.0643     52.6233    160.2852   1.0576181237e+02   3.5772608044e+01    0.5337897    0.3350281 -38.24  0.001485409    2.010    0.503
        23 -12.1945     75.6621    156.9926   9.8843824176e+01   3.3454509749e+01    0.6949285    0.5633042  64.13  0.003679704    1.269    0.212
        24 -14.0357     12.9924    207.0275   1.2009746109e+02   2.8928987235e+01     1.175006    0.7714987  41.79  0.003182443    1.482    0.325
        25 -12.6355     68.0193    144.2156   9.8805520208e+01   3.7767969514e+01    0.8256637    0.5587611  69.42  0.003787517    1.806    0.446
        26 -12.3577     54.6535    123.0556   9.8960009698e+01   4.4850865112e+01     2.150235    0.7022708 -72.13  0.004025755    9.015    0.889
        27  -9.5972     95.0764    140.1878   9.0137375526e+01   3.4501946399e+01    0.3149414    0.2286412 -29.47  0.001438722    1.690    0.408
        28  -8.3387    143.3450    143.6878   7.7968474621e+01   2.4411236004e+01    0.1597088    0.1233389  82.07 0.0007046371    1.708    0.415
        29 -11.7352     79.0917    141.8000   9.5104744372e+01   3.6728963054e+01    0.3172881    0.2686051 -50.30 0.0003822251    1.170    0.145
        30 -13.9946     70.8129    247.7627   1.1125421515e+02   1.3592743809e+01     2.629691    0.5969031  34.93  0.009235692    3.804    0.737
        31 -10.3431    105.7834    131.2186   8.5107601403e+01   3.4749899531e+01    0.3642866    0.3219772 -20.93  0.001145123    1.262    0.208
        32  -9.8145     92.3295    127.7832   8.8247831968e+01   3.8006992343e+01    0.3200122     0.251538  13.45 0.0008880148    1.536    0.349
        33 -10.4094     66.7027    127.7058   9.6067857770e+01   4.2082508986e+01    0.2970426    0.1774659 -85.39  0.001178457    2.479    0.597
        34  -9.4897    113.9678    125.0322   8.1343796186e+01   3.4643071796e+01    0.3152108    0.1926703  -9.68 0.0009541687    4.093    0.756
        35  -9.4110    103.9016    119.9712   8.2997006633e+01   3.7770996176e+01    0.2190892    0.2153783 -60.31 0.0003060815    1.004    0.004
        36 -11.1443     15.3558    115.1822   1.1039607832e+02   5.0679683810e+01    0.3227881    0.1580668  49.35  0.001493351    2.521    0.603
        37  -8.9356    204.8798    110.6322   5.7213857939e+01   1.8120600254e+01    0.2814554    0.1263012  44.21  0.001096264    2.572    0.611
        38 -10.0006     91.6387    143.6294   9.1830037942e+01   3.4242476596e+01    0.2880673    0.2752296 -73.64 0.0007550926    1.013    0.013
        39 -11.9447      1.7157     87.7919   1.1088278142e+02   5.7977503059e+01    0.7655103    0.1724173 -71.44   0.00249966    4.429    0.774
        40  -8.6745     24.5612     82.5449   1.0111307227e+02   5.7643706364e+01     0.128548    0.1102859 -46.10 5.666294e-05    1.018    0.018
        41 -10.5216     13.2482     60.1093   1.0038384673e+02   6.3354112853e+01    0.2100529    0.1655062 -39.48 0.0004704825    1.033    0.032
        42 -11.7124    205.8935     48.8875   4.2570087976e+01   2.8026432609e+01    0.4485018     0.303593 -68.51  0.002425713    1.463    0.316
        43 -12.5676    211.8768     43.9477   4.0715344944e+01   2.7369745355e+01     0.564477     0.433718 -49.61  0.003403375    1.220    0.181
        44 -11.2230     10.6011     42.7208   9.6641878492e+01   6.6978796442e+01    0.3349333    0.2044184  40.03  0.001326414    2.242    0.554
        45  -9.4529     95.0298     41.8488   6.2094363578e+01   5.4827271245e+01    0.2414595    0.1701429 -48.25  0.001257816    1.695    0.410
        46 -13.6973     95.6632    243.9559   1.0575596541e+02   1.0850590361e+01     1.806253    0.4590226  40.50  0.006802846    3.017    0.669
        47 -10.6137      2.4678     37.6378   9.9142116641e+01   6.8461070102e+01    0.2698506    0.1764017  34.14  0.001708871    1.968    0.492
        48 -10.3074    119.9672     28.1692   5.0929343475e+01   5.1065580371e+01     0.314583    0.2276406 -73.30 0.0009728739    1.817    0.450
        49 -10.5077      2.0000     18.5085   9.2636737796e+01   7.1836945844e+01    0.2331541   0.05352755 -51.83 0.0009337367    3.927    0.745
        50  -9.4996    189.4918     15.4767   3.6533169916e+01   3.5953101339e+01    0.1281607    0.1057714 -84.95 7.202717e-05    1.015    0.014
        51 -13.7821    115.6027    241.6854   1.0129357627e+02   8.3154693796e+00     1.001071    0.7494425  37.06  0.005418758    1.163    0.140
        52 -11.5563     15.2554    249.4654   1.2210889125e+02   1.9892679214e+01    0.3931977    0.2424143  44.71  0.002639571    1.397    0.284
