#   1 NUMBER                 Running object number                                     
#   2 MAG_AUTO               Kron-like elliptical aperture magnitude                    [mag]
#   3 X_IMAGE                Object position along x                                    [pixel]
#   4 Y_IMAGE                Object position along y                                    [pixel]
#   5 X_WORLD                Barycenter position along world x axis                     [deg]
#   6 Y_WORLD                Barycenter position along world y axis                     [deg]
#   7 A_WORLD                Profile RMS along major axis (world units)                 [deg]
#   8 B_WORLD                Profile RMS along minor axis (world units)                 [deg]
#   9 THETA_WORLD            Position angle (CCW/world-x)                               [deg]
#  10 FWHM_WORLD             FWHM assuming a gaussian core                              [deg]
#  11 ELONGATION             A_IMAGE/B_IMAGE                                           
#  12 ELLIPTICITY            1 - B_IMAGE/A_IMAGE                                       
         1 -10.3921     10.4121     18.9151   8.8309373635e+01   7.1202593520e+01     1.264442     0.471976 -19.06  0.003958033    6.509    0.846
         2 -11.0477     23.7269     32.5078   8.7019052226e+01   6.7733274803e+01     1.240996    0.4607928 -34.00  0.003090782    2.601    0.616
         3  -9.2414    129.9982     56.1659   5.8145627931e+01   4.4958788898e+01     1.156918    0.2811339 -33.48   0.00153416    4.427    0.774
         4 -10.8480    134.0194     30.9755   4.9041165802e+01   4.7423393656e+01    0.6496004    0.3776665   7.38  0.002672863    2.919    0.657
         5  -9.3609     77.8316      4.1838   5.2237813320e+01   6.2717991720e+01    0.4561909    0.2599574  -1.14  0.002411233    2.046    0.511
         6 -10.0158     63.2914      3.0533   5.6219809737e+01   6.5670969349e+01    0.4772825    0.3568386  24.90  0.001772195    1.110    0.099
         7 -10.3292     73.6563     17.7048   5.9433722289e+01   6.2257232375e+01     1.151561    0.3845616 -22.45  0.003930789    3.678    0.728
         8  -8.6754     71.9929      8.6345   5.5962394325e+01   6.3496668768e+01     0.173819    0.1378917  37.01 0.0005633262    1.088    0.081
         9 -10.0858     69.5209     41.1111   7.0679339203e+01   5.9952707348e+01    0.9115197    0.3552923 -35.05  0.002652366    2.576    0.612
        10 -10.0370     63.0688     20.9825   6.4574728229e+01   6.3853376860e+01    0.7703927    0.3885125 -41.68   0.00288003    2.530    0.605
        11 -10.0890     64.5606     13.0834   6.0460192088e+01   6.4473168341e+01    0.3871481    0.2934325 -26.65   0.00163903    1.451    0.311
        12  -9.4731    101.0325     32.1608   5.7127144799e+01   5.4912452885e+01    0.5315548    0.2436168 -29.50  0.001808459    2.318    0.569
        13 -10.2339     51.6023     14.7642   6.6155618290e+01   6.6554410360e+01     1.060405     0.527752   9.11  0.004378614    3.346    0.701
        14 -10.1617     46.2624     29.5183   7.5165233863e+01   6.5431387974e+01    0.4520738    0.3016922 -46.47  0.001075792    1.912    0.477
        15  -9.4522    118.7805     20.3033   4.8539295672e+01   5.2213064893e+01     0.452152    0.2525821 -24.92  0.001244513    1.989    0.497
        16  -8.5768    136.1307      1.5010   3.9175986235e+01   4.9771603093e+01     0.308566    0.1076209  56.76  0.001324878    2.247    0.555
        17  -9.3943    124.5460     13.3081   4.4975609748e+01   5.1532918990e+01     0.442115    0.1958417  50.28 0.0008758047    1.941    0.485
        18  -9.5107    126.7184      8.9893   4.3124461898e+01   5.1401779238e+01     0.361248    0.1779689  36.52  0.001055397    2.316    0.568
        19  -9.9632    125.7478      4.9287   4.1931987719e+01   5.1969174618e+01    0.8325005    0.1602346  59.67  0.002882669    3.375    0.704
        20  -9.5465    133.3729     11.3965   4.2774973045e+01   4.9603676406e+01    0.4699579    0.1861606 -40.16  0.001997507    2.810    0.644
        21  -9.0067    114.3978      9.7312   4.5691246783e+01   5.4230363293e+01    0.3029173    0.1991295  39.05 6.326557e-05    1.447    0.309
        22  -8.9038    115.3640      4.3329   4.3580908943e+01   5.4451220788e+01    0.2704628     0.207743 -44.97 0.0007398849    1.540    0.351
        23  -8.7040    112.2794     15.4402   4.8189087752e+01   5.4202592648e+01    0.2657255     0.190627 -38.10 0.0005374896    1.597    0.374
        24 -10.7970     37.3047      9.6057   6.9820069431e+01   6.9374426841e+01    0.8407767    0.3757517 -35.87  0.002361327    2.380    0.580
        25 -10.3535     25.9262     11.3065   7.6257471387e+01   7.0691143460e+01    0.8609489    0.3386664  35.64  0.004316464    2.529    0.605
        26 -10.0134     18.3472      4.8186   7.6927617609e+01   7.2427115430e+01     0.495126    0.3419368 -45.57  0.002452827    2.182    0.542
        27  -9.2212      2.4421     14.7171   9.1042231288e+01   7.2499003093e+01    0.3202776    0.2353875 -61.44  0.001502871    2.127    0.530
        28 -10.4805      5.1786      4.9103   8.4668067325e+01   7.3750628138e+01    0.5632715    0.3638391  -5.22  0.001837576    1.276    0.216
        29  -9.1203     96.2511     15.2261   5.1862827438e+01   5.7829094823e+01      0.52005     0.239461 -18.20  0.002064409    2.554    0.608
        30  -8.2559    104.7701     14.8014   4.9631513873e+01   5.5976199162e+01     0.344314    0.1477984  24.18   0.00112945    4.583    0.782
        31  -9.5856     85.2754     12.8249   5.3821794007e+01   6.0409094375e+01    0.4625374    0.2497853 -44.75  0.001960877    2.583    0.613
        32  -7.9297     80.6535     12.6917   5.5095052870e+01   6.1377370448e+01    0.2425282    0.1445909 -39.88  0.001068289    2.091    0.522
        33  -8.0140    141.3679     12.0868   4.1695868536e+01   4.7618684929e+01    0.1759513    0.1650134  89.47 0.0006491168    1.103    0.093
        34  -7.8942    156.0000      9.9789   3.8941908154e+01   4.4276507120e+01     0.191418   0.07487478 -24.55 0.0008002173    2.927    0.658
        35  -9.0004    137.1384      8.4751   4.1225727671e+01   4.8958506179e+01    0.2499567     0.150459 -47.86 0.0009249662    1.910    0.476
        36  -9.3655    102.1511      8.2509   4.7743132625e+01   5.7152949597e+01    0.3251526    0.2253621 -81.94  0.001131851    2.107    0.525
        37  -9.0522     97.5363      5.5479   4.7747930516e+01   5.8405237643e+01    0.2657761    0.2102863  46.70   0.00124371    1.058    0.055
        38  -8.5794     96.2911      2.6720   4.6902604379e+01   5.8906728515e+01    0.2149106    0.1920166  32.82 0.0006730894    1.093    0.085
        39  -9.7283     79.0778     24.1089   6.0405554559e+01   6.0469099185e+01     0.556903     0.276193  29.07  0.001612715    2.304    0.566
        40  -9.4189    110.4271      5.4886   4.4954057945e+01   5.5500058727e+01    0.4563677    0.2484213 -18.80  0.002348377    2.115    0.527
        41  -7.7817    143.1971      4.9747   3.9227976457e+01   4.7800486351e+01    0.2043879    0.1233624 -56.26  0.000660308    1.941    0.485
        42  -8.0241    151.8287      2.5323   3.7331997340e+01   4.5929281675e+01     0.325166    0.1253818 -44.44  0.001394931    2.865    0.651
        43  -8.5468     89.0437      2.5280   4.8560712308e+01   6.0497463291e+01    0.2241351    0.1640663 -13.02  0.001038019    1.505    0.336
        44  -8.1740    104.6455      1.9047   4.4800855516e+01   5.7096278515e+01    0.2219594    0.1446311  49.68 0.0006812034    1.274    0.215
        45 -10.5983    117.4504    124.6736   8.1522015145e+01   3.4046163621e+01     1.025545    0.7021541 -52.95  0.002005107    1.473    0.321
        46 -10.1153    202.8751    247.0570   8.5970113473e+01  -5.4703224566e+00    0.3831134     0.378017  -6.52  0.001036434    1.514    0.339
        47  -9.5066    191.8199    249.1696   8.8416989966e+01  -4.2038827750e+00    0.2299364    0.1393359  20.11  0.001013361    1.517    0.341
        48  -9.3361    196.2755    249.4937   8.7608816828e+01  -4.8843831432e+00    0.3537467    0.1686506 -36.27  0.001834754    2.288    0.563
        49 -10.0109    108.7565    114.6360   8.1441123380e+01   3.8086012687e+01    0.6964987    0.4474315 -76.34  0.001522325    2.637    0.621
        50 -11.3413    121.1301    109.1214   7.6450373960e+01   3.6833344198e+01     1.888664    0.7919852 -49.60  0.006512315    2.477    0.596
        51 -10.2802    123.1538     91.4125   7.0880774376e+01   4.0170380765e+01    0.6473589    0.5034814  25.26  0.001188784    1.426    0.299
        52 -11.1130    133.6036    109.6426   7.3228695511e+01   3.4058259738e+01     2.671471    0.6361272 -43.67  0.007028949    4.150    0.759
        53  -9.8790     98.7124    128.5886   8.7831594308e+01   3.6658854298e+01    0.7239959    0.4472404  68.90  0.002683784    2.734    0.634
        54  -7.5281    190.5131    129.5820   6.5262948788e+01   1.7473700034e+01     0.148315    0.1413763 -28.80 0.0001818825    1.015    0.015
        55  -9.5553    127.7640    102.5357   7.2822479741e+01   3.6850392305e+01    0.4048595    0.3193958 -54.20  0.001219836    1.335    0.251
        56 -10.1676     58.2684    124.4538   9.9311426414e+01   4.3928313198e+01    0.6050619    0.3796954  81.43  0.002004366    2.436    0.590
        57 -10.0633     41.9050    122.5954   1.0415500295e+02   4.6309813218e+01    0.6870988    0.3550565 -86.54   0.00262544    2.974    0.664
        58 -10.1417     27.2073    122.8882   1.0885657449e+02   4.7653822312e+01    0.5879318    0.3314497  67.84  0.002022646    2.451    0.592
        59  -8.4402     98.2424    120.7716   8.6098022648e+01   3.8622164426e+01    0.3246077    0.1656502 -34.18  0.001151306    2.552    0.608
        60  -9.9241    140.8068    118.4331   7.3703801948e+01   3.0583787723e+01    0.4982581    0.3696193 -81.93  0.001326892    1.951    0.487
        61  -8.6109      1.6249    116.7892   1.1597533409e+02   5.0956771648e+01    0.3497941    0.1415549 -83.58  0.001365575    2.576    0.612
        62 -10.3996     92.0910    113.0313   8.6029873704e+01   4.1559436323e+01    0.6864007    0.6050031  77.51  0.001700607    1.329    0.248
        63  -9.0353     92.1231    104.0834   8.3671076274e+01   4.3636361089e+01    0.7301953    0.4152415  16.82  0.002654861    2.837    0.647
        64  -8.8720    152.3659    114.8116   6.9913845705e+01   2.8818015405e+01    0.3201355    0.1957263 -59.39  0.001254823    2.063    0.515
        65 -10.4595     78.1741    112.4869   9.0280429550e+01   4.4018728620e+01    0.7450958    0.4229078 -68.24  0.001868766    2.291    0.564
        66  -9.7325     81.5379     99.4758   8.5825656981e+01   4.6527498717e+01    0.7786698     0.320472 -47.48  0.001126667    2.270    0.560
        67  -8.2127    166.9138    114.1329   6.6396055554e+01   2.5705009349e+01    0.2150359    0.1830746  -9.15 0.0004369982    1.333    0.250
        68  -8.2277     63.5026     81.9594   8.7110691651e+01   5.3262264662e+01    0.2123501    0.1317351 -50.02 0.0005006695    1.531    0.347
        69 -10.5498     62.9916     95.5723   9.1085367026e+01   5.0279889452e+01     1.036056    0.5651886 -72.73  0.002063989    3.151    0.683
        70  -8.9636     65.3940     85.4976   8.7457620942e+01   5.2211119478e+01    0.6138006    0.3224936  12.09  0.002246866    3.226    0.690
        71 -10.6853     65.7338    110.9271   9.3961464628e+01   4.6255227836e+01    0.9848536    0.7148356  30.68   0.00363972    1.487    0.328
        72  -9.7458     59.4492    109.4873   9.5719904108e+01   4.7460936064e+01    0.3882934    0.2569452 -50.90  0.001159584    1.357    0.263
        73 -10.0617     14.3173    111.4007   1.1120842821e+02   5.1477523219e+01    0.4951383    0.2791533  78.62    0.0016591    2.366    0.577
        74  -8.9438     14.3124    105.3337   1.1025677481e+02   5.2945588994e+01     0.264364    0.1583361 -34.60  0.001407617    1.762    0.432
        75  -8.5439    158.8945    111.7689   6.7587471942e+01   2.7988686952e+01    0.2735721    0.2156202 -41.55 0.0004816102    1.241    0.194
        76  -8.5630    141.3723    112.2075   7.1922775513e+01   3.1806202846e+01     0.219132    0.2010703  26.03 0.0005657878    1.127    0.113
        77  -9.4674     42.1477     53.0756   8.6255057369e+01   6.1995258549e+01    0.5440199    0.4107199  41.98  0.001351559    1.676    0.403
        78 -10.6906     32.4259     63.8304   9.3934836899e+01   6.0934477501e+01     1.265852    0.5708749 -21.50  0.004703769    3.650    0.726
        79 -11.0927     21.0098    100.8162   1.0717130176e+02   5.3550259256e+01     1.683489    0.8650281 -89.29  0.004346811    2.997    0.666
        80 -10.8040     25.1460     78.0854   1.0080684014e+02   5.8512939045e+01    0.8231082    0.5915751 -57.79  0.003111639    1.250    0.200
        81 -10.1660     34.5684     90.3853   1.0010276775e+02   5.4853831328e+01    0.6776991    0.3136097 -74.85  0.002284721    3.443    0.710
        82  -9.8558     37.4376     80.5280   9.6580949274e+01   5.6820719105e+01    0.6833969    0.3459441 -11.05   0.00248847    3.413    0.707
        83  -8.8414     35.8666    110.8509   1.0395190135e+02   4.9827998567e+01    0.2167052    0.1668642 -44.18  0.001226524    1.207    0.171
        84  -8.1864    149.7580    110.0136   6.9271735171e+01   3.0405374768e+01    0.2209845    0.1998629 -33.92 0.0003903067    1.097    0.088
        85  -8.9271    243.3448    109.2275   5.1641073482e+01   1.0559002099e+01    0.1743959    0.1631945 -31.91 0.0006138146    1.112    0.101
        86 -10.8846     44.8799    102.1905   9.9062909065e+01   5.0991884133e+01    0.8891038    0.5208439  75.69  0.002851357    3.477    0.712
        87  -9.4911     39.9532    106.5493   1.0170807683e+02   5.0467296502e+01    0.3098758    0.1781744 -65.65 0.0006610859    1.638    0.390
        88  -8.3508    166.0579    104.1961   6.3988038576e+01   2.7883865779e+01     0.291448    0.2112307 -51.80 0.0005056993    1.424    0.298
        89  -9.1895    150.4811     89.3946   6.3416769099e+01   3.4361628839e+01    0.5082514     0.263822 -32.68  0.001957516    2.116    0.527
        90  -9.5503    149.4605    103.1296   6.7484669003e+01   3.1890518790e+01    0.4099078    0.2841401 -56.09 0.0009310947    1.607    0.378
        91  -8.4886    151.0231     96.0048   6.5150004683e+01   3.2957247527e+01    0.4542924    0.3427482 -17.83   0.00151329    1.590    0.371
        92  -9.5318      6.3635    103.6745   1.1267792475e+02   5.3840495423e+01    0.4339176    0.2550091  76.79  0.001341664    2.181    0.542
        93  -8.6442     74.0200    102.6434   8.9160894368e+01   4.7004433466e+01    0.2833336    0.1997132 -44.35 0.0005436568    1.323    0.244
        94  -8.4121    159.1678    101.5295   6.4798637359e+01   2.9990602866e+01    0.3037738    0.2194715 -62.63 0.0005519723    1.649    0.394
        95  -9.4957     94.3004     97.1120   8.1052658351e+01   4.4811497082e+01    0.3477392    0.3010764 -83.90 0.0006113046    1.431    0.301
        96  -9.2258     95.8304     90.5758   7.8674036726e+01   4.5949522859e+01    0.5043374    0.3361104 -12.43  0.001594504    2.149    0.535
        97  -9.2031    242.5102     96.5048   4.8981599689e+01   1.2796362806e+01    0.2270982    0.1640176 -77.81  0.001007752    1.730    0.422
        98  -8.7715    164.5837     94.2013   6.1622060680e+01   3.0154638083e+01    0.3559937    0.2461956 -54.10 0.0007738303    1.554    0.356
        99  -7.9405    190.5369     94.2421   5.6517428655e+01   2.4151536293e+01    0.2070828    0.1410923 -26.10 0.0009446756    1.642    0.391
       100  -8.8609    157.5555     91.4658   6.2399331097e+01   3.2314687731e+01    0.5340556    0.2320745 -33.75  0.001867531    2.549    0.608
       101  -9.1099    140.5284     82.0957   6.3648973659e+01   3.8056711669e+01    0.5580009    0.2743072 -39.53  0.001081848    2.039    0.509
       102  -9.4886    138.6965     92.5732   6.7155955414e+01   3.6464785448e+01     0.407722    0.3105793 -76.85 0.0008260831    1.766    0.434
       103  -8.5561    139.5407     87.4850   6.5473095744e+01   3.7265537161e+01    0.3657949    0.2078042  36.84  0.001455683    1.998    0.500
       104 -10.1178      4.4762     89.3698   1.1105386740e+02   5.7317792041e+01    0.6674144    0.3208626 -87.37  0.002227555    2.823    0.646
       105  -9.3823      5.6757     79.3449   1.0877214714e+02   5.9556544809e+01    0.8393037    0.2683136 -28.15  0.002868014    4.870    0.795
       106  -8.6154    106.7822     91.4382   7.5568881893e+01   4.3616096884e+01     0.358793    0.3091924 -37.41  0.001852178    1.137    0.121
       107  -9.5055    112.3379     88.9346   7.3188217169e+01   4.2991725803e+01    0.6639844    0.3622212  42.43  0.002726359    1.847    0.458
       108 -10.3011     48.0325     84.4739   9.3568520791e+01   5.4756901513e+01    0.6085587    0.4431321 -70.49  0.001892421    1.642    0.391
       109  -9.4151     48.5356     77.2175   9.1353842263e+01   5.6300545982e+01    0.6412386    0.3479997   4.62  0.002645819    2.815    0.645
       110 -10.1514     85.3444     86.5374   8.0861646298e+01   4.8739974798e+01    0.4989603    0.4008758  80.14 0.0008671399    1.795    0.443
       111  -9.6626     87.1166     78.9730   7.7943359288e+01   4.9999651472e+01    0.7367043    0.4152696  21.45  0.002623994    2.450    0.592
       112  -7.4608    174.4974     88.4676   5.8037079091e+01   2.8896376532e+01    0.1493117    0.1437339 -65.69 0.0008097476    1.015    0.015
       113  -8.6440    163.2799     86.8429   5.9877913738e+01   3.1830800867e+01    0.2608544    0.2108299 -40.34 0.0007673795    1.224    0.183
       114  -8.8148    126.5726     83.6575   6.7647194830e+01   4.0952432923e+01     0.599583     0.308111  28.17  0.001989438    3.176    0.685
       115  -7.5103    116.3406     85.2785   7.0939010397e+01   4.2881665244e+01    0.1553336    0.1185845   9.80 0.0007005386    1.622    0.384
       116 -10.2879    103.9871     82.5792   7.3723383489e+01   4.6006545869e+01     0.540383     0.309523 -51.88 0.0009406584    1.973    0.493
       117  -9.6845    105.4588     70.8585   6.9541687420e+01   4.7962890917e+01    0.8824249    0.5379414 -24.81  0.003411253    1.932    0.483
       118  -9.2659    109.8328     63.8961   6.5962940465e+01   4.8271617897e+01    0.3691638    0.2716505 -57.17 0.0008086871    1.691    0.409
       119  -8.6625    110.8572     58.0915   6.3715751019e+01   4.9021757637e+01    0.3471047    0.2311362  26.30  0.001008321    1.736    0.424
       120  -8.7895    157.8402     82.8935   5.9930260845e+01   3.3836030139e+01    0.4516473    0.2455153 -34.88  0.001300033    1.898    0.473
       121  -7.8104    170.3606     83.1519   5.7413937697e+01   3.0821425224e+01    0.2227982    0.1302454 -47.79 0.0009417583    1.744    0.426
       122  -9.1589    149.9315     79.9910   6.0838999894e+01   3.6233980711e+01    0.5196298    0.2188649 -36.16  0.001529503    2.446    0.591
       123  -9.0997    166.3886     79.5188   5.7203895866e+01   3.2403640343e+01    0.4220484    0.2419527 -37.20  0.001363739    1.741    0.425
       124  -9.2429    115.2413     72.2511   6.7176247150e+01   4.5608922632e+01    0.5652957    0.2981874 -32.77  0.001616217    2.036    0.509
       125  -8.8017    119.0765     80.3933   6.8676696777e+01   4.3243101430e+01    0.3425333    0.2467684 -52.78 0.0006628652    1.543    0.352
       126  -8.5608    119.9003     75.8185   6.7024528504e+01   4.3925151661e+01    0.3058866    0.2229689  26.48 0.0007063433    1.546    0.353
       127  -9.3285     74.3094     78.9808   8.2328447634e+01   5.2222942150e+01    0.6815689    0.2896736 -44.83  0.002001623    2.219    0.549
       128  -8.1600    184.0512     78.1565   5.3506192470e+01   2.8452588817e+01    0.2481741    0.2095008 -34.33 0.0007362781    1.204    0.169
       129  -7.5107    174.2457     78.9451   5.5512675178e+01   3.0634329972e+01    0.1919664    0.1227826 -39.38  0.000862473    1.533    0.348
       130  -8.6238    157.0244     75.7341   5.8060584914e+01   3.5298390319e+01    0.4328414    0.2155403 -37.10  0.001727645    2.020    0.505
       131  -9.4864    127.3447     75.0712   6.4813718233e+01   4.2388363964e+01    0.4214991    0.3019812 -59.95 0.0008458004    1.724    0.420
       132  -9.0314    129.4776     68.8250   6.2316637656e+01   4.3006515084e+01    0.5245708    0.2861908  25.29  0.001806385    3.181    0.686
       133  -8.4417    130.4885     64.5488   6.0714414091e+01   4.3497222271e+01    0.4155995    0.1975784 -41.87  0.001185652    2.179    0.541
       134  -9.2268    140.1905     74.1814   6.1362910584e+01   3.9570304665e+01    0.5592595    0.2905547 -29.82   0.00163927    2.201    0.546
       135  -7.8008     66.6693     76.2915   8.4235099266e+01   5.3997013333e+01    0.1329308    0.1141725  76.59  0.000547872    1.628    0.386
       136  -9.9162     81.6913     72.3431   7.7639011805e+01   5.2307563617e+01    0.5274428    0.3206615 -56.29 0.0009073835    2.079    0.519
       137  -9.0565     83.4032     64.7759   7.4512937177e+01   5.3443111707e+01    0.4913714    0.3708286  -2.88  0.002513831    1.483    0.326
       138  -8.1453    162.9057     73.2170   5.6132038565e+01   3.4319372969e+01    0.2678497    0.1918548 -61.93 0.0006685366    1.609    0.379
       139 -10.5031     55.3628     70.9604   8.6820844977e+01   5.6744058789e+01     0.631252    0.3828423  54.01  0.001462236    2.619    0.618
       140  -9.3921     54.9900     62.9495   8.4361033545e+01   5.8411713120e+01    0.6340735    0.4145756  31.60  0.003339109    1.593    0.372
       141 -10.4032    164.5407    247.5322   9.3556347372e+01   6.0286496054e-02    0.3873587     0.283344  -2.54  0.002307084    1.563    0.360
       142  -8.1019     89.5596    248.9460   1.0897913912e+02   1.0968587068e+01    0.1994118     0.139019  55.82 0.0006885024    1.264    0.209
       143  -9.8096     16.0497     70.4079   1.0263405453e+02   6.0912496587e+01    0.4425266    0.2139272 -57.62  0.001317284    1.703    0.413
       144  -9.8537     17.0686     61.0054   9.9760259119e+01   6.2856807830e+01     0.771392    0.2388259 -54.78  0.003269602    2.488    0.598
       145 -10.8506     21.7411     53.3470   9.5413214014e+01   6.4055149946e+01    0.7594365    0.4991231 -86.25  0.002808352    3.254    0.693
       146 -10.0102     13.0212     45.4667   9.7001764996e+01   6.6293670903e+01    0.6969862    0.3210671 -11.40  0.002199672    2.892    0.654
       147 -10.2234      4.9173     41.7605   9.9802847692e+01   6.7548938632e+01    0.6841896    0.3234195 -57.97  0.002840756    1.939    0.484
       148  -9.5789      6.7886     32.6528   9.5789696812e+01   6.9137346071e+01    0.2899878    0.1759003 -21.35 0.0008303293    1.448    0.309
       149 -10.0345      7.2569     28.1313   9.3859527580e+01   6.9910146007e+01    0.2956253    0.2545916  35.45  0.001095542    1.674    0.403
       150  -8.3913    169.5807     70.5478   5.4084032187e+01   3.3160558705e+01    0.3442327    0.1484797 -30.56  0.000957428    2.649    0.622
       151  -8.3734    170.8442     64.8406   5.2260585886e+01   3.3775746451e+01    0.2755911     0.165452 -43.58 0.0005136579    1.656    0.396
       152  -9.4904    146.9683     68.5757   5.8126722722e+01   3.8925371186e+01    0.6312739    0.2783725 -40.91  0.001634249    2.284    0.562
       153  -7.9976    156.3895     70.0307   5.6543947714e+01   3.6420736544e+01     0.208677    0.1836298 -42.14 0.0005595638    1.149    0.130
       154  -9.7576     94.7979     68.3187   7.1973043254e+01   5.0607497850e+01    0.9752076    0.2617114 -41.50 0.0007853654    3.717    0.731
       155  -8.0837     95.3160     61.3271   6.9425948306e+01   5.1760897325e+01    0.2793408    0.2057392  13.31 0.0008714845    1.552    0.356
       156  -8.9888     98.0283     57.4672   6.7240025604e+01   5.1865690613e+01     0.532747    0.3846011   2.95  0.002524736    1.686    0.407
       157  -9.3050    138.1535     66.4117   5.9465770586e+01   4.1385411212e+01    0.3308457    0.2566164 -55.99 0.0006132417    1.442    0.306
       158  -9.1234    121.1564     65.9203   6.3527454955e+01   4.5411238437e+01    0.3747746    0.2507703 -51.62 0.0005879586    1.731    0.422
       159  -8.1192    122.0441     61.4381   6.1835858500e+01   4.5962327314e+01    0.2979923    0.2054241  17.07 0.0009907359    1.914    0.477
       160  -9.9914     62.5156     60.7924   8.0687671613e+01   5.7724358254e+01     0.589762    0.2648734  34.94  0.002529079    2.282    0.562
       161  -8.0978    157.7822     63.1073   5.4244502365e+01   3.7209773602e+01    0.2284132    0.1891205 -68.35 0.0006260021    1.315    0.240
       162  -9.8932     73.1860     59.2953   7.6181251806e+01   5.6266326443e+01    0.5048701    0.2694736 -50.32 0.0008875855    2.225    0.551
       163  -9.4826     75.2340     50.7634   7.2332999391e+01   5.7393806985e+01    0.7265273    0.3966881  16.48  0.002867993    2.860    0.650
       164  -8.0822    164.6711     60.0200   5.2032680727e+01   3.6019738630e+01    0.2022543     0.180068 -42.68 0.0007884079    1.144    0.126
       165  -7.4625    152.4283     60.2521   5.4477968167e+01   3.8954825726e+01    0.2015386    0.1329052 -47.50 0.0009335335    1.597    0.374
       166  -8.6704    146.3330     58.9654   5.5356326908e+01   4.0628329496e+01    0.2531056    0.2170721 -61.74 0.0006061101    1.259    0.205
       167  -8.6004    147.5881     53.6262   5.3465386577e+01   4.1133364148e+01    0.4326793    0.2051628 -27.26  0.001697105    2.472    0.595
       168  -9.3390     87.9250     56.3810   7.0052758385e+01   5.4076436716e+01    0.7654507    0.3842843 -27.30  0.002128863    2.333    0.571
       169 -10.2388     85.1266     48.0224   6.7911173245e+01   5.5987480166e+01    0.4347338    0.3108467 -55.96 0.0009794972    1.943    0.485
       170 -10.3314     90.4988     38.0216   6.2399331758e+01   5.6385832900e+01    0.9794807    0.3523306  35.51  0.003255946    3.663    0.727
       171  -7.8890      9.5372     59.5064   1.0268513453e+02   6.3682779402e+01    0.1249065   0.09703381 -40.81 5.518526e-05    1.010    0.010
       172  -9.4897    138.8787     55.3169   5.5839138472e+01   4.2980133006e+01     0.682851       0.2625 -31.41  0.002196806    2.850    0.649
       173  -8.7155    142.0074     48.4985   5.3027986078e+01   4.3226317556e+01    0.2566796    0.1867101 -49.60 -0.0002141885    1.499    0.333
       174 -10.1716    181.5057    247.4882   9.0174471339e+01  -2.4600506502e+00    0.3215016    0.2022318  40.55  0.001842845    1.527    0.345
       175  -9.1231    139.6852     40.4182   5.0952374218e+01   4.4886871414e+01    0.4719537    0.3692203 -68.15  0.002262171    1.499    0.333
       176  -9.4309    130.1826     47.9198   5.5416038970e+01   4.6140906049e+01    0.5878979     0.266117 -27.08  0.001401881    2.567    0.610
       177  -9.1268    133.0601     35.8826   5.0840906818e+01   4.7060807298e+01    0.6366249    0.2377904 -33.72  0.002287098    2.748    0.636
       178 -10.1148    153.7341    245.4701   9.5450770511e+01   2.0310649635e+00    0.3280571    0.2436996  -0.21  0.001929783    1.586    0.370
       179  -9.4155    118.0445     55.0380   6.0747579174e+01   4.7900589140e+01    0.4173478    0.2946228 -40.41 0.0006970307    1.495    0.331
       180  -9.1165    121.1104     47.3307   5.7366621643e+01   4.8351694520e+01    0.4551164    0.2490181 -32.35 0.0008495488    1.924    0.480
       181  -9.8891     49.9663     54.4957   8.3464787375e+01   6.0721822917e+01    0.3795047    0.3098212 -63.42  0.001337523    1.682    0.405
       182 -10.0280     55.4093     43.9329   7.7268619043e+01   6.1810870224e+01    0.8818473    0.4575159  -0.57  0.002958517    4.558    0.781
       183  -8.4859    162.5353     54.0724   5.0717011475e+01   3.7430703527e+01    0.2127543    0.1389459 -37.03 0.0004460757    1.564    0.361
       184  -8.1230    152.6211     53.7308   5.2489597937e+01   3.9895554845e+01     0.193641    0.1301931 -45.17 0.0002714388    1.549    0.355
       185  -9.2253    112.1419     45.9041   5.9152595627e+01   5.0605307218e+01    0.6082534    0.3778931 -33.01  0.002188636    1.686    0.407
       186  -8.7255    105.4196     53.2061   6.3559855924e+01   5.0992029181e+01    0.3091643    0.2283642 -60.56 0.0007154893    1.832    0.454
       187  -8.0688    106.2181     48.7624   6.1766980613e+01   5.1501143962e+01    0.3275802    0.1805914  33.08  0.001398097    2.044    0.511
       188  -7.6322    172.3754     50.2396   4.7929310337e+01   3.5587754284e+01    0.1892951     0.123521 -46.24 0.0009186233    1.544    0.352
       189  -7.8568    167.4627     49.9846   4.8679833164e+01   3.6818005006e+01    0.2021997    0.1046982 -55.45 0.0003691551    2.374    0.579
       190  -8.6192    157.3722     49.0204   5.0186374609e+01   3.9415326916e+01    0.2015906    0.1831194 -50.03  0.001148995    1.134    0.118
       191  -9.2436    149.9635     47.1499   5.1020154218e+01   4.1483979762e+01    0.4590659    0.2027182 -29.92  0.001151317    2.478    0.596
       192  -7.2575    162.3133     45.7400   4.8347889220e+01   3.8662653470e+01    0.1399382    0.1039184 -77.25 0.0002123443    1.534    0.348
       193  -8.8225     39.7115     34.8388   8.0351231861e+01   6.5505917525e+01    0.3278944    0.2567301  20.10  0.001627592    1.260    0.206
       194  -9.9151     37.7807     42.1562   8.4154440827e+01   6.4513678196e+01    0.3565929    0.3047359  85.59  0.001499831    2.129    0.530
       195 -10.1200     35.9109     37.9759   8.3368894120e+01   6.5459548640e+01    0.4337329    0.2185912 -35.22 0.0003631935    1.782    0.439
       196  -7.4410    240.8354    240.5805   7.7964797010e+01  -9.6538572593e+00    0.1446693   0.09828228  33.11 0.0004191043    1.586    0.370
       197  -9.0762    188.1668    233.6925   8.6700509639e+01  -1.3398752279e+00    0.2216524    0.2016579  88.62 0.0009803963    1.714    0.416
       198  -8.9667    201.1911    228.2232   8.3224514313e+01  -2.4518323706e+00    0.2664383    0.2422688  87.42  0.001010084    1.818    0.450
       199 -10.3933    221.0621    222.1947   7.8387893427e+01  -4.4537125395e+00    0.2173127    0.1855592  -2.31 0.0002322392    1.121    0.108
       200  -9.6505     60.3200     33.8671   7.1213170671e+01   6.2607627968e+01    0.6138155    0.2578458 -36.10  0.002740594    2.365    0.577
       201  -9.0198    189.2604    222.5298   8.4624466508e+01   2.8327986880e-01     0.251749    0.2044118  28.02 0.0009942922    1.150    0.130
       202 -10.0192     76.1476     32.2761   6.4756751231e+01   6.0009021682e+01    0.4962994    0.3578647  50.65  0.001836236    1.499    0.333
       203  -8.7738    190.5831    218.0778   8.3589860173e+01   8.1105810227e-01     0.220779    0.1662285  22.69 0.0004576969    1.190    0.159
       204  -7.3362     56.1648    215.3785   1.1265186505e+02   2.2228496763e+01    0.2207744   0.08269538 -66.02 0.0009561754    2.586    0.613
       205  -8.9391     84.8445     21.8000   5.7662281660e+01   5.9570086638e+01    0.2713943    0.2289968  32.48 0.0007787314    1.034    0.033
       206  -8.7069     81.2915     39.7761   6.6025545183e+01   5.7976890790e+01    0.5333842    0.2132134 -28.00  0.002069348    2.878    0.653
       207  -9.1239    153.4215     40.4876   4.8364249410e+01   4.1534841503e+01    0.4023996    0.2096988 -36.97  0.001144751    1.974    0.493
       208  -8.1695    153.5786     34.7476   4.6615544524e+01   4.2220221459e+01    0.3315869    0.1677181 -56.18  0.001343948    2.621    0.618
       209  -9.1586    110.2957     33.1120   5.5067106455e+01   5.2729790012e+01    0.3359137    0.2430025 -49.43 0.0008841243    1.677    0.404
       210  -8.9725    104.9249     40.8472   5.9280782628e+01   5.2922334383e+01    0.4076779    0.2418562 -50.23  0.001093195    2.224    0.550
       211  -8.4637    106.3241     36.3319   5.7258411937e+01   5.3215235926e+01    0.3051065    0.1983218  24.31  0.001004039    1.770    0.435
       212  -8.3566    122.8662     40.3668   5.4579776385e+01   4.8903431018e+01    0.3640156    0.1972121  25.76  0.001410523    2.814    0.645
       213  -7.5779    164.5730     40.2215   4.6380287529e+01   3.8843595666e+01     0.170872    0.1378864 -14.46 0.0004650441    1.483    0.326
       214  -8.6922     53.4128     38.6874   7.5991506150e+01   6.2966696176e+01    0.2378368     0.117255 -42.73  0.001121416    2.123    0.529
       215  -8.8813    144.1046     36.4600   4.8843674729e+01   4.4319713539e+01    0.2462538    0.1775761 -52.48 0.0005979796    1.541    0.351
       216  -8.8390    118.8791     34.7483   5.3574817692e+01   5.0555360913e+01    0.2691858    0.1890647 -32.39  0.000795099    1.530    0.346
       217  -9.2200    102.8992     21.0638   5.2448005294e+01   5.5770512381e+01    0.3160288    0.2858782 -52.54  0.001052887    1.334    0.251
       218  -8.2903    191.1369    213.4597   8.2665031034e+01   1.4986635902e+00    0.2087448    0.1740204 -23.88 0.0002646165    1.195    0.163
       219  -8.7986     45.4887     15.8680   6.9248662953e+01   6.7397015579e+01    0.2041826    0.1680443  -4.23  0.001144938    1.118    0.105
       220  -7.7966    218.0294    210.3336   7.6826314154e+01  -2.1932396044e+00    0.1783847    0.1431756  16.72 0.0004241587    1.138    0.121
       221 -10.2105    158.1586    207.7006   8.8626475467e+01   8.0396833524e+00    0.2499747    0.2310732 -31.43 0.0004860948    1.155    0.135
       222  -8.2435     42.0158     28.2220   7.6479894663e+01   6.6225250990e+01    0.1797416    0.1325922  25.03 0.0004791084    1.302    0.232
       223 -10.1244    152.3393     28.6135   4.4984265614e+01   4.3249035041e+01     0.508615    0.2927648 -34.37  0.002493739    1.837    0.456
       224  -8.5516    230.3509     26.2130   3.4965939692e+01   2.5352215795e+01    0.2060513    0.1645154 -73.01 0.0003491444    1.049    0.047
       225  -8.5901    128.4589     25.9744   4.8495300202e+01   4.9323934213e+01    0.2767605    0.2027365 -59.07  0.000760244    1.654    0.395
       226  -7.3525    119.3479     27.3034   5.0869767366e+01   5.1328508344e+01    0.1459371   0.09263127  32.99 0.0007040395    1.694    0.410
       227  -8.9842     91.3950     26.0559   5.7459179611e+01   5.7719891311e+01    0.3191465    0.2157266 -42.35  0.001145969    1.781    0.439
       228  -8.4089     92.2772     20.9718   5.5191568736e+01   5.8102004583e+01     0.373508    0.1956535  30.68  0.001716867    2.101    0.524
       229  -8.6815    144.5267     25.2518   4.5274189670e+01   4.5528834823e+01    0.2839698    0.1388445 -24.16 0.0008169489    2.368    0.578
       230  -9.8833     10.7024    207.4097   1.2165093743e+02   2.8943807928e+01     0.540062    0.2636066  21.12  0.002773913    2.841    0.648
       231  -8.4405    110.0514    204.2171   9.9013822554e+01   1.6863164408e+01    0.2062218    0.1946971 -79.93 0.0003665303    1.110    0.099
       232  -9.0231    192.5006    194.9969   7.8974608920e+01   4.5038858298e+00    0.5891033     0.300541 -60.40  0.001906897    4.791    0.791
       233  -9.2333     42.5851    193.8148   1.1357870411e+02   2.8718548966e+01    0.2195897    0.1896668  79.67 0.0004932743    1.026    0.025
       234  -8.7524    180.5750    193.0882   8.1100835253e+01   6.9230129334e+00    0.2326964    0.1854872  22.79 0.0003168995    1.197    0.164
       235  -7.8947    223.0867    187.8621   7.1606628050e+01   6.6819917481e-01    0.1809812     0.167582 -18.53  0.001141018    1.211    0.174
       236  -7.6141    208.6045    184.1551   7.3621093642e+01   3.6931247948e+00    0.1918226    0.1183914 -26.20 0.0004219075    1.636    0.389
       237  -7.4019     89.3410    182.2775   1.0070760138e+02   2.5137917283e+01    0.1381916    0.1125283 -15.92  0.000386563    1.621    0.383
       238  -9.1037    111.7248     20.9023   5.0294925178e+01   5.3787926295e+01    0.3524299    0.1645109 -15.70  0.001487409    2.780    0.640
       239  -7.2721    108.0264    181.2418   9.5839521428e+01   2.2351922718e+01    0.1735957     0.120155  36.91 0.0002289519    1.418    0.295
       240  -8.9994     40.8667     20.4742   7.3484931598e+01   6.7487179367e+01    0.2826399    0.1595819 -34.21  0.001054789    1.744    0.427
       241  -8.7665     44.4022    178.1318   1.1145905461e+02   3.2221367058e+01    0.2099078    0.1990998  67.05 0.0003604805    1.154    0.134
       242  -7.0312    113.2942    177.6597   9.3891898820e+01   2.2281207912e+01    0.1513777    0.1135445  75.95 0.0007029339    1.655    0.396
       243  -7.6969    101.0221    176.0000   9.6715682039e+01   2.4752357993e+01    0.1670075    0.1543235  49.84 0.0009220383    1.061    0.057
       244  -8.3320    230.3728    169.3221   6.6556830992e+01   2.6091178954e+00    0.3497819    0.1120652 -42.99  0.001263189    3.031    0.670
       245  -7.2583    201.3813    170.4614   7.2240504379e+01   7.4481415687e+00    0.1413535    0.1272966 -19.20 5.169401e-05    1.041    0.040
       246  -7.9518    129.7965     21.4404   4.6718968509e+01   4.9489128121e+01    0.2375764    0.1254498  39.78 0.0008780957    2.010    0.503
       247  -8.6685    132.5222     17.1006   4.4781843482e+01   4.9272971998e+01    0.2217836    0.1697624  78.17 0.0004932401    1.304    0.233
       248  -7.2988    151.2508     20.6291   4.2762827426e+01   4.4386268039e+01    0.1348218   0.09320183 -61.77 0.0004842413    1.633    0.388
       249  -8.6573    133.6983    145.9903   8.2239309977e+01   2.5849804471e+01    0.7108026    0.1814661 -53.90  0.001632549    5.703    0.825
       250  -8.1158    139.6365     17.2769   4.3605687111e+01   4.7543084250e+01    0.1671248    0.1276934  -4.01 0.0008483034    1.599    0.375
       251  -8.0740    242.4476     21.0585   3.2906833799e+01   2.3449318363e+01    0.1720797    0.1354172 -81.78 0.0003172132    1.121    0.108
       252  -9.6766     66.9922    144.3642   1.0044018524e+02   3.7767290978e+01    0.5802378     0.368486  67.02    0.0020891    2.048    0.512
       253  -9.5172    236.0146    145.9091   6.0687252621e+01   5.6631722980e+00    0.3461265    0.1647476  33.36  0.001443844    2.773    0.639
       254  -9.7294    186.2812    139.7947   6.8534363988e+01   1.6332341192e+01    0.2712128    0.2451225 -43.02 0.0002972043    1.096    0.088
       255  -8.3402    191.4001    136.8780   6.6806144582e+01   1.5856133402e+01    0.2790591    0.2153876  32.94  0.000773131    1.390    0.281
       256  -7.6366    191.8012     11.4629   3.5187927121e+01   3.5604693285e+01    0.1694811    0.1025924  61.93   0.00046614    1.564    0.361
       257  -9.5568     67.1502    135.2995   9.8704501465e+01   4.0024508556e+01    0.4834152    0.2351443 -51.12   0.00200786    1.899    0.473
       258 -10.2380     71.2859    125.8492   9.5517469741e+01   4.1796555497e+01     0.654153    0.3940565 -79.98  0.001343871    2.356    0.575
       259  -9.8990     66.5661    128.1805   9.7468918456e+01   4.1888370438e+01    0.5626518    0.3553497 -43.70  0.002624854    1.579    0.367
       260  -8.7851    112.3959    133.8632   8.5151013319e+01   3.2863193994e+01    0.3874054    0.2626929  67.67  0.001384359    2.073    0.518
       261  -9.0226     83.5395    131.7526   9.3045534662e+01   3.8457143122e+01     0.674666    0.4077193  75.99  0.002412515    3.130    0.681
       262  -8.0649     55.5651    133.3311   1.0184539497e+02   4.2044921158e+01    0.2819791    0.1334132 -67.29  0.001138412    2.105    0.525
       263  -9.4672    130.1096     97.1706   7.0681287280e+01   3.7461794071e+01    0.5352634    0.3400746  23.35  0.001916928    2.182    0.542
       264 -10.9587    109.2959    101.1198   7.7620050261e+01   4.1026006162e+01     1.070755    0.8714796 -79.83  0.005123909    1.583    0.368
       265 -10.0991    139.4109    104.4381   7.0314175824e+01   3.3885199302e+01    0.6846486    0.3965376 -43.15  0.002088899    1.706    0.414
       266 -10.9312    131.8099    119.7471   7.6371888958e+01   3.2221612982e+01     1.575101    0.7790534 -64.22  0.004500134    4.153    0.759
