#   1 NUMBER                 Running object number                                     
#   2 MAG_AUTO               Kron-like elliptical aperture magnitude                    [mag]
#   3 X_IMAGE                Object position along x                                    [pixel]
#   4 Y_IMAGE                Object position along y                                    [pixel]
#   5 X_WORLD                Barycenter position along world x axis                     [deg]
#   6 Y_WORLD                Barycenter position along world y axis                     [deg]
#   7 A_WORLD                Profile RMS along major axis (world units)                 [deg]
#   8 B_WORLD                Profile RMS along minor axis (world units)                 [deg]
#   9 THETA_WORLD            Position angle (CCW/world-x)                               [deg]
#  10 FWHM_WORLD             FWHM assuming a gaussian core                              [deg]
#  11 ELONGATION             A_IMAGE/B_IMAGE                                           
#  12 ELLIPTICITY            1 - B_IMAGE/A_IMAGE                                       
         1 -12.4695     65.2841    108.6411   1.1809149666e+02   4.6988846501e+01      1.11994    0.7669324 -50.47  0.005640363    1.299    0.230
         2 -12.6863    153.3886     58.1907   7.9683004718e+01   3.9403555898e+01     1.118313    0.9420348 -34.60   0.00120478    1.269    0.212
         3 -13.1641    164.5040     43.4145   7.3373763635e+01   3.8838451444e+01     1.139274     1.027482   5.48  0.004052873    1.341    0.254
         4 -12.1088    177.7296     15.3085   6.3847348274e+01   3.8985106592e+01    0.7573909    0.3859043  79.60  0.002846192    1.958    0.489
         5 -13.1965    179.0698      9.3580   6.2177195008e+01   3.9269656364e+01     1.990599    0.8452529  69.32  0.008463739    1.992    0.498
         6  -9.2098    167.9626    242.7365   1.1807047979e+02  -7.1396593773e-01    0.1964051    0.1879725 -31.35 0.0005048623    1.199    0.166
         7  -8.6634    175.7612    250.6160   1.1772623372e+02  -3.3232084187e+00    0.1736297     0.103791  45.87 0.0002536842    1.519    0.342
         8 -14.3597     99.0720    245.5824   1.3210931617e+02   1.0342027601e+01    0.5456643    0.4772659  78.14  0.002165189    1.123    0.110
         9 -18.8790     64.1662    235.8179   1.3781678699e+02   1.7513408414e+01     5.234991      4.30515  70.70   0.02071923    1.083    0.077
        10  -8.4031      9.8887    221.1200   1.4668012678e+02   2.7139106134e+01    0.1307239     0.106555  88.50            0    1.220    0.180
        11 -11.2616    204.3386    176.8987   9.8657009491e+01   4.7197740381e+00    0.5144267    0.3969557 -68.06  0.002236547    1.690    0.408
        12 -10.9008    203.5800    168.5871   9.7052673111e+01   6.5013555581e+00    0.7078323    0.5173188 -41.98  0.003061771    1.332    0.249
        13  -9.4369    198.9267    179.1014   1.0021015663e+02   5.3519377689e+00    0.4167968    0.2836342 -74.18  0.001556221    2.487    0.598
        14 -11.5108    194.9074    169.1802   9.8945612270e+01   8.1378788529e+00    0.5140069     0.391401 -42.03 0.0008665654    1.293    0.226
        15 -10.3760    192.0620    164.9212   9.8618284766e+01   9.5913817070e+00    0.4284252    0.3380918  25.79  0.001533072    1.406    0.289
        16 -11.2587    137.3926    172.0217   1.1239553577e+02   1.9341176478e+01    0.7582115    0.4637556  64.28  0.002655998    2.126    0.530
        17 -10.3555    125.9230    173.0003   1.1533019777e+02   2.1360937577e+01    0.4692208    0.3377217  81.30  0.002121491    1.750    0.429
        18 -10.5178     25.4583    165.9111   1.3866365045e+02   3.7929917226e+01     0.454858    0.2753992 -34.37  0.002316108    2.551    0.608
        19  -9.9844    142.1177    166.8525   1.1022202729e+02   1.9578096895e+01     0.379766     0.248547 -54.59  0.001140944    1.552    0.356
        20  -9.3493    117.5927    203.3920   1.2258266184e+02   1.5970252077e+01    0.5185707    0.3039312  83.65  0.002008599    2.868    0.651
        21  -9.0505    150.5038    244.2860   1.2177625492e+02   2.0161611679e+00    0.2166082    0.1967023   4.38 0.0005277682    1.292    0.226
        22  -8.5614    121.5114    199.8316   1.2113192833e+02   1.6053623482e+01    0.1976977    0.1403071 -59.80 0.0006125027    1.453    0.312
        23 -10.5398    169.6728    196.3065   1.0980960766e+02   7.6512954518e+00    0.4979363    0.2448656 -60.23  0.001816958    2.972    0.663
        24  -9.2155    188.9441    159.1328   9.8003463446e+01   1.1441007396e+01      0.33344    0.2003447  29.95  0.001349079    2.096    0.523
        25  -7.9543    121.3185    158.2981   1.1352513402e+02   2.5723579205e+01    0.1499367     0.123881 -11.82 0.0004516717    1.615    0.381
        26 -11.3391    107.0901    156.8342   1.1682619843e+02   2.8749172821e+01    0.9628031    0.3478808  35.98 0.0007423519    3.180    0.685
        27 -11.9727    109.6136    151.5111   1.1509361353e+02   2.9571053999e+01    0.7115375    0.6454152 -40.32  0.001432391    1.188    0.158
        28 -10.4556    170.2945    184.0341   1.0728680818e+02   1.0064648421e+01    0.4799682    0.3713622  60.77  0.001600221    1.429    0.300
        29 -11.3823    172.7802    189.4032   1.0780756255e+02   8.4540216187e+00    0.5146165    0.4310134  -4.99  0.001866648    1.410    0.291
        30 -11.2950    133.9200    146.4808   1.0781723301e+02   2.5992090844e+01     1.343876     0.372989 -55.15  0.003314389    4.916    0.797
        31 -10.0198    175.8390    187.0294   1.0667787669e+02   8.3357436019e+00    0.4182379    0.2822498 -63.46  0.001397566    1.872    0.466
        32 -10.1674    180.3188    193.7722   1.0704355391e+02   6.0916379585e+00    0.3213022    0.2510452 -79.82  0.001323086    1.751    0.429
        33  -8.1749    176.7865    155.6095   9.9829600991e+01   1.4780639165e+01    0.2044207    0.1456697  57.91 0.0003885386    1.538    0.350
        34 -10.2215    220.7407    146.7896   8.8984832968e+01   7.2986667925e+00    0.2373578    0.2332243 -52.20 0.0003811368    1.066    0.062
        35  -9.9183    143.3201    145.5182   1.0528085240e+02   2.4245202935e+01     0.520482    0.2305014 -61.10  0.001564339    3.455    0.711
        36 -10.0973    154.0010    193.7938   1.1277388143e+02   1.1227783557e+01    0.3578752    0.1986221 -44.71  0.001535259    1.921    0.479
        37  -8.9046    174.1582    151.9449   9.9582215196e+01   1.6139873237e+01     0.230368    0.2046211 -82.07 0.0003362513    1.236    0.191
        38 -10.0307    106.9525    142.2870   1.1382793658e+02   3.2284771000e+01    0.2768693    0.2090361 -45.70 0.0002188037    1.329    0.247
        39 -10.3528     44.3592    130.2228   1.2869866294e+02   4.4496819436e+01    0.2297111    0.1841824 -74.40  0.000660611    1.141    0.123
        40 -11.4048     44.2588    136.7748   1.2984997531e+02   4.2939962300e+01    0.5825403      0.46327  24.89  0.003235253    1.528    0.345
        41  -9.4904      4.8981    138.8846   1.4051604392e+02   4.5966625515e+01    0.2564787    0.1235249 -67.90  0.001368699    1.566    0.361
        42 -11.2079    116.7018    137.1017   1.1009275675e+02   3.1668828328e+01    0.5243515    0.3240888 -45.90  0.001745921    1.603    0.376
        43 -11.2706    106.8650    136.6016   1.1259310072e+02   3.3662903304e+01    0.3155697    0.2978666  53.16  0.000639201    1.099    0.090
        44  -9.1778    160.3251    128.2471   9.7109307594e+01   2.4390797391e+01     0.411646    0.2413988 -57.53  0.001611407    1.948    0.487
        45 -10.7044    120.6561    128.5829   1.0704297445e+02   3.2881234012e+01     0.318132    0.2560893 -26.05  0.000761205    1.450    0.310
        46 -10.2676    109.4898    124.4606   1.0904467678e+02   3.6031898552e+01    0.3051766    0.2735369 -45.10 0.0005769197    1.095    0.087
        47 -10.9682    135.1056    122.1407   1.0170227879e+02   3.1336316007e+01     0.754454    0.1995221 -47.84  0.002072017    3.790    0.736
        48 -11.9137    187.6016    239.4083   1.1366208084e+02  -3.5084915417e+00     0.830141     0.260939 -46.62  0.000860359    3.719    0.731
        49 -10.3335    165.6783    188.9610   1.0927117194e+02   9.9519420207e+00    0.3265544    0.2923182  21.22  0.001174956    1.177    0.150
        50  -8.2361    167.6293    113.3256   9.1704607946e+01   2.5892309648e+01    0.1677176    0.1230894 -84.73 0.0007032688    1.814    0.449
        51 -11.8170    247.5188    236.3091   1.0187928915e+02  -1.2432145465e+01    0.2173845    0.1886851   9.94 0.0002589161    1.176    0.150
        52  -9.1637    239.2661    128.5063   8.1749862890e+01   7.0115985496e+00    0.2075369    0.1992151  19.29 0.0005888021    1.183    0.155
        53  -8.7224      6.2203    120.6305   1.3785410101e+02   5.0058379676e+01      0.14422    0.1101919 -15.30 0.0007668337    1.692    0.409
        54  -8.7765    113.4564     95.4479   1.0033813536e+02   4.1661299284e+01    0.1474098    0.1436612 -19.31 8.285504e-05    1.010    0.009
        55  -8.2534    134.2543     85.9800   9.2133572988e+01   3.9090937785e+01     0.195944      0.12915 -41.25 0.0008769218    1.531    0.347
        56  -8.8831    142.0047     83.9914   8.9667960545e+01   3.7701312981e+01    0.2067311    0.2051381 -84.75 0.0004387794    1.016    0.016
        57  -8.7333    179.1669     82.8790   8.1371045788e+01   2.9041568778e+01    0.2143167    0.1897751 -79.99 0.0002482301    1.126    0.112
        58  -9.5750    114.1073    118.2280   1.0624181902e+02   3.6568332090e+01    0.2582883    0.2218851 -68.93 0.0003872098    1.225    0.184
        59 -10.7524    175.7546    231.2367   1.1469257899e+02  -9.0300540502e-02    0.3434714    0.2247998 -27.54  0.001745297    1.932    0.482
        60  -9.7465    235.0261     72.9890   7.0057590494e+01   1.7650729278e+01     0.220864     0.183663  77.27 0.0003378997    1.210    0.174
        61  -8.5706    121.0249     67.2514   8.9921055750e+01   4.5394523309e+01    0.1941111    0.1762979  40.32 0.0002144708    1.063    0.060
        62  -9.9000    133.7146    246.5753   1.2542859289e+02   4.4682401490e+00    0.2502348    0.1960612 -49.72 0.0005598534    1.519    0.342
        63  -8.5686    137.3891    244.5456   1.2442676220e+02   4.2121105627e+00    0.2080755    0.1620676 -38.54 0.0005883645    1.624    0.384
        64 -11.4907    168.7273     35.1673   7.0393176247e+01   3.8883016498e+01    0.3710161    0.3561429  68.28 0.0008149906    1.117    0.105
        65 -10.5324    133.0333     44.5066   7.9917929473e+01   4.6169043721e+01    0.2282593    0.2067732 -19.67 -2.353789e-05    1.195    0.163
        66  -9.2751    228.1534     24.1808   6.0232633318e+01   2.6197421665e+01    0.2812507    0.1793086 -35.28  0.000877341    1.740    0.425
        67  -9.0000    159.8721    246.9618   1.2030248380e+02  -4.6368787093e-02    0.2699152    0.1647594 -41.57  0.001164037    1.962    0.490
