#   1 NUMBER                 Running object number                                     
#   2 MAG_AUTO               Kron-like elliptical aperture magnitude                    [mag]
#   3 X_IMAGE                Object position along x                                    [pixel]
#   4 Y_IMAGE                Object position along y                                    [pixel]
#   5 X_WORLD                Barycenter position along world x axis                     [deg]
#   6 Y_WORLD                Barycenter position along world y axis                     [deg]
#   7 A_WORLD                Profile RMS along major axis (world units)                 [deg]
#   8 B_WORLD                Profile RMS along minor axis (world units)                 [deg]
#   9 THETA_WORLD            Position angle (CCW/world-x)                               [deg]
#  10 FWHM_WORLD             FWHM assuming a gaussian core                              [deg]
#  11 ELONGATION             A_IMAGE/B_IMAGE                                           
#  12 ELLIPTICITY            1 - B_IMAGE/A_IMAGE                                       
         1 -15.4784      6.2158     69.2646   1.1620470892e+02   6.1039614393e+01      2.04245    0.9724839 -64.10  0.007641832    1.572    0.364
         2 -12.9558    120.4753     26.0257   6.1810294460e+01   5.2052700433e+01    0.9919484    0.5511118  37.15  0.004408694    1.872    0.466
         3 -13.1663    131.7340     32.7289   6.1721987609e+01   4.8493768772e+01    0.7748309    0.4835438 -24.12  0.003550351    1.686    0.407
         4 -13.2809    139.2475     22.1573   5.6288432530e+01   4.7924727360e+01    0.8238751    0.4123976  57.58  0.001217402    1.807    0.446
         5 -14.6286    121.1112     37.5950   6.6061111275e+01   5.0369828581e+01     1.559533    0.6909942  51.32  0.006228573    2.130    0.531
         6 -14.8098    166.6635     30.1284   5.4027956690e+01   3.9924883231e+01     1.222492     1.081576  83.86  0.004051739    1.122    0.108
         7 -14.8530    147.6006     30.3109   5.7529702859e+01   4.4834567579e+01     1.504409    0.9328632  59.74  0.004655334    1.521    0.342
         8 -12.5862    232.4454      2.3842   3.8634579636e+01   2.6336169411e+01     1.329775    0.2246712  69.23   0.00424461    4.534    0.779
         9 -15.6212    211.9788     41.0476   5.0597822185e+01   2.6758617829e+01     2.840647     1.388632  68.47     0.009862    2.077    0.518
        10 -13.4212    223.8865     20.9632   4.3953646384e+01   2.6341074652e+01    0.8869737    0.6273653  47.89  0.004065404    1.652    0.395
        11 -14.2888    218.8807     14.7427   4.2859440120e+01   2.8283456270e+01      1.24465    0.7691399  20.41   0.00549744    2.809    0.644
        12 -13.8753    214.9579      9.9342   4.1999224962e+01   2.9778318866e+01    0.6423507    0.5586039  47.12 0.0005162805    1.340    0.254
        13 -13.0185      7.9368      2.6507   9.4008499157e+01   7.3691937368e+01     0.554027    0.4025584  31.19  0.002381368    1.869    0.465
        14 -14.9653      6.5684     28.9048   1.0572958678e+02   6.9303060638e+01    0.9727958    0.7210711  22.83  0.006990923    1.685    0.406
        15 -15.4135     14.1888     19.8654   9.8560569926e+01   7.0412029193e+01     1.167952    0.7368264 -40.05  0.007731223    1.221    0.181
        16 -14.3349     23.7433     13.8828   9.1075714355e+01   7.0552212436e+01    0.6488341    0.3680052  26.17   0.00226388    1.917    0.478
        17 -14.7102     42.2384      6.5265   7.8555039368e+01   6.9391065198e+01     1.752097    0.9977933   3.08  0.009367025    2.072    0.517
        18 -12.7179     71.8308     16.8848   7.2009843042e+01   6.3373952551e+01    0.5447091    0.2869746 -31.11  0.002753563    1.825    0.452
        19 -14.0614    188.7476     14.3988   4.6043323603e+01   3.5964308089e+01     1.139488    0.7703491 -66.47  0.005728353    1.563    0.360
        20 -13.5812      2.7968     12.2862   1.0138682396e+02   7.2506513967e+01    0.8649744    0.3401347 -53.70  0.004607623    2.259    0.557
        21 -11.9479     47.0950     21.1674   8.3661096921e+01   6.6686478532e+01    0.4008422    0.3049927   6.89   0.00216606    1.234    0.190
        22 -15.3962     97.9082     12.4596   6.1963626228e+01   5.8706659506e+01     1.696178     0.794384  51.54  0.004111784    1.935    0.483
        23 -11.3070     60.1703     17.1473   7.6432298460e+01   6.5321628233e+01    0.3064782      0.16443 -31.22  0.001604764    1.725    0.420
        24 -15.2861    190.5271     25.5139   4.9048601408e+01   3.4246947419e+01     2.450965      1.18856  74.49   0.01003853    2.136    0.532
        25 -12.0745    153.3699      8.9992   4.9210939563e+01   4.5690868135e+01    0.3658099    0.2969239  58.61  0.001278808    1.118    0.105
        26 -11.0519     58.9159      6.4220   7.1619665167e+01   6.6856589833e+01    0.2304439    0.2037679  72.90  0.001495765    1.830    0.454
        27 -10.9122    160.8168      5.9555   4.7104486524e+01   4.4052982307e+01    0.2220941    0.1705989  41.66 0.0008730399    1.330    0.248
        28 -10.9127     68.2999      4.8456   6.7420419086e+01   6.5396892022e+01    0.2725363    0.1351237 -35.61  0.001351155    2.221    0.550
        29 -11.8671    182.8842      2.7481   4.3339488254e+01   3.8637712038e+01    0.4314446    0.2472633 -69.81  0.001987407    1.983    0.496
        30 -11.7007    119.9573      3.7638   5.3196889646e+01   5.4489853893e+01    0.4206939    0.1908725  67.50   0.00178617    2.239    0.553
        31 -11.5614    116.9514      1.4751   5.2892892992e+01   5.5396011702e+01    0.3274053     0.192187  65.24 0.0006888193    1.634    0.388
        32 -11.8628     78.2154      2.3812   6.2985958156e+01   6.3768032478e+01    0.3218189    0.2436515  35.11  0.001291095    1.164    0.141
        33 -10.9565     83.0236      1.2338   6.1008578122e+01   6.2914022598e+01    0.2723206    0.1150178  55.72  0.001089652    2.279    0.561
        34 -10.8226    112.0325      1.5291   5.3936499490e+01   5.6546857693e+01    0.2782173    0.1885111  65.82   0.00142941    1.469    0.319
        35 -11.8437     61.5110      1.9337   6.8340672494e+01   6.6901322738e+01    0.3606873    0.2012966  48.86   0.00142559    1.868    0.465
        36 -10.7570     28.0623      1.6808   8.2638743492e+01   7.1835663076e+01    0.1622894    0.1243492   0.77   0.00115668    1.108    0.098
        37 -10.5681     53.8925      1.2923   7.0883343463e+01   6.8246485104e+01    0.1586443   0.09033307  33.47 0.0008916447    1.620    0.383
        38 -10.9665     88.3043    140.1849   1.0476838283e+02   3.5551395751e+01    0.2248425     0.170098 -47.05  0.001017159    1.409    0.290
        39 -12.9865    107.7733    246.4347   1.1491043931e+02   1.0889353563e+01    0.7184875    0.4612372  87.86  0.004461009    1.882    0.469
        40 -14.0827     96.8662    238.9800   1.1613384513e+02   1.3746429291e+01     0.767673    0.5523275  56.17  0.003853937    1.076    0.070
        41 -12.9118     57.4593    246.7783   1.2360055651e+02   1.7831654781e+01    0.7238643    0.3566458  35.60   0.00418336    2.305    0.566
        42 -13.4014     28.3502    246.1125   1.2828173228e+02   2.1407031546e+01    0.6351642    0.2948444  77.15  0.004015554    1.867    0.464
        43 -11.9696      2.7780    249.6760   1.3234069105e+02   2.3469780918e+01    0.2796178     0.154714  61.17  0.001751936    1.228    0.186
        44 -13.6795      8.9906    245.6938   1.3125862819e+02   2.3525993995e+01    0.6806639    0.3064709  59.99  0.003178514    1.552    0.356
        45 -12.1757     44.4765    132.9850   1.1505780379e+02   4.3184132047e+01    0.3075384    0.2688723 -85.37  0.001442562    1.068    0.064
        46 -12.1606    245.6794    134.5510   6.9129416563e+01   4.3878076290e+00    0.3085454     0.194425 -60.06  0.001342041    2.546    0.607
        47 -10.4833     10.8044    134.3299   1.2380962468e+02   4.5970150701e+01    0.1282594    0.1140696   9.71 0.0008136677    1.588    0.370
        48 -12.6842    222.3945    127.8555   7.1514541598e+01   1.0255047545e+01    0.3503774    0.2460052 -57.06  0.001641067    1.775    0.437
        49 -11.1036     25.3735    127.1660   1.1929725178e+02   4.6438202464e+01    0.2210712    0.1895268 -55.12 0.0007967074    1.284    0.221
        50 -12.9043     28.6027    122.4828   1.1781733666e+02   4.7247890106e+01      0.39966    0.3095064 -65.75  0.002436008    1.129    0.114
        51 -12.7242    119.9665    102.5058   8.7615462111e+01   3.8467787681e+01    0.6944995    0.3312266  40.45  0.001894332    2.249    0.555
        52 -12.1630     77.0201    117.0486   1.0325667419e+02   4.2791118757e+01    0.7742956     0.426036 -59.99  0.003527531    1.672    0.402
        53 -13.0324     86.1205    113.6051   9.9902339111e+01   4.2189133190e+01     1.430824    0.9436187 -31.74  0.005775997    1.947    0.486
        54 -13.8608    105.9434    121.2909   9.6159325695e+01   3.6948342641e+01     1.271324     1.034189  37.92  0.004520911    1.320    0.242
        55 -14.5340    105.9637    106.2854   9.2483952942e+01   4.0399549203e+01     1.623539     1.299601  -4.33  0.007140905    1.660    0.397
        56 -12.3174    180.9682    121.1735   7.7905403818e+01   2.0798246743e+01    0.3967395    0.2611997  55.64  0.001727555    1.614    0.380
        57 -10.7387     60.2668    125.2026   1.0954711268e+02   4.3164552387e+01    0.2702709    0.1668918  12.07  0.001225956    2.692    0.629
        58 -14.2293     17.8888    111.0184   1.1921914566e+02   5.0813991812e+01     1.039526    0.7352738 -20.21   0.00636407    1.987    0.497
        59 -15.1507     18.9751     97.5536   1.1690811839e+02   5.3852860045e+01     1.955482     1.253979 -21.42   0.01120187    2.150    0.535
        60 -13.3090      2.2180     97.2210   1.2192749953e+02   5.5006316671e+01    0.7246115    0.1969121 -70.53  0.003099021    2.650    0.623
        61 -13.9965     91.0855    232.4060   1.1655083700e+02   1.5734016142e+01    0.6435607    0.3441464 -89.83  0.003360873    2.458    0.593
        62 -13.4877      5.9384     43.7788   1.1051468719e+02   6.6435475408e+01      0.81841    0.4438131  26.73  0.004974987    2.295    0.564
        63 -12.2638      4.8821    119.2584   1.2376709975e+02   4.9826851644e+01    0.5577888    0.3751584 -27.02  0.003496461    2.117    0.528
        64 -11.3375     45.8266    110.5319   1.1103877261e+02   4.8367578812e+01    0.3569925    0.2709583  88.40  0.002076462    1.365    0.267
        65 -12.3922     33.0992    110.8451   1.1482157686e+02   4.9575284731e+01    0.3747937    0.2068741 -83.22  0.001862584    1.900    0.474
        66 -10.6447    121.1569    112.2370   8.9868363730e+01   3.6056948211e+01    0.2513303    0.1772051  72.62  0.001077217    1.897    0.473
        67 -11.3391    176.2053    110.6189   7.6188049491e+01   2.3989511738e+01    0.3255574    0.2482584  16.60  0.001452987    1.665    0.400
        68 -11.9141    222.9772    109.5044   6.6940024350e+01   1.3279452702e+01    0.2466131    0.1937601 -33.82  0.001088941    1.191    0.161
        69 -11.2341     61.9823    110.5172   1.0626281500e+02   4.6445179466e+01    0.1947535    0.1369628  36.10  0.001037484    1.607    0.378
        70 -12.0139    136.2036    103.2702   8.3559701766e+01   3.4806896716e+01    0.6969455    0.2725107  48.45  0.002340911    2.632    0.620
        71 -12.3131     62.3999     99.5381   1.0376700131e+02   4.8979552884e+01    0.8219965    0.4491171  60.52  0.003406288    2.851    0.649
        72 -12.4365     49.1768     94.5241   1.0681603799e+02   5.1761154499e+01    0.4497493    0.4022331 -22.50  0.002469995    1.270    0.212
        73 -10.7571     48.6123    101.2027   1.0840313193e+02   5.0263437466e+01    0.3089346    0.2473377 -89.41   0.00122253    1.323    0.244
        74 -12.5448     52.5112     98.1357   1.0654429483e+02   5.0535750382e+01    0.6616589    0.3529123  18.19  0.002975091    2.729    0.634
        75 -12.5242    249.2327     99.4757   6.0391882892e+01   9.2276717343e+00    0.3551941    0.1506651 -36.78  0.001446137    2.047    0.511
        76 -12.2285    137.2825     95.4119   8.1073308922e+01   3.6223312346e+01    0.4461299    0.3554231  80.06  0.001343802    1.557    0.358
        77 -11.2463    125.3708     92.6645   8.3386115579e+01   3.9447892504e+01    0.3170373    0.2186533  76.98  0.001288179    2.188    0.543
        78 -11.7231     43.2687     91.0332   1.0796346082e+02   5.3211488907e+01    0.4228016    0.2157545 -69.29  0.001335972    1.968    0.492
        79 -12.0322     89.6812     88.2612   9.2391874816e+01   4.7410352079e+01    0.4903907    0.3413847  45.20  0.001922264    1.565    0.361
        80 -12.0057    149.7379     85.1500   7.4990886901e+01   3.5373717432e+01    0.5583487    0.3764767  26.26  0.002302755    1.939    0.484
        81 -12.9236    135.8032     79.8193   7.6788089274e+01   3.9715689627e+01    0.7737265    0.4120839  49.29  0.003072357    1.900    0.474
        82 -11.7859    126.8719     85.8004   8.0949280253e+01   4.0547990267e+01    0.4836345    0.4072219 -20.99  0.002404316    1.278    0.218
        83 -12.2012    132.2967     86.0149   7.9586541864e+01   3.9288018700e+01    0.3404479    0.3143322   1.57  0.001448678    1.157    0.136
        84 -11.1163     34.4509     86.8475   1.0997254002e+02   5.5041055297e+01    0.2119068     0.179994 -15.32 0.0008220447    1.391    0.281
        85 -13.4553    188.4458     84.4026   6.6512541970e+01   2.5920854347e+01    0.8470789    0.3715046  45.58   0.00239163    2.459    0.593
        86 -13.8166    237.3966     80.3199   5.7393218883e+01   1.4821447545e+01    0.7063432    0.4564664  84.08  0.003205806    2.110    0.526
        87 -13.5099    164.0081     71.4887   6.7630857134e+01   3.4373070013e+01     1.592001     0.521555  47.39  0.004894655    3.129    0.680
        88 -12.7976    160.3421     68.1100   6.7368877865e+01   3.5889092644e+01    0.8080225    0.4229851 -51.57  0.002277916    2.280    0.561
        89 -13.4073    160.6972     80.8967   7.1199925070e+01   3.3501267390e+01    0.9304543    0.6331602  20.75  0.002851012    2.083    0.520
        90 -14.4720    169.2906     77.3770   6.8298240841e+01   3.1993794417e+01     1.653926     0.632874  52.70  0.005573168    2.566    0.610
        91 -13.6949     80.6078     56.7977   8.5329653481e+01   5.5476902470e+01     1.984237     1.067041  26.89  0.008493631    2.371    0.578
        92 -13.6795     65.8347     48.9694   8.7709924901e+01   5.9323458343e+01     1.309633    0.5676523 -32.72   0.00530663    2.519    0.603
        93 -12.9113     91.0658     57.3947   8.2091495258e+01   5.3490405224e+01    0.7714503    0.4150259 -50.39  0.003288317    2.102    0.524
        94 -13.6502     73.8654     74.3202   9.3381264179e+01   5.3029819461e+01     1.333479    0.7341433  12.75  0.004921275    3.560    0.719
        95 -13.0123     87.6289     65.1712   8.5898165773e+01   5.2627420140e+01    0.5983797    0.4166349 -27.07  0.001125763    1.491    0.329
        96 -12.8822     55.0212     81.6137   1.0180976576e+02   5.4028601624e+01    0.5709619    0.4527094 -53.49  0.003360312    1.093    0.085
        97 -14.0633     60.9741     75.5986   9.8140512567e+01   5.4600971484e+01     1.355963    0.9673774 -89.53 0.0009905059    2.178    0.541
        98 -14.1404    214.0188     79.0152   6.0559368970e+01   2.0521627401e+01     1.102693    0.6633338  82.88    0.0043682    2.459    0.593
        99 -13.4814    216.9149     73.7931   5.8715705834e+01   2.0665609999e+01    0.7400784    0.4972842 -71.71  0.003289215    1.902    0.474
       100 -10.7377     90.2801     81.4544   9.0225269762e+01   4.8790588367e+01    0.2528308    0.1792834 -67.59  0.001182615    1.758    0.431
       101 -12.1042    114.2759     80.1769   8.2684494942e+01   4.4417244932e+01     0.407059    0.3167686 -51.61  0.001120686    1.311    0.237
       102 -10.6153     32.7116     80.9484   1.0928718553e+02   5.6541184945e+01    0.1864483    0.1355061 -60.41   0.00103786    1.136    0.119
       103 -11.3441     42.3268     77.0632   1.0502977905e+02   5.6483576351e+01    0.2347793    0.2215199 -12.67  0.001485404    1.197    0.165
       104 -14.3188    198.7484     69.5803   6.0487010144e+01   2.5850931093e+01     1.000822    0.8012607  24.94   0.00302837    1.509    0.337
       105 -12.4030    132.6738     68.6899   7.4037201975e+01   4.2557815257e+01     0.762733    0.4322661  19.95  0.000663002    3.569    0.720
       106 -13.0649    135.7272     66.7786   7.2640985959e+01   4.2185144077e+01    0.9391165    0.7902904 -69.71  0.002744507    1.397    0.284
       107 -12.4275    241.1378     71.1161   5.4598458680e+01   1.5391971635e+01    0.3537275    0.2370749  87.67  0.001693155    1.892    0.472
       108 -10.5151    100.9678     69.9864   8.3319127905e+01   4.9173203447e+01    0.2240758     0.182796 -77.75  0.001037082    1.624    0.384
       109 -12.2597     38.7984     68.1679   1.0399367095e+02   5.8798863536e+01    0.6449172    0.3409372  26.48  0.003322084    2.236    0.553
       110 -11.4933    100.2429     65.1398   8.1917075953e+01   5.0262542155e+01    0.3641979     0.286269 -20.12  0.001570551    1.328    0.247
       111 -14.0576    177.9778     57.7849   6.0689638952e+01   3.3067043442e+01    0.9516458    0.7471578 -45.19  0.002528808    1.272    0.214
       112 -13.4712    171.4291    243.0414   1.0306734514e+02   1.3082130947e+00    0.7939289    0.4142525  37.13  0.004389481    1.579    0.367
       113 -14.6216    119.7346     54.6722   7.2655714417e+01   4.8021054567e+01     1.053487    0.7556637  40.78  0.001918509    1.398    0.285
       114 -12.6499    135.4971     50.6524   6.7246516579e+01   4.4974793643e+01    0.6577327    0.3495078  38.49  0.002209228    2.110    0.526
       115 -11.8523     40.5434    243.6355   1.2618809608e+02   2.0439555465e+01     0.332531    0.1894222  87.96  0.002284821    1.555    0.357
       116 -12.1569    147.4063    239.2083   1.0694117268e+02   5.7843966358e+00    0.2241988    0.1625831  68.62 0.0008676503    1.593    0.372
       117 -12.7386    110.0040     42.1173   7.0715463129e+01   5.2221408957e+01    0.5160569    0.2444798  45.91  0.001323638    2.057    0.514
       118 -14.1050     23.2051    224.2677   1.2795537284e+02   2.5868761071e+01    0.9801342    0.6028717  83.56  0.006986856    1.273    0.215
       119 -12.1347     24.3288    150.9197   1.2223254314e+02   4.1047155173e+01    0.8041924    0.2706879 -76.81  0.003330101    2.641    0.621
       120 -13.2734      8.8209    210.8833   1.2969459360e+02   2.9856423150e+01    0.6643674    0.4859341  44.45  0.005113951    1.539    0.350
       121 -10.7591     38.8484     60.3255   1.0177111101e+02   6.0466264318e+01    0.2392125    0.1646268 -77.94  0.001275069    2.016    0.504
       122 -11.8839     24.4051     59.8172   1.0722291507e+02   6.1878788386e+01    0.3275608    0.1877122 -50.76  0.001875016    1.356    0.263
       123 -12.4071    247.8115     54.5179   4.9724434306e+01   1.6313959675e+01    0.5993972    0.2923339 -51.53  0.002620082    2.028    0.507
       124 -12.5126    249.3963     48.8919   4.8198152610e+01   1.6742183044e+01    0.4447417    0.3470683 -38.71  0.002310351    1.173    0.147
       125 -13.3329    103.2005     50.7455   7.5914478353e+01   5.2278108822e+01     0.757691    0.4314429 -51.17 0.0004893661    2.187    0.543
       126 -12.5841     97.9081     50.3427   7.7366774818e+01   5.3425934011e+01    0.8026955    0.3558194 -45.45  0.002546319    2.458    0.593
       127 -10.8946     23.4932     50.0147   1.0484968572e+02   6.3990954312e+01    0.3115685    0.1738331 -15.54  0.001434814    2.308    0.567
       128 -11.0773     26.7871     46.2276   1.0230861083e+02   6.4479529210e+01    0.2541461    0.2443122  33.70  0.001861074    1.359    0.264
       129 -12.7839     16.7467    195.6661   1.2740053222e+02   3.2099915251e+01    0.6143274    0.2594246 -67.83  0.002938759    2.144    0.534
       130 -13.5154     29.8759    169.4528   1.2275982718e+02   3.6347848383e+01    0.6492174    0.4457773 -50.06   0.00244141    1.851    0.460
       131 -15.6615      8.9631    179.4962   1.2785104515e+02   3.6170077372e+01     2.232155     1.141858 -70.36   0.01368205    1.692    0.409
       132 -13.3364     66.3981    223.4797   1.2026628577e+02   2.0826541525e+01    0.7459155    0.4955879  41.99  0.004814933    1.502    0.334
       133 -13.9204     62.9423    214.5281   1.2013400746e+02   2.2992658879e+01    0.9535403     0.444692  48.55  0.005219246    1.778    0.438
       134 -13.1056    158.6578     43.2283   5.9734713905e+01   4.0261329445e+01    0.6579602     0.532068  41.34   0.00335125    1.257    0.205
       135 -11.9016    169.7614     43.7820   5.7843832695e+01   3.7298817856e+01    0.3407082    0.2198205  61.42   0.00114392    1.500    0.333
       136 -11.2521     55.6095     41.1020   8.8618227983e+01   6.2230273388e+01    0.1817685    0.1665478  -3.70 0.0003319405    1.152    0.132
       137 -11.6297    104.5903     37.0416   7.0281936951e+01   5.4160588183e+01     0.310737    0.1329083 -32.08  0.001231476    2.313    0.568
       138 -12.4259     75.9750     37.4592   7.9553698122e+01   5.9677496786e+01    0.3393336    0.2380728  38.59  0.001076689    1.479    0.324
       139 -11.8513     69.5537     36.6227   8.1514209278e+01   6.0896198745e+01    0.4232104    0.2183298  31.86  0.001460195    2.119    0.528
       140 -13.3255    242.0736     35.0679   4.5629700498e+01   2.0259674659e+01    0.7568676    0.5434665  69.08  0.002790926    1.439    0.305
       141 -11.5611     58.3852     35.4471   8.5264026855e+01   6.2818935893e+01    0.4855869    0.2559457  29.93  0.002401516    2.076    0.518
       142 -12.7619     29.2868     32.2652   9.6302362880e+01   6.6905847783e+01    0.8770893    0.3490916  22.98   0.00382948    3.027    0.670
       143 -12.9198     94.5941    218.8311   1.1450918112e+02   1.7673022348e+01     0.396878    0.2319315  52.79  0.001737453    1.426    0.299
       144 -11.0302     85.4876    215.9904   1.1596516822e+02   1.9565781450e+01     0.254795     0.135747  55.52  0.001381626    1.620    0.383
       145 -11.0262    200.5233    215.4909   9.3573573833e+01   3.0662705698e-01    0.1288742    0.1065083  24.89 0.0001590579    1.024    0.024
       146 -11.3854    185.9755    214.0155   9.6060419865e+01   3.0535612288e+00     0.196011    0.1559123  69.67  0.001139207    1.707    0.414
       147 -12.1975     46.1223     33.8804   8.9598896980e+01   6.4748698197e+01    0.4815969    0.2685881 -30.92  0.002556226    1.631    0.387
       148 -11.6552    157.3312    213.5083   1.0151828124e+02   8.1970783991e+00     0.206927    0.1235173 -48.80  0.001083343    1.968    0.492
       149 -10.2175     89.4420     30.4301   7.2144471878e+01   5.8242249715e+01    0.1364425    0.1209952   5.71 2.025953e-05    1.004    0.004
       150 -11.1608    136.8303    211.3180   1.0525641751e+02   1.2165962032e+01    0.2080593    0.1739539 -84.36 0.0008651235    1.353    0.261
       151 -12.8401     56.5763     27.4515   8.2576151538e+01   6.4380029550e+01    0.5684354    0.2938753  42.52  0.001762734    2.200    0.545
       152 -12.7514     67.8833     24.5337   7.6932733849e+01   6.3029718106e+01    0.6613538    0.3421349  38.61  0.003282337    1.943    0.485
       153 -12.4620     41.8724    206.7419   1.2346490964e+02   2.7159533751e+01    0.3248581    0.1646668  74.31   0.00161099    1.860    0.462
       154 -10.9612     97.9712     27.1594   6.8198018592e+01   5.6949039782e+01    0.1991946    0.1924042  86.72   0.00118793    1.288    0.224
       155 -10.6391     80.2624    208.4191   1.1619620932e+02   2.1794565432e+01    0.1808477   0.09286005  52.07 0.0009470648    1.669    0.401
       156 -11.1029    150.1854    206.9142   1.0193410174e+02   1.0596370857e+01     0.311221    0.1701029  38.53  0.001242379    1.669    0.401
       157 -13.0552     40.5124    195.2507   1.2280835582e+02   2.9655611875e+01    0.4582856    0.2174221  85.96  0.002264505    2.155    0.536
       158 -13.2210     22.3395    181.2701   1.2531433445e+02   3.4544423834e+01    0.4549885    0.3577126 -86.84  0.002199961    1.148    0.129
       159 -12.0536    164.0666    195.7389   9.7317868268e+01   1.0032745572e+01    0.3268407    0.2216051 -79.93  0.001502087    2.528    0.604
       160 -12.3973    201.0768    191.8317   8.9281981389e+01   3.7726974618e+00    0.3390449    0.2831627  16.53  0.001620008    1.122    0.109
       161 -11.7404     49.1194    181.4306   1.1979188916e+02   3.1571803613e+01    0.3783844    0.2261867 -57.24  0.002141737    1.829    0.453
       162 -12.2106    198.4525    181.6255   8.7836579217e+01   5.9234084851e+00    0.2849266    0.2613266  42.51  0.001454955    1.156    0.135
       163 -11.9231    124.5972    167.8016   1.0096267371e+02   2.2952012841e+01    0.4133349    0.2497154 -58.59  0.001927428    1.744    0.427
       164 -10.9222    177.4827    167.4893   8.9246447679e+01   1.2573072602e+01    0.1445156    0.1357106  30.22 3.115415e-05    1.001    0.001
       165 -11.7264     77.3459    156.9404   1.1032730221e+02   3.3316743596e+01    0.4166196    0.2613967  41.05  0.001457689    1.643    0.391
       166 -12.7483     73.8537    153.4465   1.1064610855e+02   3.4633294542e+01    0.6205568    0.4480576  35.58  0.003018079    1.564    0.360
       167 -11.4482    103.1593    150.3131   1.0288850291e+02   3.0710140383e+01    0.3456826    0.2447633 -38.61  0.001684464    1.727    0.421
       168 -11.8961      6.3339    147.6343   1.2606881423e+02   4.3306843465e+01    0.3931581    0.2352425  73.84  0.002450079    1.494    0.330
       169 -11.2239     85.9089    152.8818   1.0759460800e+02   3.2960604341e+01    0.3536319    0.1735718 -51.26  0.001539367    2.085    0.520
       170 -12.4428     57.1895    203.1402   1.2022021004e+02   2.6003008549e+01    0.7912557     0.292462 -74.14  0.003614071    2.751    0.636
       171 -11.9546    154.6477     46.6801   6.1670215852e+01   4.0791397806e+01    0.4073188     0.228657  46.02  0.001701162    1.790    0.441
       172 -11.3461    148.5060    140.9731   8.9962819730e+01   2.3973660732e+01    0.2399417    0.1505324 -47.30  0.001042349    1.619    0.382
