#   1 NUMBER                 Running object number                                     
#   2 MAG_AUTO               Kron-like elliptical aperture magnitude                    [mag]
#   3 X_IMAGE                Object position along x                                    [pixel]
#   4 Y_IMAGE                Object position along y                                    [pixel]
#   5 X_WORLD                Barycenter position along world x axis                     [deg]
#   6 Y_WORLD                Barycenter position along world y axis                     [deg]
#   7 A_WORLD                Profile RMS along major axis (world units)                 [deg]
#   8 B_WORLD                Profile RMS along minor axis (world units)                 [deg]
#   9 THETA_WORLD            Position angle (CCW/world-x)                               [deg]
#  10 FWHM_WORLD             FWHM assuming a gaussian core                              [deg]
#  11 ELONGATION             A_IMAGE/B_IMAGE                                           
#  12 ELLIPTICITY            1 - B_IMAGE/A_IMAGE                                       
         1 -11.2638    142.6486     46.3102   8.1354612835e+01   4.3541479633e+01    0.3466066    0.2975107 -55.22 0.0009626774    1.275    0.216
         2 -11.3125      9.0555     26.0062   1.2129048102e+02   6.9818570037e+01    0.5010669    0.1770538 -38.19   0.00223672    2.370    0.578
         3 -11.0277     23.8660     21.2145   1.1195208644e+02   6.9406763999e+01    0.3575955    0.1617598 -37.48  0.001041439    1.868    0.465
         4 -10.9904     75.1123      5.6943   8.3254449506e+01   6.3775389027e+01    0.6038214    0.3015469 -26.48   0.00306944    2.055    0.513
         5 -11.1230     75.3988     17.2410   8.8424974312e+01   6.2459967782e+01    0.5427867    0.2808096   0.32  0.002174056    3.253    0.693
         6 -10.6765     79.4836     10.4624   8.4051669559e+01   6.2429682467e+01    0.3349272    0.2088086  32.12  0.001437454    1.481    0.325
         7 -11.6530     81.3728      6.0634   8.1481972788e+01   6.2493185332e+01    0.2377372    0.1891402  21.33 0.0002284923    1.112    0.101
         8 -10.2419     20.1065     15.7040   1.1145781388e+02   7.0649482240e+01     0.206313    0.1785687 -36.03 0.0004368746    1.355    0.262
         9 -11.6886    130.7786     15.0421   7.3075302507e+01   5.0353700255e+01    0.4646587    0.3322329  82.82  0.002110851    1.573    0.364
        10 -12.2587     26.0166     13.5874   1.0746720906e+02   7.0372549782e+01    0.2592774    0.1701581 -17.65 0.0003468497    1.338    0.253
        11 -10.8054    133.2754     11.3514   7.1287752360e+01   5.0091238227e+01    0.2131895    0.1634384  60.16 0.0002997657    1.148    0.129
        12 -10.1870     99.4102     13.4642   7.9612700683e+01   5.7924431920e+01    0.2547022    0.1944089 -40.09  0.001138366    1.540    0.351
        13  -9.7152    119.7117     11.9187   7.4194986833e+01   5.3370154956e+01    0.2053279    0.1615632  38.62 0.0003255559    1.177    0.150
        14  -9.4521    122.2347      8.9788   7.2571290197e+01   5.3035506033e+01    0.1804865    0.1208101 -36.61 0.0004319955    1.686    0.407
        15 -10.6652     61.3845     11.0492   9.0576895387e+01   6.5723515548e+01    0.3308678    0.2459674  72.95  0.001235039    2.490    0.598
        16  -9.9767     23.2958      9.2627   1.0678745608e+02   7.1296950266e+01    0.1947609    0.1347051 -12.71 0.0006241999    1.223    0.183
        17  -9.6624     37.1108      8.4825   9.9562260286e+01   6.9748825288e+01     0.156123    0.1021646  26.29 0.0003382469    1.447    0.309
        18  -9.8711      9.5337      7.3941   1.1336496094e+02   7.2869047006e+01    0.2947035     0.133978 -14.41  0.001420603    3.052    0.672
        19  -9.1887    155.7008      6.3267   6.5928074686e+01   4.4843949283e+01     0.140001   0.09688211 -66.74 0.0002368954    1.635    0.389
        20  -9.9055     15.0548      6.0098   1.0960492499e+02   7.2592068686e+01    0.2194811    0.1303647  39.26  0.001341164    2.376    0.579
        21 -10.3563    115.1507      4.6842   7.2402458004e+01   5.5119721407e+01    0.2427414    0.1935551   0.64  0.001425475    1.372    0.271
        22  -8.9402     58.3461      5.3085   8.8933855932e+01   6.6888638749e+01    0.1309301   0.07892604  17.42 0.0006794228    1.702    0.412
        23 -12.2030     26.5317      3.7243   1.0230517001e+02   7.1695779961e+01     0.287906     0.204711  17.42 0.0005473624    1.300    0.231
        24 -11.0127     31.2763      2.4416   9.9239315269e+01   7.1277533362e+01    0.2309945    0.1894619  32.03    0.0011014    1.494    0.331
        25  -9.3391    120.5171      4.5147   7.1247527169e+01   5.3845578650e+01    0.1346295    0.1180423  53.46 -5.987013e-05    1.027    0.026
        26 -10.4822     98.4350      3.7991   7.5841533224e+01   5.9056154084e+01    0.3416618    0.1377503  53.56  0.001121427    2.035    0.509
        27 -10.4861     92.0224      4.0232   7.7573992414e+01   6.0446350143e+01    0.1949818    0.1582521  32.01  0.000315222    1.065    0.061
        28  -9.8419     18.8655      3.8343   1.0641469891e+02   7.2526721920e+01    0.1633006    0.1162264 -10.16 0.0003369302    1.134    0.118
        29  -9.2465    133.6826      1.2607   6.7667494641e+01   5.0872401104e+01    0.1298203   0.09757864 -77.00 0.0002519641    1.543    0.352
        30  -9.1931    124.4387      1.4584   6.9364540154e+01   5.3142820487e+01    0.1329881    0.1170456  58.45 -1.595303e-05    1.040    0.039
        31 -10.4158    190.4374    226.8406   1.1369333148e+02   7.4213902598e-01    0.2611202    0.1512215 -38.40  0.001202872    2.052    0.513
        32 -10.8758    246.9143    250.1591   1.0733644480e+02  -1.0748900185e+01     0.330787    0.1447315  30.98  0.001443558    1.843    0.457
        33 -11.2364    250.4389    244.7797   1.0591652207e+02  -1.0676946794e+01    0.5036914    0.2011419 -32.05  0.002406431    2.725    0.633
        34 -11.7811    224.8156    247.0601   1.1059767026e+02  -7.2752665586e+00    0.4298934    0.1851954 -26.22  0.002189587    2.906    0.656
        35 -12.2191    233.1187    246.8641   1.0914336144e+02  -8.4654181715e+00    0.3867534    0.2475926  23.65  0.002558378    1.228    0.186
        36  -9.9352    127.9141    249.6479   1.2858559223e+02   7.7087778219e+00    0.1705138    0.1644307 -38.19   0.00117814    1.396    0.284
        37  -9.9954     72.6243    250.0922   1.3871397457e+02   1.5835232708e+01    0.1682518    0.1468453  33.34  0.001256543    1.555    0.357
        38 -11.4918     14.2440    244.5398   1.4834612874e+02   2.3817243328e+01    0.3340377    0.1329996 -88.07   0.00197018    2.331    0.571
        39 -12.3882     21.2967    249.0100   1.4740486959e+02   2.2299893149e+01    0.5177919    0.1621515  46.19  0.002932715    2.202    0.546
        40 -11.6115     27.6829    246.3745   1.4622174591e+02   2.2052985907e+01     0.408354    0.1573602 -82.45   0.00230541    2.566    0.610
        41 -10.7926     10.8236    250.3472   1.4914614849e+02   2.3173182873e+01    0.3551132   0.09460171  40.82  0.001916293    2.750    0.636
        42 -11.3744      6.1454    245.2051   1.4967936817e+02   2.4523512735e+01    0.2882009    0.1458264  70.04  0.001136506    1.460    0.315
        43 -10.2767    130.1959    226.8961   1.2544198706e+02   1.1024257402e+01    0.3203543    0.1441654  52.73  0.001458608    2.155    0.536
        44 -10.2630     88.0964    227.1582   1.3379431541e+02   1.7665086546e+01    0.1767445    0.1551902  45.77  0.001223153    1.275    0.216
        45 -10.5346     66.3372    226.3291   1.3792889700e+02   2.0911400613e+01    0.2645914    0.1489961  49.40 0.0009547617    1.423    0.297
        46 -10.1065      5.8679    226.8288   1.4894164015e+02   2.7818957217e+01     0.262959   0.03382045  51.94  0.001074037    4.136    0.758
        47 -10.1147    144.2149    226.5987   1.2262328861e+02   8.7031160916e+00    0.1779446    0.1046976  35.64 0.0003665611    1.532    0.347
        48 -10.4444    180.8789    224.1282   1.1509235874e+02   2.7664953140e+00    0.2058246    0.1693965 -20.44  0.000693911    1.413    0.292
        49 -10.1931     81.3793    224.6456   1.3485963060e+02   1.9115269150e+01    0.2352962    0.1475092  77.99  0.001122388    1.662    0.398
        50 -10.7202     13.1897    222.0324   1.4744182888e+02   2.7988959242e+01    0.1736452    0.1377475  68.32 0.0003868036    1.179    0.152
        51 -11.2021    141.3556    221.4387   1.2248560919e+02   1.0056087936e+01    0.2838379    0.2113227  20.52  0.001343696    1.614    0.381
        52 -11.0227    123.2033    221.5001   1.2615258858e+02   1.3131161099e+01    0.3029068    0.2055939  51.14  0.000942126    1.236    0.191
        53  -9.4287     51.4994    222.5485   1.4044854914e+02   2.3564623038e+01     0.116532   0.08992947  66.98 0.0001207021    1.030    0.029
        54 -10.0446    174.1022    219.8815   1.1574833860e+02   4.5877008429e+00    0.1964568    0.1592918  50.97 0.0006899812    1.246    0.198
        55  -9.7891    250.3135    219.0648   1.0168886652e+02  -7.8172598216e+00    0.1636465    0.1270323  -0.44 0.0005621815    1.107    0.096
        56 -10.6779    191.5174    216.9837   1.1191145268e+02   1.9815526506e+00    0.2505178    0.1779328 -13.32  0.001081235    1.712    0.416
        57  -9.5299     50.3569    218.2892   1.4033255707e+02   2.4524839007e+01   0.09790092   0.09274983 -23.97 0.0007026109    1.682    0.405
        58 -10.8379     10.0445    217.0307   1.4774277628e+02   2.9243766623e+01    0.2677709    0.1425134  60.49  0.000901478    1.442    0.307
        59  -9.4008     37.5750    217.4772   1.4271055824e+02   2.6223205603e+01    0.1138673   0.08699287  71.73 0.0001103991    1.033    0.032
        60  -9.9961     24.5502    216.8915   1.4510359366e+02   2.7789019695e+01    0.2383623   0.09660558  53.15  0.001326779    1.947    0.486
        61 -10.2407    234.5074    216.5077   1.0394665046e+02  -5.1041982474e+00    0.1215044    0.1002881  16.61 0.0008094027    1.078    0.072
        62 -10.5201    201.5154    215.9584   1.0984276428e+02   4.0329169647e-01    0.2079092    0.1525098  16.80  0.001227862    1.322    0.243
        63 -10.0102     31.1065    215.8584   1.4381780923e+02   2.7272489480e+01     0.188297    0.1173588  67.88 0.0008898221    1.269    0.212
        64  -9.2870    179.6708    215.7005   1.1399708649e+02   4.2540410141e+00    0.1321681   0.09270805  15.26 0.0007030178    1.641    0.391
        65  -9.5319    137.1806    215.6330   1.2252135881e+02   1.1782850354e+01    0.1919413    0.1087274  34.39  0.000941548    1.716    0.417
        66 -10.1184    170.2040    213.1438   1.1545836026e+02   6.3438854344e+00    0.1776799    0.1474895  58.98  0.001021039    1.325    0.245
        67  -9.6081    142.8394    213.3887   1.2104004511e+02   1.1185008575e+01    0.1872703    0.1106231  34.02 0.0005554946    1.636    0.389
        68 -10.9258     20.7012    211.6529   1.4549780083e+02   2.9209366654e+01     0.296033     0.145654  67.27 0.0009025561    1.717    0.418
        69  -9.5901    212.8808    211.8880   1.0702942146e+02  -9.6035555833e-01    0.1595435    0.1440584  41.75 0.0005131619    1.312    0.238
        70 -10.2433    208.9619    212.0678   1.0778709958e+02  -3.1879592782e-01    0.1968533      0.16281  21.79 0.0005061408    1.006    0.006
        71 -11.9868      4.3641    207.2325   1.4826891941e+02   3.1664578358e+01    0.4420294    0.2321489  78.11  0.002859962    1.522    0.343
        72  -9.1993    238.5307    201.4511   1.0056339469e+02  -3.7995352410e+00    0.1273099    0.1020008  10.71 0.0001248531    1.042    0.040
        73  -9.5115    223.7170    201.6030   1.0321856401e+02  -1.3625334054e+00    0.1700113     0.111683  46.36 0.0006168918    1.615    0.381
        74  -9.6873    218.2660    201.3566   1.0416829126e+02  -3.9450611035e-01    0.1316537   0.08984951   4.53 0.0006988026    1.632    0.387
        75  -9.3657     34.5436    200.6203   1.4206040802e+02   2.9918878504e+01    0.1158947   0.08956892  71.33 6.127314e-05    1.027    0.026
        76  -9.7565     19.7419    200.2652   1.4496359724e+02   3.1567378865e+01    0.1715345   0.06832483 -65.06 0.0008950816    2.420    0.587
        77 -10.4277    227.2677    196.7994   1.0169468443e+02  -1.2930508714e+00    0.2661254    0.1774012  15.80  0.000830468    1.529    0.346
        78 -11.7558    192.2192    194.9154   1.0796023835e+02   5.2638584299e+00    0.3303505    0.2820775 -59.24   0.00194184    1.523    0.343
        79  -9.7091    203.0191    195.9675   1.0604940048e+02   3.1105622047e+00    0.2076223    0.1477959  10.50 0.0007633756    1.559    0.359
        80 -10.5158    205.9860    201.2799   1.0644784687e+02   1.7695070793e+00    0.2309527    0.1589387 -15.53 0.0008579768    1.664    0.399
        81 -10.8908    215.4010    194.3796   1.0341425706e+02   1.1231052792e+00    0.3000491    0.1561124 -31.80 0.0005662268    2.065    0.516
        82  -9.3331     56.6379    197.7130   1.3725984254e+02   2.7849499178e+01    0.1078245   0.09708719 -26.92 0.0007022884    1.689    0.408
        83 -10.1621    163.0000    191.0095   1.1322947046e+02   1.1462190311e+01    0.2128979   0.08121155 -46.13 0.0008052994    2.962    0.662
        84  -9.7045    250.4711    190.0180   9.6396094305e+01  -4.2078977652e+00    0.1808789    0.1115837 -28.55 0.0005325942    1.556    0.357
        85  -9.5523    205.5144    190.0758   1.0447500778e+02   3.5689732681e+00    0.1873896    0.1308092 -32.35 0.0006061969    1.525    0.344
        86 -10.6453    225.6391    188.9668   1.0051337862e+02   1.1001930462e-01    0.3103938    0.1570476  14.07  0.001088665    4.002    0.750
        87 -11.0804    232.6525    191.2939   9.9701421914e+01  -1.4362156507e+00    0.3218035    0.1787161  27.26  0.001607364    1.825    0.452
        88 -10.5015    167.8741    184.1195   1.1095770426e+02   1.1768117916e+01    0.4343853    0.2262108  61.90  0.001565856    3.252    0.693
        89  -9.6404     61.6320    184.8386   1.3483736228e+02   2.9916413140e+01     0.183608    0.1069399 -84.71 0.0009517836    1.762    0.432
        90 -11.7649     16.2428    183.1417   1.4450085804e+02   3.5439361823e+01    0.3896875    0.1948617  84.52   0.00183949    1.805    0.446
        91 -10.8272    248.2794    182.5929   9.5337667038e+01  -2.8508845659e+00     0.387897    0.1771537  18.90  0.001322827    4.519    0.779
        92  -9.7495      6.5817    183.7041   1.4651910077e+02   3.6198375504e+01    0.2780452    0.0568138  36.85  0.001226766    3.660    0.727
        93  -9.9111    236.4782    182.4806   9.7333697197e+01  -8.4128094519e-01    0.1304674    0.1118447   6.74  0.000809948    1.009    0.009
        94 -10.2991      2.1356    180.1270   1.4720128064e+02   3.7318585214e+01    0.1860457    0.1298067  65.41 0.0005207248    1.197    0.164
        95 -11.2960    244.6292    177.9317   9.5040345966e+01  -1.5914331742e+00    0.2858017    0.1476998 -20.61  0.001331313    2.182    0.542
        96  -9.6077     36.0724    178.5025   1.3987170114e+02   3.4405494206e+01    0.1608131    0.1093056  43.16 0.0005108321    1.471    0.320
        97 -10.4317    200.1705    176.8060   1.0294597431e+02   6.7230067436e+00    0.1968546    0.1542203  13.13 0.0006526241    1.331    0.249
        98  -9.5030     70.2053    177.5962   1.3202962380e+02   3.0314620285e+01    0.1590161    0.1231434  30.86 0.0004764759    1.519    0.342
        99 -11.2587    224.3107    178.3432   9.8686829669e+01   1.9276556021e+00    0.2705362    0.2340433   9.45 0.0005332413    1.023    0.022
       100  -9.7880    183.3401    173.3045   1.0564236630e+02   1.0652889429e+01      0.14777    0.1077056  12.00 0.0004899908    1.678    0.404
       101  -9.4937    193.3548    172.3282   1.0340490115e+02   8.8225167724e+00    0.1505899    0.1059483  10.69 0.0007045895    1.776    0.437
       102  -9.7001     59.6176    171.7478   1.3377832771e+02   3.3053501427e+01    0.1821046    0.1102566 -83.33 0.0009452658    1.653    0.395
       103  -9.7299     74.6593    171.4314   1.3017744521e+02   3.1038434482e+01    0.1613481    0.1268184  33.24 0.0009198056    1.440    0.305
       104 -10.9740     12.8289    170.9551   1.4433542187e+02   3.8344575522e+01    0.2311218    0.1247214  79.46  0.001328461    1.657    0.397
       105  -9.7735      4.5254    167.9945   1.4592065172e+02   3.9681655940e+01    0.1804134   0.08956296 -80.15  0.001044976    1.630    0.386
       106  -9.5645    210.0104    166.4730   9.8943597052e+01   6.5160975412e+00    0.2081622    0.1301197  41.50 0.0005612505    1.525    0.344
       107 -10.3304     41.3036    165.4517   1.3737017678e+02   3.6699175250e+01    0.2129118    0.1265763  80.69  0.000665351    1.689    0.408
       108 -10.6636     52.9709    163.0887   1.3430765248e+02   3.5848332699e+01    0.5465277    0.3033977 -30.54  0.002090976    4.380    0.772
       109  -9.6699      9.9510    165.0616   1.4452225154e+02   3.9865428025e+01    0.1405331    0.1058225  86.84 0.0004131962    1.032    0.031
       110  -8.9821    229.4967    164.5468   9.4957983284e+01   3.0866170032e+00     0.137374     0.119176   5.88 9.220853e-05    1.052    0.049
       111 -10.3591     45.0061    164.0125   1.3633199426e+02   3.6597829130e+01    0.1590794     0.129737  89.66  0.001015004    1.045    0.043
       112 -10.6788     36.5150    160.8261   1.3800851350e+02   3.8265138374e+01    0.5065619    0.1325572 -64.34  0.002002911    3.092    0.677
       113 -11.2255    248.1024    159.1266   9.0661934562e+01   5.1449215779e-01     0.297916    0.2467964  -4.99  0.001669696    1.097    0.088
       114  -9.4513    200.0511    162.7742   1.0010451988e+02   9.1287186395e+00    0.1871227    0.1125244  44.99 0.0004237566    1.598    0.374
       115 -10.1824    238.3734    158.2991   9.2114079564e+01   2.3972636350e+00    0.2213821    0.1499994   4.15  0.001113867    1.766    0.434
       116  -9.6002     48.4838    158.5394   1.3484393202e+02   3.7427355071e+01     0.128862    0.1082616  84.08 0.0002024392    1.018    0.017
       117  -9.9060      8.7634    158.3927   1.4427292538e+02   4.1415610187e+01    0.2310054   0.09169564  35.19  0.001209482    2.532    0.605
       118 -11.0946     22.5983    155.7078   1.4081054663e+02   4.0807518664e+01    0.3752974    0.2988224 -78.20  0.002562296    1.123    0.110
       119  -9.1885    235.6858    154.6729   9.1809763115e+01   3.4545461165e+00    0.1411091    0.0988196   6.21 0.0006072249    1.670    0.401
       120 -10.1577    205.4121    152.3044   9.6815447602e+01   9.8418372999e+00    0.2764599    0.1379605 -32.59  0.001133097    2.142    0.533
       121  -9.9294    197.4843    153.5259   9.8637157289e+01   1.1277587752e+01    0.1451004    0.1360051  18.39 0.0002178128    1.001    0.001
       122  -9.2454    151.6837    153.3389   1.0846755383e+02   2.1026971187e+01     0.153742    0.1183319  83.57 0.0005308627    1.703    0.413
       123  -9.3894    178.6065    155.6918   1.0299491732e+02   1.4863311191e+01    0.1580188    0.1131184  13.15 0.0002404476    1.829    0.453
       124 -10.4415    178.1932    151.4301   1.0215950582e+02   1.5757511317e+01    0.3202351    0.2602385  70.55  0.001605796    1.474    0.322
       125  -9.4792     46.1362    151.1279   1.3450237469e+02   3.9399228369e+01    0.1767439    0.1292989  69.85 0.0003962243    1.313    0.239
       126  -9.6077     92.9956    148.2402   1.2194703056e+02   3.3429973391e+01    0.1871315    0.1163979  40.87 0.0008743354    1.595    0.373
       127  -9.4139    233.5248    146.9948   9.0535357230e+01   5.0690091944e+00    0.2093248    0.1280309 -32.10  0.001022732    1.567    0.362
       128 -10.2708    207.0148    145.9836   9.5114484278e+01   1.0603622544e+01    0.2217781    0.2077074  19.05 0.0007144649    1.023    0.022
       129 -11.1724      8.5640    145.3324   1.4322865587e+02   4.4314388912e+01    0.3409307    0.1490712  45.64  0.001825054    2.269    0.559
       130 -10.3664      3.0410    143.7524   1.4442966365e+02   4.5073512744e+01    0.2093033    0.1149171 -64.02  0.001144503    1.590    0.371
       131  -9.7488    212.9777    141.4279   9.2970884327e+01   1.0137217164e+01    0.3340415    0.1927543   2.31  0.001089877    3.987    0.749
       132 -11.6754      3.6271    136.3016   1.4364335724e+02   4.6686116334e+01     0.543016    0.1987622 -52.80  0.002201921    2.771    0.639
       133 -11.9328      9.0744    136.7794   1.4231328600e+02   4.6188277873e+01    0.2167459    0.1762863 -74.47  0.000248159    1.118    0.106
       134 -10.5586    236.4524    138.8411   8.8261021208e+01   5.7879155081e+00    0.2415377    0.2232273  41.58 0.0005137503    1.175    0.149
       135 -10.8706     57.4818    138.4915   1.2973513972e+02   4.0954701949e+01    0.3430946    0.2172927  70.94   0.00137443    1.833    0.454
       136  -9.4627     16.6420    139.6958   1.4068087871e+02   4.4936697707e+01    0.1184541   0.07982069 -46.30 0.0004242251    1.721    0.419
       137 -10.1569     40.6112    135.6756   1.3389023787e+02   4.3592159819e+01    0.2067406    0.1666094  37.28  0.001034846    1.390    0.280
       138 -10.2886     21.7408    136.1196   1.3897666229e+02   4.5318208176e+01    0.2062678    0.1485338  55.62   0.00129962    1.417    0.294
       139  -9.9213    138.2911    135.4135   1.0773087528e+02   2.7626859813e+01     0.291761    0.1443444  39.89 0.0007957887    2.058    0.514
       140 -12.2781     36.5113    130.5308   1.3429285857e+02   4.5216984329e+01    0.4075387     0.319304 -88.79  0.002384585    1.164    0.141
       141 -10.4383    249.4644    129.9633   8.4229447953e+01   4.6476095225e+00    0.2346208    0.1989461  78.43  0.001064992    1.556    0.357
       142  -9.9652    126.5145    129.4968   1.0933610992e+02   3.1382522990e+01    0.1513351    0.1467926  65.61 0.0008104933    1.009    0.009
       143  -9.3978    243.0121    128.4591   8.4901225665e+01   6.1312792660e+00    0.1870283    0.1346694  49.04 0.0004786467    1.496    0.332
       144  -9.4618     60.0051    128.5208   1.2738966581e+02   4.2966470906e+01    0.1787964    0.1009113  59.79 0.0004450273    2.168    0.539
       145  -9.8821      1.5980    126.6604   1.4327310238e+02   4.8972654441e+01    0.2109371    0.1242311 -89.59  0.001271076    1.469    0.319
       146 -10.2266    219.6483    124.5704   8.7901707662e+01   1.1585638686e+01    0.2483188    0.2133871 -24.43 0.0005526813    1.135    0.119
       147  -9.9917     73.9239    129.4684   1.2362772274e+02   4.0807974502e+01    0.2160699    0.1776519 -64.73   0.00063916    1.142    0.124
       148 -11.3301     10.6042    122.6363   1.4043768422e+02   4.9269542503e+01    0.2857801    0.2686699   8.41   0.00177759    1.375    0.273
       149  -9.4499     20.5431    121.5064   1.3753562280e+02   4.8766943802e+01    0.1227272    0.1006251 -75.37 5.373287e-05    1.019    0.019
       150  -9.5060    221.6379    120.1516   8.6523248737e+01   1.1898831351e+01    0.2054528    0.1314867 -23.86 0.0007240791    1.701    0.412
       151 -11.8649     16.9358    117.0335   1.3798541847e+02   5.0076572842e+01      0.60141    0.1768765 -55.74  0.002566496    2.732    0.634
       152 -10.5617     10.0209    102.4593   1.3809810750e+02   5.3875857938e+01      0.30917    0.1246737  43.12  0.001403637    2.879    0.653
       153 -10.2935     19.7865    112.9739   1.3661289736e+02   5.0783638636e+01    0.1932614    0.1244406 -46.89 0.0005871581    1.569    0.363
       154 -12.4136     16.8008    108.3299   1.3685328539e+02   5.2072822077e+01    0.3561056    0.3346116 -82.51  0.002603025    1.152    0.132
       155  -9.7014    249.6770    118.3219   8.1627028743e+01   6.3907266358e+00    0.1355213    0.1015413 -62.74 0.0005752243    1.678    0.404
       156  -9.9419    179.3920    116.3408   9.3645448489e+01   2.2203584246e+01    0.2641442    0.1782008  40.64 0.0007624075    1.518    0.341
       157  -9.6713     86.3264    116.6614   1.1743002867e+02   4.1843138522e+01    0.1502895    0.1103236  79.62 0.0007051558    1.728    0.421
       158  -9.2334     50.7791    115.9532   1.2784277931e+02   4.7056223828e+01    0.1813137    0.0971655 -62.09 0.0008671317    1.654    0.395
       159 -11.2848     35.8953    111.1379   1.3149863586e+02   4.9784365887e+01     0.510684     0.247033 -60.03  0.001941162    1.728    0.421
       160  -9.4833     66.6003    112.8347   1.2246289553e+02   4.5746594080e+01    0.1838158    0.1245691 -72.32 0.0001329973    1.547    0.354
       161  -9.1702     11.2689    113.6616   1.3918977432e+02   5.1258141348e+01    0.1197755   0.07799969  77.04 0.0004276854    1.599    0.375
       162  -8.9206      5.7038    113.3898   1.4075504568e+02   5.1689755488e+01    0.1238902   0.07435671  73.81 0.0007011861    1.783    0.439
       163  -8.7476    212.5249    112.4792   8.6282258772e+01   1.5217112353e+01    0.1454793    0.1404394 -10.08 0.0003366115    1.030    0.029
       164  -9.0676     42.6665    110.2921   1.2928072494e+02   4.9286345048e+01    0.1303017   0.09288207  71.57 0.0007023227    1.635    0.388
       165  -9.3532    167.3793    109.1841   9.4404243028e+01   2.6423373408e+01    0.2163906    0.1446657 -50.20 0.0006496332    1.596    0.373
       166  -9.3777    117.1605    108.8235   1.0676925501e+02   3.7850404769e+01    0.2010466     0.177982  -1.54  0.001023909    1.314    0.239
       167 -10.1169    242.0009    108.1794   8.0475592817e+01   9.5145267890e+00    0.2167979    0.1588727 -82.41 0.0006756936    1.939    0.484
       168 -12.3825     62.0127    107.1965   1.2268064889e+02   4.7679922702e+01    0.3166928    0.2338616 -56.28  0.000473887    1.234    0.190
       169 -11.3447     24.0541    107.1845   1.3448014886e+02   5.1765355838e+01    0.2865503    0.1874252  51.13  0.001275367    1.737    0.424
       170  -9.4610    133.2198    107.5836   1.0216907544e+02   3.4672236027e+01    0.2199425    0.1450126  35.65 0.0004908717    1.643    0.391
       171 -10.4229     76.4518    107.0131   1.1818352591e+02   4.5642704579e+01     0.220902    0.1313311 -55.40 0.0004980669    1.585    0.369
       172 -10.9985      3.5119    100.7530   1.3986551261e+02   5.4658056197e+01    0.2565911    0.2111117  77.82 0.0009498931    1.258    0.205
       173 -10.4378      6.4721    106.0544   1.3964556970e+02   5.3292484595e+01    0.2452611     0.130309 -55.52 0.0007482427    1.602    0.376
       174 -10.9585      2.8218    105.1785   1.4062402148e+02   5.3708557562e+01    0.2276136    0.1782767 -85.55  0.001079721    1.128    0.114
       175  -9.7967    223.3314    103.9762   8.2393379381e+01   1.4214706084e+01    0.2070849    0.1741901 -36.99 0.0005707131    1.135    0.119
       176  -9.5382     93.3403    104.2796   1.1241837527e+02   4.3449767487e+01    0.1450484    0.1155165  -7.75 0.0005962016    1.624    0.384
       177 -11.3725     70.4822    102.4043   1.1896261985e+02   4.7593740802e+01    0.3642403    0.2694909   8.51  0.001210922    1.778    0.437
       178 -10.6884    247.9771    102.3047   7.8267789488e+01   9.1917476353e+00    0.1838266    0.1828261   0.85 0.0007647176    1.096    0.087
       179  -9.8199    120.2356    101.1754   1.0390097657e+02   3.8850065113e+01    0.2533127    0.1699819   0.48  0.000941825    2.748    0.636
       180  -9.4036     91.5469    101.4586   1.1223815421e+02   4.4397707728e+01    0.1440232    0.1381881 -37.67 5.706205e-05    1.045    0.043
       181 -10.1777     36.0380    101.2344   1.2970769915e+02   5.2052830740e+01    0.2642415    0.1589936  38.33   0.00143219    1.853    0.460
       182 -10.3258     27.8505    100.9681   1.3227892797e+02   5.2866451261e+01    0.1788544    0.1500652 -60.29 0.0003163729    1.049    0.047
       183 -12.0942     50.5228     99.3378   1.2465433726e+02   5.0931363463e+01    0.2324659    0.2115208 -64.77 0.0002729122    1.034    0.033
       184 -11.5118     20.8907     95.6491   1.3361643468e+02   5.4643328277e+01    0.6486635    0.1410058 -67.29  0.002096524    3.967    0.748
       185 -10.8186     63.8358     98.5833   1.2018323703e+02   4.9406450956e+01    0.4621975    0.2122511  23.04  0.001785659    3.141    0.682
       186 -10.3755     38.8252     95.9133   1.2777418280e+02   5.2991490026e+01    0.1712772    0.1432761  80.96   0.00047028    1.327    0.246
       187  -9.9552      4.4169     85.7817   1.3747513008e+02   5.7929959406e+01    0.3189499    0.2240659  -2.90  0.002096475    1.815    0.449
       188 -10.6875      8.2043     94.8090   1.3758458425e+02   5.5707460167e+01    0.3066387    0.1823137 -43.83   0.00138874    1.651    0.394
       189 -11.2804     11.0996     91.0814   1.3607825945e+02   5.6358116469e+01    0.2851655    0.1872853  14.60  0.001144756    1.907    0.476
       190  -9.9423      7.0303     88.9182   1.3708532580e+02   5.7088633093e+01    0.1670486    0.1346865 -87.84 0.0004525273    1.229    0.186
       191 -10.3523      1.5039     93.9390   1.3959708180e+02   5.6285776360e+01    0.3050978   0.06851126 -65.33  0.001257344    2.881    0.653
       192  -9.6082    227.0783     93.4652   7.9264897010e+01   1.5078708091e+01     0.202013    0.1413126  58.73 0.0004305925    1.507    0.337
       193  -9.4768    109.3123     93.6750   1.0489460746e+02   4.2708809046e+01    0.1518989    0.1202181 -89.84 0.0002290037    1.660    0.398
       194  -9.6388    171.2440     91.0165   8.8691323883e+01   2.8909591906e+01    0.2083969    0.1325174 -37.14 0.0008865846    1.607    0.378
       195 -10.7455     96.5051     90.2300   1.0771610520e+02   4.5941937375e+01    0.3553735    0.2260036   2.23  0.001306957    3.128    0.680
       196 -10.3267     73.0204     88.6970   1.1472952446e+02   5.0280769917e+01    0.1793568    0.1731185  24.41 0.0002831792    1.100    0.091
       197  -8.8735    103.6899     88.7077   1.0512477645e+02   4.4878909415e+01    0.1477275    0.1171366  -1.63  0.000435068    1.586    0.370
       198 -10.1024     49.2916     88.0293   1.2253423061e+02   5.3631030608e+01    0.1903986      0.14823 -55.61 0.0003830224    1.144    0.126
       199 -10.8606     46.4633     83.0858   1.2233260283e+02   5.5051401156e+01     0.629438    0.2793887 -61.04   0.00277127    2.173    0.540
       200 -11.0366     67.5775     84.8983   1.1552311125e+02   5.1923274718e+01    0.2501971    0.2163173 -19.30 0.0006590727    1.217    0.178
       201 -10.8399    118.0513     83.4011   9.9427807290e+01   4.2974831163e+01    0.3188812     0.255432   4.53  0.001012903    1.542    0.351
       202  -9.2740     14.3174     83.7078   1.3375104415e+02   5.7784667465e+01    0.1261084    0.0986555 -54.64 0.0002888927    1.079    0.073
       203 -11.7052     19.4399     81.3256   1.3151169161e+02   5.7950560135e+01    0.3798458    0.2574829  50.23 0.0007467132    1.830    0.454
       204 -11.5596     23.3015     80.3206   1.2993727101e+02   5.7877529035e+01    0.4023844    0.1824839 -63.65  0.001993164    1.872    0.466
       205  -9.3845    133.5468     82.2665   9.4940680994e+01   3.9697101559e+01     0.219316    0.1506223 -26.17 0.0007805922    1.681    0.405
       206 -11.7497     72.0006     78.5157   1.1224859008e+02   5.2625970449e+01     0.507055    0.3379019 -14.97  0.001151091    2.088    0.521
       207 -11.3081     77.5798     72.0103   1.0840802703e+02   5.3075917026e+01    0.5232369    0.2811001  37.08  0.001192922    1.947    0.487
       208 -10.0460      2.4233     71.7771   1.3586595590e+02   6.1079768242e+01    0.2388789    0.1176763 -47.52  0.001015087    1.679    0.405
       209 -12.1205      3.1663     77.6675   1.3660904703e+02   5.9770796167e+01    0.3423079    0.2195453 -69.47  0.002183641    1.279    0.218
       210 -11.9685      7.3467     76.8765   1.3498758579e+02   5.9714039404e+01    0.5473559    0.2046165 -56.97  0.001181383    1.950    0.487
       211 -11.5795    151.0059     78.4777   8.9559522831e+01   3.6200610502e+01    0.3080062    0.2762395 -66.41 0.0004444509    1.197    0.164
       212  -9.7019     92.8572     78.5670   1.0543343522e+02   4.9053623874e+01    0.3389821    0.1613956 -32.06  0.001232147    2.756    0.637
       213  -9.0193     81.3272     79.2355   1.0934247971e+02   5.0966381288e+01    0.1360894    0.1070094  -1.15 0.0002505003    1.524    0.344
       214  -9.0138     12.3170     78.2888   1.3346705222e+02   5.9105679171e+01    0.1222421   0.07230212 -41.08  0.000700322    1.593    0.372
       215 -11.1001     85.1535     80.9590   1.0860418984e+02   4.9950727785e+01    0.3366095    0.2161708 -41.27 0.0008898238    1.513    0.339
       216 -10.0126     30.0240     81.7641   1.2784509950e+02   5.6997227509e+01     0.171116    0.1536962 -79.83 0.0004538495    1.184    0.155
       217 -12.1915     61.7498     73.2793   1.1429366217e+02   5.5232269622e+01    0.6390163    0.4432071 -21.88   0.00276594    1.674    0.403
       218 -10.2812     54.6271     72.2002   1.1654529623e+02   5.6412238598e+01    0.1862184    0.1797314 -84.72 0.0001974563    1.201    0.167
       219  -9.9258    121.5242     76.0096   9.6210692674e+01   4.3639638427e+01    0.2296231    0.1493431 -38.62 0.0009175828    1.565    0.361
       220 -10.6457    108.2249     75.7157   9.9880854118e+01   4.6579112208e+01    0.3421343    0.2496961  -7.58  0.001396784    1.821    0.451
       221 -10.2646     50.7187     67.6769   1.1668470915e+02   5.7845646742e+01    0.2125524    0.1649927 -32.67 0.0006023117    1.201    0.167
       222 -11.2088     47.7002     73.7011   1.1948891517e+02   5.6942987164e+01    0.3876414    0.2782804 -68.75  0.002060319    1.561    0.359
       223 -11.5666     48.5667     70.5503   1.1830537444e+02   5.7507250601e+01    0.3486581    0.2066282  38.78 0.0008747915    1.908    0.476
       224 -10.8057     40.3070     72.7087   1.2195417532e+02   5.7973889715e+01    0.3220839    0.2579777 -75.59 0.0007875693    1.422    0.297
       225 -10.8466     36.9058     68.6208   1.2216384273e+02   5.9190925556e+01    0.3526946    0.2037383 -42.40  0.001169203    1.539    0.350
       226 -10.2752    102.6792     72.9432   1.0065551621e+02   4.8257006825e+01    0.2557652    0.1950686  28.96 0.0007049171    1.390    0.280
       227  -9.7307     16.8819     72.3554   1.3062478021e+02   6.0088877211e+01    0.1966349    0.1428473 -73.12 0.0008085499    1.343    0.255
       228 -10.2043    152.0212     72.2923   8.7477037111e+01   3.7042458558e+01    0.2261769    0.1970522  57.71 0.0007777069    1.115    0.103
       229  -9.7751    175.1292     71.1096   8.2306131127e+01   3.1393919374e+01    0.2247216    0.2058028  16.55 0.0004658599    1.219    0.180
       230 -10.6395     94.6406     70.8681   1.0246948339e+02   5.0246113880e+01     0.313321    0.1723229 -48.43 0.0008008839    1.895    0.472
       231 -10.6241     95.5097     66.9177   1.0091369165e+02   5.0834012888e+01    0.4102373    0.2735707  44.39  0.001588315    1.519    0.342
       232 -10.4382     26.7487     69.9555   1.2636664119e+02   5.9844760622e+01    0.2921666    0.1956384  79.80  0.001553895    2.305    0.566
       233 -11.2754     68.6461     67.4596   1.1008332484e+02   5.5415094923e+01    0.3811877    0.2064012 -41.18  0.000311476    1.744    0.427
       234 -10.4164    159.7071     69.4236   8.4934476877e+01   3.5599549791e+01    0.3100954    0.1506522  62.01  0.001139895    2.216    0.549
       235 -10.1736    130.2186     64.5162   9.0263691611e+01   4.3707929754e+01    0.3280913    0.1917815 -45.63  0.000604109    1.841    0.457
       236 -10.8707     31.2178     66.3302   1.2374815812e+02   6.0219593349e+01    0.2774732    0.1858305 -57.98 0.0009546293    1.335    0.251
       237 -10.4402      6.4040     67.7916   1.3363835431e+02   6.1721036714e+01    0.2213585    0.1633826 -55.90 0.0008510862    1.065    0.061
       238 -11.8136      4.1556     64.0040   1.3375001094e+02   6.2643673156e+01    0.2636091    0.2344221  67.47 0.0003752653    1.394    0.283
       239 -11.1391     21.2784     66.1695   1.2756620470e+02   6.1088851853e+01    0.2500421    0.1988297  11.15  0.001157233    1.451    0.311
       240 -10.8303    130.2639     69.2107   9.1756258053e+01   4.2876057008e+01    0.4214903    0.1950274  44.77  0.001587199    2.139    0.533
       241  -8.9959    150.6971     66.7412   8.6083151564e+01   3.8320887199e+01    0.1512959    0.1156665  27.53 0.0001766274    1.513    0.339
       242 -10.7622    141.6713     63.4703   8.7129263192e+01   4.1112652358e+01     0.306279    0.2251695  73.02 0.0006536985    1.571    0.363
       243 -11.1292    120.8722     63.6536   9.2429167608e+01   4.6034772965e+01    0.5312055    0.3271753  -6.38  0.001991857    2.818    0.645
       244 -11.0916     83.9175     62.8534   1.0331763497e+02   5.3772478444e+01    0.4642165    0.3441629 -71.69  0.002259556    2.015    0.504
       245 -10.3910     86.0157     58.4182   1.0110743396e+02   5.4211728090e+01    0.3177928     0.196871 -39.83 0.0004862493    1.581    0.368
       246 -10.8207     76.9037     65.2236   1.0648188171e+02   5.4534402497e+01    0.3044319    0.1897587  57.80  0.001368772    2.305    0.566
       247 -10.5259    174.0952     63.7807   8.0390670508e+01   3.2841881751e+01     0.273524    0.2380357 -69.78  0.000620352    1.205    0.170
       248 -10.1686     41.5061     64.4470   1.1925288979e+02   5.9580866015e+01    0.1255093    0.1112644 -41.39 0.0002162015    1.053    0.051
       249 -10.6055     51.7132     62.4591   1.1474662559e+02   5.8785514982e+01    0.2725716    0.1666948 -29.06   0.00138356    1.755    0.430
       250 -11.5785     11.2348     62.6243   1.3068677323e+02   6.2530257260e+01    0.2552024    0.2027757 -17.25 0.0004011576    1.355    0.262
       251 -10.0208     56.4001     62.2679   1.1291573775e+02   5.8212315915e+01     0.175708    0.1192002 -55.83  0.000418972    1.541    0.351
       252 -11.5788     37.8090     52.0646   1.1699075598e+02   6.2462885136e+01    0.6851405     0.418939 -39.65  0.003879901    1.418    0.295
       253 -10.3783     44.8212     51.8590   1.1405917772e+02   6.1712478096e+01    0.2683826    0.1901781 -29.44 0.0003731782    1.305    0.233
       254 -10.8026     46.0626     46.9916   1.1189065221e+02   6.2479484463e+01    0.2177786     0.163787 -43.74 0.0002891161    1.246    0.198
       255 -11.1067     33.4725     60.1283   1.2117968918e+02   6.1292972842e+01    0.3255871     0.230615 -18.63 0.0006614699    1.508    0.337
       256 -11.0809     27.2815     61.2776   1.2396900945e+02   6.1623618199e+01    0.3156688    0.1974278  14.06  0.001827681    1.868    0.465
       257  -9.4948    183.7780     61.3903   7.7952107656e+01   3.0725177945e+01    0.2109876    0.1317519  50.82 0.0004321787    1.582    0.368
       258 -11.3716     64.6782     59.7165   1.0901537176e+02   5.7537472500e+01    0.4009686     0.192343  36.09  0.001309339    2.196    0.545
       259 -11.1168    114.6457     58.2257   9.2316044312e+01   4.8375447459e+01    0.4272343    0.3272592  83.58  0.001920071    1.826    0.452
       260 -10.0768     93.0822     61.2275   9.9776402368e+01   5.2362523310e+01      0.23233    0.1848357 -24.17 0.0003719419    1.273    0.214
       261 -10.8056     70.0513     58.6653   1.0671111669e+02   5.6909970056e+01    0.4757929      0.26876 -47.37  0.002284783    1.751    0.429
       262  -9.5911    137.1168     57.8267   8.6393340803e+01   4.3157831512e+01    0.2048415    0.1684227  29.39            0    1.286    0.223
       263 -10.7570    123.5722     57.1478   8.9545740257e+01   4.6513708843e+01    0.3544136    0.2556121  86.73  0.001570708    2.050    0.512
       264 -12.0668    127.8473     51.8996   8.6681094401e+01   4.6343635383e+01    0.5037586    0.3520238 -22.55 0.0004871175    1.591    0.371
       265 -11.3533     99.4849     56.1458   9.6020344960e+01   5.1986180930e+01    0.5997734    0.2426876  46.71   0.00228878    2.437    0.590
       266  -9.6059     80.8672     57.1286   1.0239131141e+02   5.5377609804e+01    0.1824639    0.1510432  -9.76 0.0003684795    1.227    0.185
       267 -10.4426     45.3623     57.1223   1.1554611901e+02   6.0624121587e+01    0.3293011    0.1725726  34.63  0.001299369    2.096    0.523
       268 -11.1764      4.4514     52.8593   1.3122538020e+02   6.4938271632e+01    0.3771139      0.17186 -32.38  0.002013858    2.225    0.551
       269 -11.1938     12.8507     50.4103   1.2705045403e+02   6.4935633488e+01    0.4135924     0.169096 -42.27  0.002112328    2.032    0.508
       270 -12.3279      9.4244     45.3865   1.2719081824e+02   6.6152882798e+01    0.5410055     0.335472 -20.98  0.001599044    1.665    0.399
       271 -10.5861     87.1425     52.6206   9.8688511842e+01   5.5029469021e+01    0.2082582    0.1677598  49.76   0.00104036    1.357    0.263
       272 -10.5921     73.0428     51.4964   1.0313004829e+02   5.7739147035e+01    0.2827046    0.2576501  45.39  0.001724245    1.270    0.213
       273 -10.3845     80.0832     47.8782   9.9333472069e+01   5.7144130969e+01    0.2790421    0.1836896   3.97 0.0009234681    2.056    0.514
       274  -9.6462     50.0407     51.9822   1.1200788913e+02   6.1045531781e+01    0.1768673     0.133137 -16.55 0.0003226522    1.333    0.250
       275 -11.6760     98.9764     46.2872   9.2632626272e+01   5.3721913477e+01    0.5639248    0.4273365 -54.95  0.002671961    1.648    0.393
       276  -9.3956    104.3516     46.2842   9.1035975128e+01   5.2581123715e+01    0.2258875    0.1561699  17.58 0.0006004671    1.747    0.428
       277  -9.7499    157.7748     52.0277   8.0027043909e+01   3.8850400691e+01    0.1984228    0.1951457  48.75            0    1.054    0.051
       278 -10.3418    135.1725     49.9386   8.4249555683e+01   4.4866700535e+01     0.234979    0.2020378 -80.78  0.001221892    1.356    0.262
       279 -10.4812    114.9507     49.1117   8.9071307259e+01   4.9790514009e+01    0.3184062    0.2128071 -21.33  0.001497346    1.679    0.404
       280  -9.5423    209.1508     49.0986   7.0695330824e+01   2.6073886720e+01     0.202075     0.154533 -65.42 0.0005206774    1.315    0.239
       281 -10.1344    137.0456    247.5359   1.2664452478e+02   6.5777743262e+00    0.1658703    0.1520383  57.25 0.0006300159    1.199    0.166
       282 -10.1310      7.1137     40.8577   1.2696987624e+02   6.7177165831e+01    0.1745457    0.1282125 -44.42 0.0006520304    1.054    0.052
       283  -9.4353    233.3608     45.2296   6.6752341411e+01   2.0751939910e+01    0.1833052    0.1123408 -43.67 0.0004143506    1.492    0.330
       284 -10.7713    122.9662     44.0760   8.5200474641e+01   4.8687942885e+01    0.3605238    0.2837706  31.38  0.001517072    1.287    0.223
       285 -10.4116     81.1421     42.7823   9.7048315481e+01   5.7791932173e+01    0.1932864    0.1912353  23.24 0.0008536945    1.211    0.174
       286 -10.6847     64.0448     41.4881   1.0271758964e+02   6.0929494432e+01    0.2623322    0.1978286 -40.80  0.001058094    1.347    0.257
       287 -10.8648     56.4548     42.2155   1.0594504024e+02   6.1948423998e+01    0.1964677    0.1645292 -51.00  0.001204486    1.410    0.291
       288 -10.1169    163.0229     42.4489   7.6056253764e+01   3.8855624250e+01    0.2234055     0.137626  62.58 0.0003414126    1.519    0.342
       289 -10.2967     23.8651     41.7150   1.1962926320e+02   6.5794884626e+01    0.2216893    0.1707866 -59.49  0.001166468    1.421    0.296
       290 -10.1368     19.8158     37.7226   1.2014684920e+02   6.6883510514e+01    0.2190171    0.1563377  -2.81 0.0007827268    1.454    0.312
       291 -11.2331     24.3548     35.4195   1.1725115904e+02   6.6916584899e+01     0.248466     0.239231 -76.84  0.000971102    1.441    0.306
       292 -10.5187    226.3637     40.3213   6.6352990674e+01   2.3048491882e+01    0.2507692    0.2052809 -68.28 0.0004520834    1.126    0.112
       293 -11.0270     95.5547     40.0755   9.1344854440e+01   5.5388478275e+01    0.3569435    0.3154286  66.43  0.001586988    1.355    0.262
       294 -10.2826     44.2116     39.8803   1.1008117839e+02   6.3993723828e+01    0.2947493     0.180609 -49.07  0.001145079    1.659    0.397
       295  -9.4911    235.5708     40.5584   6.5404424621e+01   2.0851796392e+01    0.1312247    0.1195904 -69.62  0.000690872    1.057    0.054
       296 -10.1069    159.2186     39.2743   7.5765294916e+01   4.0269605790e+01    0.2271231    0.2059258 -44.40 0.0002328528    1.169    0.144
       297 -12.2437     82.0810     36.6637   9.4342085989e+01   5.8568536577e+01    0.5860691    0.3852954  55.30  0.002678805    1.816    0.449
       298  -9.3941     91.5076     45.5020   9.4660564921e+01   5.5368907428e+01    0.1396957    0.1275114   8.99 -4.729665e-05    1.009    0.009
       299 -11.2937     70.1216     36.0880   9.8314995327e+01   6.0807590523e+01    0.6157177    0.3593048  -9.63  0.002762089    2.431    0.589
       300  -9.7278     86.3215     45.0263   9.6163521039e+01   5.6456854328e+01    0.2393678    0.1365647  43.53 0.0008439824    1.728    0.421
       301 -10.5555      1.8485     37.7122   1.2851965795e+02   6.8075312709e+01    0.2573122    0.1155102 -33.78 0.0005606044    2.024    0.506
       302 -10.6722    156.6234    246.1488   1.2281387928e+02   3.6116149887e+00     0.142306    0.1136627 -25.22 0.0005076466    1.662    0.398
       303 -10.0537      8.3673     21.2523   1.1988786926e+02   7.0698713054e+01    0.1365748    0.1234567 -42.11  0.000365356    1.332    0.249
       304 -10.9342      4.8536     33.1262   1.2574359914e+02   6.8781852152e+01    0.2565647    0.1492633 -28.69 0.0009960675    1.551    0.355
       305 -10.2733      1.4543     31.8345   1.2700053573e+02   6.9211247686e+01    0.1563159     0.114607 -50.04  0.001118788    1.140    0.123
       306 -10.2662    102.8220     36.8653   8.7966327487e+01   5.4312663871e+01    0.3844874    0.1879946  57.46    0.0015937    2.243    0.554
       307 -10.9873    106.0971     34.1471   8.6009758711e+01   5.3968449546e+01    0.3311561    0.2978776 -23.72  0.001185594    1.169    0.145
       308  -9.7630    111.0182     34.9804   8.4990069169e+01   5.2747368811e+01     0.203513    0.1919682  34.77 0.0003392324    1.052    0.050
       309 -10.7387     77.0773     33.6756   9.4853101986e+01   5.9944677940e+01    0.2371247    0.1708251   3.13 0.0007110278    1.510    0.338
       310  -9.7560     32.4693     33.9764   1.1299638305e+02   6.6377579960e+01    0.2854694    0.1539426  26.42  0.001583663    1.982    0.495
       311 -10.5535     13.2197     33.3817   1.2179506342e+02   6.8192447981e+01    0.1452097    0.1001745  28.85 0.0009541066    1.746    0.427
       312 -10.3807     97.2596     32.1640   8.7765130538e+01   5.6160054825e+01    0.2429127    0.1336595  19.09 0.0009528176    2.786    0.641
       313  -9.8694     55.3049     31.4826   1.0214302895e+02   6.3889717695e+01    0.2548614    0.1477275 -48.59  0.001292635    2.086    0.521
       314  -9.7407     19.1511     31.9727   1.1846518170e+02   6.7989750226e+01     0.169212    0.1342338 -78.56 0.0006075443    1.952    0.488
       315  -9.4286    178.5020     31.5063   7.0210104646e+01   3.6230665914e+01     0.145936    0.1300192 -87.57 -0.0001679819    1.070    0.066
       316  -9.4121     90.2282     31.4625   8.9619402400e+01   5.7717956431e+01    0.1679315    0.1290673  56.34  0.000291026    1.445    0.308
       317 -10.0370     22.9416     46.3235   1.2150341450e+02   6.4991076800e+01    0.1568558    0.1285981 -28.63 0.0003787631    1.072    0.067
       318 -11.0892     71.2684     26.3245   9.3839984412e+01   6.2045440191e+01    0.4201604    0.2902302   3.53  0.001811892    1.575    0.365
       319 -10.6211    124.9321     27.9738   7.8972656716e+01   5.0363738843e+01    0.2086139    0.1841782  39.72            0    1.051    0.048
       320 -10.4164     50.0479     26.2904   1.0211527048e+02   6.5455681159e+01    0.4371985    0.1910065 -45.41  0.001913768    2.583    0.613
       321  -9.6019     24.7380     26.9858   1.1389494782e+02   6.8362909421e+01    0.1583995    0.1257807 -29.89 0.0003876919    1.075    0.070
       322  -9.5408     90.5373     26.5605   8.7536017912e+01   5.8308159910e+01    0.1339525    0.1203673  21.64 5.193253e-05    1.029    0.028
       323 -11.3157     60.5904     23.1968   9.6477169186e+01   6.4298466967e+01    0.4212812     0.213397 -47.64  0.001911531    2.792    0.642
       324 -10.9694     65.7910     21.4700   9.3726550662e+01   6.3663425211e+01    0.3424198    0.2022067  28.15  0.001098241    1.698    0.411
       325  -9.8182    113.0625     25.0689   8.0718549830e+01   5.3535626432e+01    0.2107843     0.187783  48.02 0.0006711073    1.065    0.061
       326  -9.4458    118.8932     23.8792   7.8862959702e+01   5.2300692933e+01    0.1841369    0.1635592 -61.89 0.0006343351    1.331    0.249
       327 -10.7014     54.2305     23.4277   9.9122439387e+01   6.5264871393e+01    0.2407536    0.2078042  17.27 0.0006185836    1.158    0.137
       328  -9.3196     17.3667     24.2767   1.1644914100e+02   6.9488289033e+01    0.1202572   0.07028534 -20.35  0.000700819    1.677    0.404
       329 -11.0356     84.5712     22.1161   8.7541198679e+01   6.0080810678e+01    0.3352351    0.2140597   8.12  0.001673218    1.877    0.467
       330 -10.8875     35.0440     21.5695   1.0671559212e+02   6.8138455348e+01    0.3288343    0.1590841 -35.55  0.001060102    1.830    0.454
       331  -9.6609    115.4421    244.7034   1.3037645950e+02   1.0448506218e+01    0.1332583    0.1166262 -51.11 0.0006125332    1.522    0.343
       332 -10.0094     27.7659     19.5705   1.0931751507e+02   6.9269983529e+01    0.1867759    0.1798308 -30.97 0.0007076678    1.472    0.321
       333 -10.7625    123.8370     21.9450   7.7022797462e+01   5.1329888143e+01    0.2696985    0.1800733  57.59 0.0003371928    1.357    0.263
       334 -10.2973    100.0189     21.9589   8.2911004243e+01   5.6855048254e+01    0.2579329    0.1918949  26.57  0.001419119    1.308    0.236
       335  -9.9675    104.2146     18.6988   8.0481369749e+01   5.6292390098e+01    0.2469546    0.1541757  15.29 0.0007188477    1.953    0.488
       336 -10.4611      3.2219     20.8184   1.2243379916e+02   7.1108265921e+01     0.147276    0.1355691  84.55 0.0006727733    1.661    0.398
       337  -9.3381    166.6769     20.7058   6.8768518996e+01   4.0566033627e+01    0.1461412   0.09850552  40.56   0.00029396    1.617    0.381
       338 -10.0090    137.0172     20.0114   7.3606161485e+01   4.8276844772e+01    0.2107071    0.1895469  62.22  0.001225572    1.039    0.038
       339 -10.8204    217.5450     16.3062   6.1407732494e+01   2.8078552254e+01      0.48585     0.130843  58.84  0.001748109    3.313    0.698
       340  -9.6297     81.8233     18.2064   8.6737295581e+01   6.1100734938e+01    0.3100639   0.09967823 -25.39  0.001125107    3.539    0.717
       341 -10.1483     50.3552     18.9719   9.8721260044e+01   6.6476606375e+01    0.1849274    0.1426032   9.33 0.0003079616    1.159    0.137
       342  -9.9089    108.0557     17.4178   7.8998178354e+01   5.5557763634e+01    0.1951551    0.1775928   4.54 0.0003625686    1.128    0.113
       343 -11.5616      8.7306    242.0861   1.4913471121e+02   2.4806506516e+01      0.41918    0.1725902  74.38  0.002524013    2.065    0.516
       344 -10.2807    148.2949    244.3394   1.2414720649e+02   5.2370872024e+00    0.1160904   0.08776376  15.13 0.0003457164    1.654    0.395
       345 -10.2805    109.8908    243.2084   1.3126166166e+02   1.1555257506e+01    0.2588586    0.1541784  71.46  0.001338065    2.021    0.505
       346 -10.2912     71.9297    243.8247   1.3834333438e+02   1.7000011661e+01    0.1642468    0.1379932  52.08 0.0007375121    1.263    0.208
       347  -9.5972     18.4323     19.0000   1.1375495406e+02   7.0277026742e+01    0.2228917    0.1355769  17.24  0.001412472    1.708    0.414
       348  -9.3176    168.6554    250.6830   1.2117071964e+02   1.0276826805e+00    0.1210625   0.08133756  18.46 0.0007048611    1.719    0.418
       349 -11.3793    156.5456    241.1402   1.2217985239e+02   4.3569225311e+00    0.2463921    0.1757392  43.61 0.0009627569    1.117    0.105
       350  -9.9818      9.8470     15.9824   1.1700011373e+02   7.1480512852e+01    0.1744432    0.1127403 -25.99  0.000665077    1.261    0.207
       351 -11.6891     35.1078    241.4292   1.4469164517e+02   2.2075548065e+01    0.5266986    0.2039968  43.72  0.003015985    2.002    0.501
       352  -9.5136     24.4614    232.4694   1.4602464341e+02   2.4880185865e+01    0.1854336    0.1061318  53.96  0.001039892    1.337    0.252
       353 -10.3166     31.8358    237.3172   1.4501772614e+02   2.3183456120e+01    0.2496711    0.1575884  71.52  0.001114979    1.219    0.179
       354  -8.9500     50.3239     14.6632   9.6719721619e+01   6.7063886468e+01     0.107416   0.09887991 -62.32 0.0007051076    1.717    0.418
       355  -9.7088    116.0816     13.4425   7.5564052505e+01   5.4090412453e+01    0.2713004    0.1771682  51.08  0.001412357    1.331    0.249
       356 -10.2004     29.0637    233.0229   1.4525251850e+02   2.4272468442e+01    0.2652799    0.1245014  53.93  0.001176292    1.610    0.379
       357 -11.6778     18.9120    238.3496   1.4728119010e+02   2.4416173449e+01    0.4625223    0.2439008  38.41  0.003052999    1.876    0.467
       358  -9.0916     90.2949     13.2391   8.2021951586e+01   5.9921527943e+01    0.1313128   0.08565292  29.91 0.0002836642    1.471    0.320
       359 -10.3361     12.0433    238.0837   1.4841541925e+02   2.5176133082e+01    0.1679398    0.1075437  67.77 0.0006818965    1.093    0.085
       360  -9.3788     51.3220     11.3122   9.4690318443e+01   6.7339246613e+01    0.1272953   0.08087356   8.00 0.0003976504    1.653    0.395
       361  -9.6879    107.7217     10.3431   7.6274787573e+01   5.6351815230e+01    0.1859533    0.1069403  51.47 0.0007180727    1.492    0.330
       362 -11.0198    181.2220    249.1384   1.1866447775e+02  -7.8193883253e-01    0.2806983    0.1470408 -40.48  0.001574064    2.427    0.588
       363 -11.5169     74.1918    238.2517   1.3746881681e+02   1.7663915147e+01    0.5314254    0.2547778  50.61  0.002999549    1.619    0.382
       364  -9.2854     50.2880    240.3289   1.4196778925e+02   2.0445955814e+01   0.09035365   0.08641217 -64.99 0.0004581308    1.616    0.381
       365 -10.4978    174.4733    238.4808   1.1843402589e+02   1.7694102589e+00    0.2252718    0.1719308  25.46 0.0008694963    1.213    0.175
       366 -10.9192    177.5425    234.9632   1.1735208538e+02   1.7575936254e+00    0.2794955    0.1893674   9.96  0.001337665    1.900    0.474
       367  -9.7283    195.4963    238.5138   1.1453316868e+02  -1.6865568293e+00    0.2251322   0.09308653  32.65  0.001029841    2.228    0.551
       368 -10.4303    159.8999    235.8478   1.2083235098e+02   4.5880006657e+00    0.1950918    0.1480817  27.25 0.0006517092    1.276    0.216
       369 -11.0386     73.7361    232.9861   1.3710078943e+02   1.8669883061e+01    0.3048368    0.1651737  54.10  0.001266443    1.473    0.321
       370 -10.8489    115.9922    226.4771   1.2821278643e+02   1.3440272867e+01    0.2863753    0.1340389 -62.32  0.001382284    2.640    0.621
       371 -10.4729    167.0235    233.8070   1.1918541306e+02   3.6937812893e+00    0.1917369    0.1801815  13.99 0.0008089405    1.206    0.171
       372  -9.7279     86.1505    233.4674   1.3478848446e+02   1.6810909720e+01     0.217313    0.1203815  80.69  0.001135626    2.257    0.557
       373 -10.0150     79.5449    231.4886   1.3586391075e+02   1.8121837742e+01    0.2271265   0.09677643  41.53 0.0006496102    1.950    0.487
       374  -9.4483    235.8373    230.4305   1.0606535524e+02  -7.0024211717e+00    0.1626858   0.08968068  27.07 0.0005055137    1.558    0.358
       375 -10.9279    153.4450    233.7490   1.2178810259e+02   5.9944311712e+00    0.2247635    0.1742239   7.67  0.001030155    1.671    0.402
