#   1 NUMBER                 Running object number                                     
#   2 MAG_AUTO               Kron-like elliptical aperture magnitude                    [mag]
#   3 X_IMAGE                Object position along x                                    [pixel]
#   4 Y_IMAGE                Object position along y                                    [pixel]
#   5 X_WORLD                Barycenter position along world x axis                     [deg]
#   6 Y_WORLD                Barycenter position along world y axis                     [deg]
#   7 A_WORLD                Profile RMS along major axis (world units)                 [deg]
#   8 B_WORLD                Profile RMS along minor axis (world units)                 [deg]
#   9 THETA_WORLD            Position angle (CCW/world-x)                               [deg]
#  10 FWHM_WORLD             FWHM assuming a gaussian core                              [deg]
#  11 ELONGATION             A_IMAGE/B_IMAGE                                           
#  12 ELLIPTICITY            1 - B_IMAGE/A_IMAGE                                       
         1 -14.7325     11.9255    156.9677   1.4690212864e+02   4.1422058548e+01     8.758942     3.389573  70.81   0.04111493    2.848    0.649
         2 -11.6653      2.2164     44.6750   1.3492233897e+02   6.6482996335e+01    0.6111749    0.1025022 -59.72  0.002497187    3.203    0.688
         3 -13.3221    191.1492     27.3356   7.1919360749e+01   3.4203653494e+01      1.44901     1.230083  65.60  0.007089269    1.128    0.113
         4 -13.5111    205.3788      8.7035   6.4847972156e+01   3.2555803308e+01      1.60982     1.071638  48.02  0.008195511    1.645    0.392
         5 -12.2645      2.1289      6.2016   1.2259568003e+02   7.3674618297e+01    0.7123627    0.3902716 -39.63  0.004794567    1.332    0.249
         6  -9.4169     33.0000      5.9345   1.0595549727e+02   7.0967307769e+01     0.188972   0.05550122 -38.87 0.0008062245    2.969    0.663
         7 -11.8482      2.1652     18.1519   1.2728171903e+02   7.1594793418e+01    0.6850019    0.2076144 -61.95   0.00292252    3.600    0.722
         8 -12.8432      3.0258    176.5378   1.4999220428e+02   3.8091725931e+01     2.011124    0.4495709 -79.14  0.007454249    3.632    0.725
         9 -10.9049    139.9840    249.9780   1.3094165962e+02   6.8274331186e+00    0.3865498    0.1287869  43.35  0.001828059    2.260    0.558
        10 -10.0495     98.8488    249.6418   1.3796948342e+02   1.3119771085e+01    0.2159978    0.1689621  57.49  0.001554883    1.110    0.099
        11 -10.5000    102.7835    248.1209   1.3716688806e+02   1.2782257556e+01    0.2303662      0.15676  71.70 0.0008261115    1.375    0.273
        12  -9.3213     67.1122    250.5250   1.4331737289e+02   1.7345738158e+01    0.1602877   0.07834819  47.75   0.00101152    1.542    0.351
        13 -10.7214     27.8683    248.9497   1.4944051548e+02   2.2305806579e+01    0.3751021    0.1407787  55.16   0.00235714    1.833    0.455
        14 -10.0014     33.3837    248.2352   1.4855513345e+02   2.1810402990e+01    0.2011921    0.1220195 -89.01  0.001102922    1.472    0.321
        15 -10.8580     35.0770    244.1890   1.4808415658e+02   2.2287778395e+01    0.3505033    0.2442715  39.13   0.00266401    1.737    0.424
        16 -11.1157      3.2565    248.6637   1.5311008625e+02   2.4889924983e+01    0.4865691    0.2235222  54.66  0.003602557    1.485    0.327
        17 -10.9516      2.0216    240.2125   1.5300051451e+02   2.6397982537e+01    0.3915883    0.1318061 -85.88  0.002343576    2.553    0.608
        18 -10.1275     81.5425    248.7321   1.4080776565e+02   1.5704386154e+01    0.2224491    0.1551682  62.49  0.001194467    1.053    0.051
        19  -9.2330      8.9449    237.0000   1.5183046482e+02   2.6267940147e+01    0.1484842   0.04521248  38.24 0.0008107188    3.000    0.667
        20  -8.6603    177.4277    227.2301   1.2142615757e+02   3.8823906880e+00    0.1411488    0.1191934 -69.36 0.0005510806    1.611    0.379
        21 -10.7506    173.1143    222.1421   1.2148620214e+02   5.3536819841e+00    0.4042695    0.2734674  50.26  0.002411225    1.320    0.242
        22 -12.4055     40.3677    234.6686   1.4670432372e+02   2.3296803552e+01    0.2831657    0.2120394 -75.94 0.0007951173    1.536    0.349
        23 -13.7595     46.5739    227.2271   1.4519917330e+02   2.3870490360e+01    0.9419587    0.5828903  62.23  0.005165262    1.197    0.165
        24  -8.6816    152.5173    212.9905   1.2405280371e+02   1.0372192827e+01    0.1564851    0.1283992 -57.45 0.0003323755    1.460    0.315
        25  -8.9590     32.8948    207.3907   1.4630970345e+02   2.9109451240e+01    0.1891085     0.111822  81.05 0.0005558611    1.372    0.271
        26 -11.7226     22.5046    201.2289   1.4780229648e+02   3.1394346382e+01    0.3705863    0.1613728  57.30  0.002190233    1.847    0.459
        27 -10.7034     15.1306    198.3064   1.4896564072e+02   3.2691157695e+01    0.2838552    0.1560853  56.18  0.001164803    1.465    0.318
        28  -9.7623    192.8357    195.0211   1.1344422400e+02   5.8838369399e+00    0.6555753    0.3263032 -62.40   0.00185914    7.488    0.866
        29  -8.6917     51.3083    197.2446   1.4210000557e+02   2.8948753554e+01    0.1601624    0.1015503  70.78 0.0007024701    1.314    0.239
        30  -9.7036     43.4219    192.3969   1.4323448622e+02   3.0860191022e+01    0.2998303    0.2302452  36.98 0.0008891308    1.599    0.375
        31 -11.5016     71.2044    191.6867   1.3761317580e+02   2.7476310106e+01    0.2496974    0.2116746 -75.61 0.0004414379    1.288    0.223
        32 -11.2031     65.5673    199.7633   1.3954196433e+02   2.6626311945e+01     0.290541    0.2167166 -54.78 0.0007373865    1.750    0.428
        33  -8.5651    104.0182    180.0882   1.2927163149e+02   2.4880294131e+01    0.1521381    0.1308938  70.62 0.0002880116    1.009    0.009
        34 -10.6373     80.6312    178.7644   1.3416310949e+02   2.8804906020e+01    0.2251783    0.1975778  83.98 0.0004432923    1.109    0.098
        35 -13.0020     67.8272    176.7353   1.3668812755e+02   3.1040149431e+01    0.4644365    0.2757648 -47.76  0.001640424    2.277    0.561
        36  -8.0295    171.3271    173.2803   1.1374253192e+02   1.3683472209e+01    0.1398032    0.1066307  16.49 0.0003929176    1.597    0.374
        37 -11.3862     87.7507    169.3604   1.3135863656e+02   2.9737741847e+01    0.5482392    0.5142329  67.68  0.003568745    1.197    0.164
        38 -10.2163    191.3990    154.9255   1.0595593137e+02   1.2834335613e+01    0.6115866    0.3823576 -76.61  0.002095144    4.032    0.752
        39 -11.3643      2.3449    152.5195   1.4863968947e+02   4.3126773707e+01    0.3301055    0.1974691  84.62  0.002194438    1.300    0.231
        40  -9.5949     99.6011    152.9960   1.2609169967e+02   3.1412630873e+01    0.2785801    0.2373039 -75.84 0.0007488771    1.125    0.111
        41 -11.7414     88.4261    152.3878   1.2867330863e+02   3.3360730368e+01    0.2691972    0.2460722 -47.74 0.0005697107    1.318    0.241
        42 -12.1920     67.2309    143.9656   1.3255764754e+02   3.8359516978e+01    0.6928129     0.443036  70.48   0.00342272    1.676    0.403
        43 -12.0399     33.4342    132.3910   1.3948322667e+02   4.4918823662e+01     0.656325    0.2228013 -74.89  0.002718029    2.774    0.640
        44  -8.8211    181.0374    143.9632   1.0568562936e+02   1.7057170421e+01    0.2325509     0.183085 -87.36 0.0007280856    1.725    0.420
        45  -8.7465    184.5099    147.9975   1.0585784363e+02   1.5554679439e+01    0.1967398    0.1281745 -66.15 0.0005121306    2.346    0.574
        46  -9.4837    110.5924    137.6990   1.2059105137e+02   3.2898975795e+01    0.3277429    0.2400351 -23.02  0.001260979    2.079    0.519
        47  -9.4231     87.0283    136.8280   1.2638983708e+02   3.7104222150e+01    0.2123181    0.1639272  74.47 0.0005025326    1.322    0.244
        48 -10.3246     98.0736    135.0846   1.2324082308e+02   3.5695075254e+01    0.2448731      0.22254 -42.00  0.000473212    1.264    0.209
        49  -8.8499    102.2449    148.7934   1.2472938893e+02   3.1897708097e+01    0.1761997    0.1635629 -36.67 0.0003786261    1.315    0.239
        50  -9.7012    163.8319    128.1970   1.0576588869e+02   2.3939234118e+01    0.5933655    0.3661163  88.85  0.001898651    3.852    0.740
        51 -12.7694     55.4356    214.7012   1.4273779069e+02   2.5068555896e+01     2.154665    0.7176712  48.89   0.01076419    2.328    0.571
        52  -9.5043    144.3150    229.3388   1.2777187822e+02   9.1785071375e+00    0.1154092   0.09009685  17.46 0.0003976763    1.700    0.412
        53  -9.2499    107.5359    124.1592   1.1855190324e+02   3.6503160841e+01     0.195112    0.1848703  72.35 0.0003327894    1.053    0.051
        54 -10.0540     32.5217    228.3537   1.4764346075e+02   2.5295658825e+01    0.1895533    0.1363992  69.81 0.0006139023    1.057    0.054
        55  -8.3399    192.2781    144.2934   1.0345739008e+02   1.4544780243e+01    0.1446307    0.1129797  10.03 0.0002369098    1.528    0.345
        56 -10.1411    168.0230    113.1923   1.0111464094e+02   2.5960095861e+01    0.3511254    0.2910117  87.41  0.000712471    1.434    0.303
        57  -8.9867    203.4806    111.5105   9.3429582938e+01   1.7885175657e+01    0.1495516    0.1466392  -6.54 0.0001157849    1.001    0.001
        58  -9.3666     35.0534     93.1033   1.3311009002e+02   5.3749344761e+01    0.2558098    0.1645273  44.14 0.0008982133    1.796    0.443
        59  -8.8847    156.1975     75.6344   9.3240831424e+01   3.6019425844e+01    0.2262777    0.1399413  44.65 0.0007745898    1.649    0.394
        60 -11.1955      1.9600     61.6746   1.3854107320e+02   6.2963882989e+01    0.4158287    0.1644939 -69.12  0.002164533    1.981    0.495
        61 -11.2909     13.8483     65.4547   1.3491324829e+02   6.1505195659e+01    0.3184242    0.2250801  38.76    0.0021158    1.768    0.434
        62 -11.1726      7.3619     63.2075   1.3684322840e+02   6.2364126605e+01    0.2241127    0.2229511 -47.69 0.0004553061    1.283    0.220
        63 -10.0547     31.5266     61.7427   1.2748130850e+02   6.0977375218e+01    0.2685189    0.2057208  45.81   0.00115598    1.635    0.388
        64 -10.8048     12.0124     54.7819   1.3329665195e+02   6.3878107802e+01    0.3171164    0.1296106  34.90  0.001631657    3.028    0.670
        65  -9.1554     46.6235    248.9586   1.4651511390e+02   2.0156156223e+01    0.2475564    0.1006782  62.01  0.001131385    1.964    0.491
        66 -10.9577    124.7361    250.1331   1.3358980494e+02   9.1769467001e+00    0.5182686    0.1029942  40.77  0.001802633    4.405    0.773
        67  -9.3457     82.1425    243.2480   1.4027831305e+02   1.6506769629e+01    0.2108358    0.1103705  72.67  0.001228177    1.990    0.497
        68 -10.9891     12.8822    242.0623   1.5143088424e+02   2.5023275764e+01    0.2852406    0.1260654 -82.66  0.001928158    1.993    0.498
        69 -13.5089      7.9616    207.2651   1.5069355209e+02   3.1666276371e+01     5.482903    0.8060618  41.12  0.005698204    3.800    0.737
