#   1 NUMBER                 Running object number                                     
#   2 MAG_AUTO               Kron-like elliptical aperture magnitude                    [mag]
#   3 X_IMAGE                Object position along x                                    [pixel]
#   4 Y_IMAGE                Object position along y                                    [pixel]
#   5 X_WORLD                Barycenter position along world x axis                     [deg]
#   6 Y_WORLD                Barycenter position along world y axis                     [deg]
#   7 A_WORLD                Profile RMS along major axis (world units)                 [deg]
#   8 B_WORLD                Profile RMS along minor axis (world units)                 [deg]
#   9 THETA_WORLD            Position angle (CCW/world-x)                               [deg]
#  10 FWHM_WORLD             FWHM assuming a gaussian core                              [deg]
#  11 ELONGATION             A_IMAGE/B_IMAGE                                           
#  12 ELLIPTICITY            1 - B_IMAGE/A_IMAGE                                       
         1  -8.3829     96.3407     14.6609   2.3197256060e+01   5.9031342729e+01     0.223248    0.1673232 -71.41  0.001129068    1.784    0.440
         2 -10.4697      2.0690     11.2436   6.8280364872e+01   7.5080366008e+01    0.5091662    0.2577401  43.65    0.0025325    3.159    0.683
         3 -10.1193      4.8075      8.3232   6.4843671027e+01   7.5452574607e+01    0.3753367    0.1712439  30.43   0.00198427    2.476    0.596
         4  -8.2160     55.6076      9.7769   3.4822577120e+01   6.8412899874e+01    0.1694499    0.1159181 -37.82  0.000453421    1.611    0.379
         5  -8.3291     28.2770      9.6594   4.9219264206e+01   7.2831387407e+01    0.1075666   0.09953834 -66.30 0.0005289742    1.619    0.382
         6  -8.7807     21.3937      9.6098   5.3626404228e+01   7.3683975123e+01    0.2161474   0.09371383  42.62 0.0009484824    3.244    0.692
         7  -8.2615     70.3705      6.2488   2.7044892851e+01   6.5857126739e+01    0.1773625    0.1177222 -33.16 0.0007213776    1.627    0.385
         8  -8.4932     79.3286      4.4219   2.3152064623e+01   6.4074908360e+01    0.2262915    0.1214465 -22.96  0.001079103    1.965    0.491
         9  -8.3314     33.4923      5.0057   4.3277143914e+01   7.2802980168e+01    0.1834407    0.1117807 -35.14  0.001026477    1.605    0.377
        10  -8.4139     15.7029      3.5311   5.4035410981e+01   7.5319765846e+01    0.2071467   0.09486271 -44.16  0.001063948    2.016    0.504
        11  -8.0919     62.5053      1.4419   2.7254149293e+01   6.8018682223e+01    0.1281096    0.1143394  26.25 7.323109e-05    1.063    0.059
        12  -8.8473    175.4394    247.4533   6.1828105231e+01   1.6673519923e+00    0.2173833    0.1563761  60.71  0.001322543    2.351    0.575
        13  -9.5883    237.5111    242.1234   5.0294187167e+01  -5.6811069605e+00    0.4837707    0.2056245  15.15  0.002356124    3.000    0.667
        14  -9.9813    246.6634    228.2729   4.6729506569e+01  -5.3114646195e+00    0.4731018    0.1884221 -23.30  0.002500213    2.630    0.620
        15  -8.5420    250.4994    237.0456   4.7469526199e+01  -6.6733319480e+00    0.1818154    0.1231465  16.38 0.0006163972    1.151    0.131
        16  -9.6317    246.2637    234.2916   4.7719422095e+01  -5.8989813780e+00    0.5422904    0.2007696  22.27  0.002593416    3.030    0.670
        17  -8.7920    241.5513    250.4832   5.0855815063e+01  -6.9935615299e+00    0.1874247    0.1028993  18.71 0.0006392826    1.417    0.294
        18  -8.9297    242.6161    247.2198   5.0217734655e+01  -6.7923318639e+00     0.199885    0.1289352 -15.03 0.0008377058    1.415    0.293
        19  -9.1489    249.9912    249.4727   4.9382224169e+01  -7.8412396862e+00    0.2556139    0.1475716  16.97  0.001102966    1.309    0.236
        20 -10.2264    247.7073    242.6329   4.8741892086e+01  -6.9162644660e+00    0.4116031    0.2695311  17.13  0.002068602    1.156    0.135
        21  -9.1183    234.5109    250.4887   5.1987138049e+01  -6.1843719555e+00    0.1948214    0.1321151  24.59  0.000621047    1.263    0.208
        22  -8.8223    232.4798    246.5493   5.1755682511e+01  -5.5434058063e+00    0.1857985    0.1493986 -10.16  0.000954823    1.372    0.271
        23  -8.0348    222.9277    251.0000   5.3962194175e+01  -4.8638240054e+00    0.1693247   0.04775101  34.48 0.0006030722    2.851    0.649
        24  -9.1103    214.9345    250.3049   5.5209954309e+01  -3.8129630750e+00    0.3072303    0.1061341  32.41  0.001142315    2.298    0.565
        25  -9.2101    219.1429    245.8193   5.3868935326e+01  -3.8469452372e+00    0.3893565    0.1682556 -21.61   0.00203748    2.919    0.657
        26 -10.0440    223.8761    243.7860   5.2781903302e+01  -4.2110771612e+00    0.3696288    0.1900372 -40.07  0.002231161    2.588    0.614
        27  -8.9840    185.1846    250.1319   6.0398345262e+01   2.7828104591e-02    0.2491453    0.1225161  36.52  0.001033454    1.637    0.389
        28  -8.8969    134.9270    250.4827   6.9827248912e+01   6.8188512572e+00    0.2421852    0.1298465  39.00 0.0008416633    1.425    0.298
        29  -9.0149    131.8041    247.5770   7.0114672757e+01   7.6676578131e+00    0.1899484    0.1559125  68.28 0.0005786203    1.534    0.348
        30  -9.6302    126.1301    249.5778   7.1425311315e+01   8.1546426511e+00    0.4594805    0.1975176  23.03  0.001958851    3.297    0.697
        31 -10.2542    120.3474    245.6794   7.2147243273e+01   9.5298261766e+00    0.3790274    0.2510723  82.26  0.002091381    2.454    0.592
        32  -8.8233     93.8084    249.2087   7.7671451310e+01   1.2540293578e+01    0.2989247    0.1168437  50.50  0.001284217    2.359    0.576
        33  -9.9062     88.9924    246.9430   7.8420637008e+01   1.3527442394e+01    0.3968455    0.1791463  50.47  0.001747509    1.920    0.479
        34  -8.9012     88.3643    242.1930   7.8143821294e+01   1.4385720200e+01     0.186742    0.1624667  62.40 0.0007502784    1.184    0.155
        35  -8.1513     86.4879    250.4694   7.9195507099e+01   1.3282972652e+01    0.1154296   0.08603026  45.35 0.0003856895    1.006    0.006
        36  -8.6657     27.0097    250.4921   9.0421003096e+01   2.0151643126e+01    0.1599746    0.0796398  37.91 0.0007113604    1.571    0.364
        37  -8.8835    156.1652    247.9176   6.5485597878e+01   4.2486029897e+00    0.1711075    0.1320963  44.66 0.0007479076    1.337    0.252
        38  -9.6555    143.7349    247.6171   6.7818504072e+01   6.0104243662e+00     0.257274    0.1486167  37.46  0.000626782    1.334    0.250
        39  -9.5816    146.6443    245.3466   6.6996357942e+01   5.9259377298e+00    0.2593489    0.1614133  61.66  0.001173828    2.541    0.607
        40  -9.1981     20.7347    247.7710   9.1453339336e+01   2.1242716359e+01     0.193149    0.1211936  48.34  0.000510408    1.158    0.136
        41  -9.3284    210.8963    246.3343   5.5348764910e+01  -2.8695930216e+00    0.1903248    0.1536094 -42.63  0.001066401    1.933    0.483
        42  -8.5344    168.7169    247.1651   6.3036676054e+01   2.6213299772e+00    0.2039277    0.1204761  37.57 0.0007871597    1.387    0.279
        43  -8.8765     57.2342    246.6110   8.4564200185e+01   1.7498902712e+01    0.1493269   0.09075128  29.46 0.0004542215    1.629    0.386
        44  -9.0189    159.0653    244.4571   6.4513986227e+01   4.3159954002e+00     0.233972    0.1318832  25.49 0.0007197434    1.554    0.357
        45  -9.2981    160.0699    240.1589   6.3783250912e+01   4.7658976851e+00     0.280845    0.2124636  85.19  0.001505308    2.569    0.611
        46  -8.9192     45.2896    244.1186   8.6704659006e+01   1.9286270738e+01    0.2063155    0.1190858  43.43 0.0005038537    1.296    0.228
        47  -8.2735    201.6554    242.8164   5.6469136789e+01  -1.2726488473e+00    0.1300345    0.1021221 -35.82 0.0006533369    1.682    0.405
        48  -9.5024    196.0983    242.0297   5.7347818201e+01  -4.4355793169e-01    0.3545518    0.2331184  49.10  0.002178711    2.120    0.528
        49  -8.3985    168.9653    243.0397   6.2464679745e+01   3.1289871112e+00    0.1671997    0.1277385  53.48 0.0006226697    1.704    0.413
        50  -8.7808    149.4500    242.7699   6.6149221561e+01   5.8973108644e+00    0.2307267     0.127396  36.35 0.0007448246    1.405    0.288
        51  -9.0668    179.8339    241.6349   6.0254151744e+01   1.8098851528e+00    0.2529117     0.125017  39.15 0.0008152449    1.730    0.422
        52  -8.9894    182.4822    239.4893   5.9474899247e+01   1.7209673697e+00    0.2688628    0.1960478  52.65  0.001517101    1.912    0.477
        53  -9.3573    134.7895    242.0209   6.8916028032e+01   8.0702051213e+00    0.2036298    0.1601369  33.52 0.0005676943    1.016    0.016
        54  -8.6073    135.2856    238.6412   6.8430008037e+01   8.5066920545e+00    0.1426662    0.1188193  74.11 0.0009704703    1.578    0.366
        55  -9.7069    115.2074    242.2227   7.2805977240e+01   1.0770862148e+01    0.1723451    0.1365488  29.88 0.0006989876    1.152    0.132
        56  -8.2027     97.2462    242.6173   7.6414978856e+01   1.3145203507e+01    0.1648716    0.0932676  29.82 0.0009446132    1.614    0.381
        57  -9.1643     28.9403    241.2211   8.9662181976e+01   2.1544191742e+01    0.2005749     0.130602  45.71 0.0005804597    1.182    0.154
        58  -8.6868     34.2443    247.7706   8.8971675870e+01   1.9860347730e+01    0.1924687    0.1004576  45.85 0.0007001004    1.371    0.270
        59  -9.4150     61.2704    240.8586   8.3405724006e+01   1.8003692937e+01    0.2020832    0.1129204  46.18  0.000606483    1.340    0.254
        60 -10.1421     71.1719    238.4807   8.1272418732e+01   1.7206905200e+01     0.299224    0.1765077  43.00 0.0005104704    1.291    0.226
        61  -8.8081     37.0314    240.3580   8.8083431544e+01   2.0843397263e+01    0.1615421    0.1054798  47.83 0.0005711885    1.145    0.127
        62  -9.6959      2.5742    239.6032   9.4471777515e+01   2.4363902661e+01     0.191186    0.1361845  56.82 0.0005634784    1.047    0.045
        63  -8.4463    204.1591    239.1556   5.5509854618e+01  -1.1686009206e+00    0.1630202    0.1226437  17.47  0.001166861    1.029    0.028
        64  -8.8768    203.0230    234.5141   5.5042317423e+01  -4.5767866099e-01    0.2054999    0.1624012 -48.37 0.0009373989    1.978    0.494
        65  -9.7404    124.3636    238.9732   7.0638616180e+01   1.0001748066e+01    0.2904581    0.1366098  38.34 0.0008391691    1.640    0.390
        66 -10.5874     17.3056    237.7797   9.1703264828e+01   2.3315284976e+01    0.3849154    0.1719525  30.63  0.001384246    2.107    0.525
        67  -8.1220    209.0205    238.2129   5.4520276517e+01  -1.6963838100e+00     0.133174     0.123881 -29.59 0.0005725215    1.644    0.392
        68  -8.2098    172.9891    238.5152   6.1114339955e+01   3.1699819983e+00    0.1808385   0.09284625  33.50 0.0005970295    1.537    0.350
        69  -9.6636    106.4594    238.0125   7.4130801653e+01   1.2648414024e+01    0.2645327    0.1593534  32.95 0.0004806172    1.393    0.282
        70  -9.6405    108.4825    233.9071   7.3303064024e+01   1.3043131531e+01    0.3572587    0.1814388  54.42  0.001439425    2.103    0.524
        71  -9.2095     52.2974    238.1021   8.4990940294e+01   1.9538529833e+01    0.2107056    0.1231435  45.64 0.0005222923    1.284    0.221
        72  -9.1378    230.6628    236.6861   5.0610366064e+01  -4.2758833012e+00    0.1695322    0.1599777  -7.91 0.0009952324    1.721    0.419
        73  -9.2108    226.2814    236.8819   5.1369422291e+01  -3.7537063116e+00    0.2119937    0.1346333  14.26 0.0007086366    1.261    0.207
        74  -8.6014    217.2966    235.6830   5.2716130016e+01  -2.4776297013e+00    0.1830129    0.1265051   1.25 0.0005881031    1.263    0.208
        75  -9.4331    213.6740    231.6647   5.2744859765e+01  -1.5346800600e+00    0.2746168    0.2381192  79.21  0.001608656    2.588    0.614
        76  -9.7362    175.3748    232.9006   5.9900198156e+01   3.5903938456e+00    0.3781066    0.2891565 -67.15  0.002354138    2.322    0.569
        77  -8.4480    149.0079    236.4716   6.5463335022e+01   6.8676290357e+00    0.1869527   0.09478798  36.02 0.0008372613    1.551    0.355
        78  -8.6273     44.0324    235.6978   8.6471644448e+01   2.0902743291e+01     0.161793     0.109523  46.00 0.0004356333    1.148    0.129
        79  -8.6495    198.6160    235.4897   5.5972258511e+01   1.7549047240e-02    0.2391934   0.09197287  34.57  0.001197035    2.118    0.528
        80  -8.5773    185.4999    234.5633   5.8234587453e+01   1.9399817294e+00    0.1870103    0.1398461  22.69 0.0006213817    1.037    0.035
        81  -9.1776    186.0998    229.9762   5.7470019379e+01   2.4591203807e+00    0.2844172    0.2051492 -62.95   0.00144286    2.648    0.622
        82  -7.7546    170.2796    235.6214   6.1239417902e+01   3.9441805591e+00    0.1081208   0.08713982  57.50 0.0007008101    1.712    0.416
        83  -9.3507     93.8811    233.8815   7.6285502547e+01   1.5051149758e+01    0.3355639    0.2167278  64.10  0.002033117    1.662    0.398
        84  -9.6868    131.8958    233.7319   6.8532525202e+01   9.7459668776e+00    0.2483229    0.1757756 -11.02  0.001460033    2.027    0.507
        85  -8.4075     99.7988    234.2222   7.5108372753e+01   1.4189845160e+01    0.2072591    0.0993254  60.47 0.0009543608    2.797    0.642
        86  -8.7424     78.0469    233.7536   7.9509315901e+01   1.7159570126e+01    0.2038204    0.1347271  74.63  0.001270613    1.660    0.398
        87  -9.7786     69.0258    232.7323   8.1265391376e+01   1.8481497616e+01     0.434664    0.1545372  56.38  0.001865285    3.126    0.680
        88  -7.9411     38.4883    234.4584   8.7490348653e+01   2.1734600748e+01     0.113056   0.08417367  55.27 0.0008090861    1.007    0.007
        89  -9.5539      6.6073    234.4998   9.3580486543e+01   2.4904634368e+01    0.2088283   0.08404835  32.59  0.001207569    2.153    0.535
        90  -9.9187    234.9937    231.9943   4.9188035857e+01  -4.2967198236e+00    0.4177791    0.2236925 -12.18  0.002086557    1.951    0.487
        91 -10.0919    242.2759    217.1000   4.5658045107e+01  -3.5400933997e+00    0.3767644    0.1739324  19.27  0.001978047    2.310    0.567
        92  -9.0222    238.6985    221.1781   4.6894151070e+01  -3.5522924212e+00    0.1884519    0.1484209 -30.81 0.0005625068    1.629    0.386
        93  -8.4874    141.1992    233.6238   6.6655328095e+01   8.4188271134e+00    0.1764358   0.09498262  28.12 0.0008382277    1.673    0.402
        94  -8.3180    194.4382    232.5252   5.6300885878e+01   9.6097442314e-01    0.1165237   0.09144221  19.75 0.0003635614    1.060    0.056
        95  -9.2026    144.8095    226.4309   6.5021214469e+01   8.9969077561e+00    0.3693793    0.1405611  36.17  0.001252353    2.123    0.529
        96  -8.8948    151.3070    228.9608   6.4047977456e+01   7.6494144167e+00    0.2464414    0.1719066  68.30  0.001104043    2.363    0.577
        97  -9.4838    148.4461    224.2792   6.4002410065e+01   8.7903206557e+00    0.3768963    0.2496599  68.75  0.001929306    2.671    0.626
        98  -9.3141     10.9650    231.3127   9.2656502445e+01   2.5079129248e+01    0.1537847    0.1067359  51.26 0.0006291565    1.112    0.101
        99  -8.8486    206.2908    230.0123   5.3796805599e+01  -3.4679093274e-01    0.2750623    0.1342655  33.09  0.001551789    1.696    0.410
       100  -8.7550    206.0690    226.0620   5.3241146814e+01   1.7464755592e-01    0.2017573    0.1523215 -48.26 0.0009202991    2.029    0.507
       101  -8.8130    139.9526    229.9560   6.6451130306e+01   9.1642795854e+00    0.1873519    0.1263998  54.75 0.0005378185    1.683    0.406
       102  -8.5002    125.7730    230.3882   6.9382051445e+01   1.1160915286e+01    0.1948312   0.09901679  36.72 0.0006143475    1.563    0.360
       103  -9.2891    128.0347    227.2513   6.8546863489e+01   1.1340604428e+01     0.306199    0.2045453  62.83  0.001642892    1.908    0.476
       104  -9.5029     31.6715    229.6317   8.8577151791e+01   2.3339961695e+01    0.2059056    0.1571676  53.90 0.0004564213    1.062    0.058
       105  -8.6208    113.5955    223.7491   7.1139060574e+01   1.4030675070e+01    0.1473006    0.1170914 -88.54 0.0005234917    1.583    0.368
       106 -10.0618    114.0091    228.0185   7.1533491114e+01   1.3245361698e+01    0.5384184    0.1658823  40.17  0.002284807    2.492    0.599
       107  -8.4328    102.7985    229.3303   7.3999794294e+01   1.4606851179e+01    0.2112136    0.1323519  31.09 0.0006944815    1.429    0.300
       108  -9.2716    161.6486    227.7812   6.1844357873e+01   6.3029423347e+00    0.2671236    0.1908087  37.25  0.001289105    1.208    0.172
       109  -8.1255    122.8217    233.9883   7.0394670405e+01   1.1006228256e+01    0.1821555    0.1243801  68.92 0.0009965954    1.979    0.495
       110  -9.3277     61.2448    227.4857   8.2462364942e+01   2.0386972794e+01    0.2564487    0.1516544  42.97 0.0009614455    1.324    0.245
       111  -8.8727     47.5820    227.9286   8.5290683320e+01   2.1914150576e+01    0.2045567    0.1717279   3.22  0.001141695    1.746    0.427
       112  -8.2926     39.2591    228.5646   8.7009122663e+01   2.2725070765e+01    0.1430588   0.09784901  29.31 0.0008846618    1.541    0.351
       113  -8.9265     20.1387    227.8883   9.0758960085e+01   2.4831116580e+01     0.257545    0.1243682  35.28  0.001229281    1.761    0.432
       114  -9.5128    179.4906    225.3320   5.8043756571e+01   4.0393897847e+00    0.3488576     0.228754  -0.81   0.00119954    1.791    0.442
       115  -8.6832     95.0208    227.5237   7.5436704808e+01   1.5996147326e+01    0.2613826    0.1643901  16.93  0.001406856    2.099    0.524
       116  -8.6663     93.6694    223.6401   7.5333598345e+01   1.6870455949e+01    0.2599148    0.1483861  74.27 0.0008165379    2.513    0.602
       117  -9.7195    225.1124    222.4482   4.9359160099e+01  -1.9484574005e+00    0.4040402    0.2276964 -19.84  0.002448368    1.781    0.439
       118  -9.5493      5.7137    225.4744   9.3453829512e+01   2.6629936628e+01     0.172702    0.1354078  65.51 0.0002907644    1.110    0.099
       119  -8.6697    190.0526    225.4927   5.6077656389e+01   2.4943187151e+00    0.2839428   0.09556149  30.95   0.00119627    2.791    0.642
       120  -9.1851     73.4861    224.7696   7.9697640715e+01   1.9355915595e+01     0.246244    0.1716671  24.80  0.001173664    1.572    0.364
       121  -9.3551     11.0498    225.2952   9.2420598611e+01   2.6178112409e+01    0.1560518    0.1065421  50.70 0.0004887588    1.137    0.120
       122  -8.8518    216.4313    223.1267   5.0959936930e+01  -8.7318186253e-01    0.2065935     0.184589 -50.89 0.0009873228    1.890    0.471
       123  -9.1531    166.4446    224.0494   6.0383334716e+01   6.1410246474e+00    0.5294809    0.1440446  42.34   0.00198204    3.439    0.709
       124  -8.9473    104.7331    223.4134   7.2969474524e+01   1.5360623380e+01    0.3047582    0.1818098  67.78  0.001582934    2.238    0.553
       125  -8.6324    172.8930    222.8199   5.8948339078e+01   5.3635764098e+00    0.1929961    0.1612896  86.31   0.00090578    2.065    0.516
       126  -9.9630    120.2571    219.1494   6.9190444347e+01   1.3846546183e+01    0.4383307    0.2143901  57.68  0.001898897    2.907    0.656
       127  -9.0645    202.2868    221.0970   5.3161124433e+01   1.3361946828e+00    0.2981112    0.1252306 -24.17  0.001290867    3.442    0.709
       128  -9.4014    192.4622    221.3045   5.4999392199e+01   2.7110479752e+00     0.281621    0.2310715  59.54  0.001356219    1.916    0.478
       129  -8.4264    140.4383    222.2361   6.5364936260e+01   1.0313299307e+01    0.1496277    0.1222033 -77.83 0.0009426922    1.713    0.416
       130  -8.8148    209.6757    219.8516   5.1637975193e+01   4.6089752336e-01    0.2925423     0.160235 -12.79  0.001338774    2.251    0.556
       131  -8.7498     54.1406    221.1614   8.3477522855e+01   2.2418678749e+01    0.2198835    0.1477103  66.78 0.0005936345    1.340    0.253
       132  -9.1286     51.6163    217.3155   8.3733251433e+01   2.3451211577e+01    0.2681093    0.1475417  71.46  0.001109348    1.861    0.463
       133  -9.0593     17.9134    220.2126   9.0863845592e+01   2.6488133717e+01    0.1901747    0.1344247  58.08 0.0005229968    1.057    0.054
       134  -8.5491    158.7071    220.1762   6.1370593680e+01   7.8808499397e+00    0.1709829     0.152189  66.42 0.0005705569    1.487    0.328
       135  -9.1744    132.8195    219.8485   6.6633607617e+01   1.1849464892e+01    0.4413084    0.2446504  23.69  0.002098949    1.955    0.489
       136  -9.0705    132.1527    215.2053   6.6168459824e+01   1.2732068433e+01    0.2746741    0.1979003  88.74   0.00122178    2.173    0.540
       137  -8.6608     82.6442    220.3006   7.7354403631e+01   1.8978274537e+01    0.2036091    0.1158658  60.01   0.00110009    1.788    0.441
       138  -8.5456     61.8386    216.9964   8.1526450651e+01   2.2283073925e+01    0.2560254    0.1198702  71.85 0.0008533582    2.792    0.642
       139  -8.7270     42.9969    220.0552   8.5731558969e+01   2.3911258505e+01    0.1782102    0.1362562  55.12 0.0004424216    1.022    0.022
       140  -8.0775    218.3701    219.2684   5.0015617085e+01  -6.6173188340e-01    0.1223806   0.07288727  10.13 0.0003699922    1.666    0.400
       141  -9.2320     96.9105    218.5966   7.4120013745e+01   1.7329550817e+01    0.3909658    0.1477557  41.75  0.001776529    2.096    0.523
       142  -8.4681      1.4194    218.9580   9.4069144336e+01   2.8227701263e+01    0.1488133   0.08617633  85.64 0.0003844772    1.519    0.342
       143  -9.0483    238.6700    224.6852   4.7454076362e+01  -3.9434719237e+00    0.2346423    0.1035682  23.69   0.00108122    2.146    0.534
       144  -8.5755    185.0686    218.5555   5.5972579700e+01   4.1688542163e+00    0.1883609    0.1005888  33.78  0.001019058    1.568    0.362
       145  -9.2518    152.6639    218.0953   6.2299516990e+01   9.1223058410e+00    0.2542487     0.176933  20.85  0.000592869    1.374    0.272
       146  -8.9193    142.6054    217.0650   6.4226314988e+01   1.0824402212e+01    0.2903119    0.1964916 -45.57  0.001529401    1.761    0.432
       147  -9.2573    107.7009    216.8587   7.1603202653e+01   1.6097573097e+01    0.2454552    0.1489466  41.23 0.0006015768    1.348    0.258
       148  -9.9553    235.8623    208.6378   4.5314106388e+01  -1.7173513339e+00    0.3940344    0.2415523  -2.03  0.002359993    1.589    0.371
       149  -8.4496    232.2964    214.6357   4.6896118705e+01  -1.9651584381e+00    0.1811507    0.1627203 -51.38 0.0009351338    1.986    0.497
       150  -8.7395    169.3320    215.8728   5.8625402258e+01   6.9215882571e+00    0.2091187    0.1857274  71.94  0.001109937    1.619    0.382
       151  -8.4477    163.5429    216.5523   5.9879465236e+01   7.7012741234e+00    0.2570682    0.1035543  37.19  0.001056051    2.069    0.517
       152  -9.4025     72.4542    211.3008   7.8724083592e+01   2.2037196142e+01     0.377316    0.1564199  60.46  0.001558273    3.078    0.675
       153  -9.3967     11.3820    215.5808   9.1978264088e+01   2.7990181877e+01     0.233604    0.1427877  38.88 0.0008882163    1.437    0.304
       154  -7.9125    212.3234    215.2898   5.0442703019e+01   6.7435162924e-01    0.1223729   0.07640992   7.49 0.0007011683    1.609    0.378
       155  -9.3504    213.7564    211.9352   4.9645585056e+01   9.0537819289e-01    0.2934571    0.2253129  47.94  0.001543313    1.812    0.448
       156  -8.1836    185.5274    214.0502   5.5191063196e+01   4.7391634450e+00      0.14221    0.1125276 -74.06 0.0008077919    2.413    0.586
       157  -9.1303     92.8998    213.8413   7.4483021507e+01   1.8773020466e+01    0.2635776    0.1595509  61.70  0.001154274    1.785    0.440
       158  -9.1774     32.7370    213.5190   8.7479740656e+01   2.6292135402e+01    0.2045905    0.1825967  89.04 0.0006410402    1.273    0.215
       159  -8.1433    197.6649    213.6741   5.2844655088e+01   2.9917819569e+00    0.1282725   0.08106637   6.14  0.000705147    1.718    0.418
       160  -9.0662     86.2255    214.8597   7.6047755944e+01   1.9509059245e+01    0.2665946    0.1521804  34.10 0.0007839586    1.544    0.352
       161  -8.5314    161.6653    212.1844   5.9612750532e+01   8.6680375209e+00    0.1732595    0.1588491  71.64 0.0007792301    1.458    0.314
       162  -9.0313     66.9358    211.8466   7.9987186476e+01   2.2642045828e+01    0.3766817    0.1257371  37.87  0.001520765    2.331    0.571
       163  -9.6110      2.9044    211.6755   9.3533934342e+01   2.9499133555e+01    0.2205556    0.1628073  43.15 0.0007335251    1.274    0.215
       164  -8.8793    204.2673    210.8245   5.1171578018e+01   2.4144305456e+00    0.1869145    0.1779646 -33.90 0.0006971947    1.511    0.338
       165  -9.3745    175.3811    209.7880   5.6499205619e+01   6.9115013378e+00    0.3251486    0.2226776  60.77  0.001493937    2.369    0.578
       166  -8.3054    171.9519    212.0000   5.7520395977e+01   7.1055806701e+00    0.2083783   0.06133485  37.37 0.0006901468    2.888    0.654
       167  -8.2046    144.5192    211.5479   6.3059832137e+01   1.1440769751e+01    0.1935896    0.1019219  42.69 0.0008532781    1.674    0.403
       168  -8.5317    147.7193    210.1523   6.2189245514e+01   1.1173114710e+01    0.2352154     0.187897  48.02 0.0009238517    1.277    0.217
       169  -8.8746     45.0473    211.1027   8.4699276668e+01   2.5423957719e+01    0.2253777    0.1598167 -52.46  0.001414986    1.843    0.457
       170  -8.3688    192.2409    210.2247   5.3308824831e+01   4.2765592706e+00    0.1519956    0.1392312  34.38 0.0005743714    1.355    0.262
       171  -8.7896    116.0817    210.1620   6.8974782901e+01   1.6063853863e+01      0.24312    0.1479354  52.34 0.0008178703    1.630    0.387
       172  -8.8571     85.8553    209.6751   7.5595882532e+01   2.0549023722e+01    0.2423831    0.1409369  70.03   0.00122036    2.130    0.531
       173  -8.8872     96.6524    208.9173   7.3112388501e+01   1.9168391440e+01    0.2652172    0.1393162  47.52  0.001192256    1.666    0.400
       174  -9.1248     99.1997    205.8734   7.2191174691e+01   1.9379903748e+01     0.339224    0.2283263  70.60  0.001347601    1.764    0.433
       175  -8.4363     57.6071    209.2824   8.1821082211e+01   2.4309161958e+01     0.192399    0.1442646  13.63  0.001164755    1.775    0.437
       176  -9.4158    246.3543    207.0764   4.3350251477e+01  -2.9032353320e+00    0.2493409    0.1558772 -23.46  0.001014126    1.448    0.309
       177  -9.4847    250.1196    202.2915   4.1945231622e+01  -2.8270812729e+00    0.3740948    0.1742946 -27.31  0.001579785    1.961    0.490
       178  -8.2003    139.0260    207.9507   6.3712263425e+01   1.2910265988e+01    0.1983646    0.1454921  62.03  0.001114291    1.688    0.408
       179  -8.5674    134.8579    208.1365   6.4631489105e+01   1.3531828602e+01    0.1805214    0.1391175  17.79 0.0006845626    1.339    0.253
       180  -8.5168    126.4101    208.2389   6.6471690875e+01   1.4829265643e+01    0.1606908     0.125204 -78.73 0.0007779453    1.687    0.407
       181  -9.4591     24.4238    207.7908   8.8916575264e+01   2.8279650540e+01    0.2491647    0.1691763  37.38 0.0005902202    1.381    0.276
       182  -9.7213    163.5656    202.7890   5.7782410050e+01   9.8699203639e+00    0.3809215    0.2674804  60.96  0.001264155    2.052    0.513
       183 -10.3537     11.3856    202.5346   9.1424889302e+01   3.0572254006e+01    0.2617379    0.1714327  53.89 0.0006478925    1.202    0.168
       184  -8.7246    198.9646    199.7744   5.0316113823e+01   4.7493351953e+00    0.2532487    0.1103242  35.18  0.001194537    2.057    0.514
       185  -9.6289    194.9034    203.4708   5.1701876906e+01   4.8389286950e+00    0.3331752    0.2404104 -30.34  0.001597662    1.464    0.317
       186  -9.9444    192.5820    197.3761   5.1116645352e+01   6.0923688660e+00    0.4773451    0.3327673 -28.58  0.002709206    1.486    0.327
       187  -9.4045     77.7223    205.5897   7.6996293649e+01   2.2460856807e+01    0.3919294    0.1441661  37.05   0.00173092    2.224    0.550
       188  -9.1282    183.8596    203.9435   5.3900395651e+01   6.4755714327e+00    0.2932059     0.231566  65.03   0.00141527    2.009    0.502
       189  -8.2375     56.3701    205.1759   8.1757578477e+01   2.5283084014e+01    0.1696281    0.1022034  84.72 0.0008526123    1.776    0.437
       190  -8.3739     50.1143    205.5254   8.3179430493e+01   2.5957997762e+01    0.1849024    0.1013938  37.44  0.001023419    1.573    0.364
       191  -9.1186     38.4426    205.4097   8.5746383022e+01   2.7300437285e+01     0.368717    0.1467944  23.87   0.00161276    3.153    0.683
       192  -8.8820      2.0367    205.4754   9.3491610344e+01   3.0793025840e+01     0.153183   0.09382357  36.04 0.0005453406    1.529    0.346
       193  -8.2569    150.9686    204.4673   6.0666206508e+01   1.1609775526e+01    0.2021744    0.1109559  37.25 0.0005606998    1.555    0.357
       194  -8.7518    131.2370    203.7837   6.4804930602e+01   1.4871067615e+01    0.2427471    0.1825736  63.39  0.001082154    1.580    0.367
       195  -8.6613    120.9543    204.2107   6.7126356467e+01   1.6405419993e+01    0.2413339    0.1628314  21.44 0.0007904983    1.617    0.382
       196  -8.1968     88.5089    204.5746   7.4451826191e+01   2.1170618208e+01    0.1291622    0.1069274  49.34 0.0003041929    1.014    0.014
       197  -8.5875    229.5156    216.4589   4.7658324503e+01  -1.8156812531e+00    0.2398101    0.1247414  11.70 0.0007644172    2.199    0.545
       198  -8.7244    178.1948    203.3909   5.4923867539e+01   7.4476756455e+00    0.2224701    0.1396495  38.74 0.0007156635    1.445    0.308
       199  -9.0905    140.7277    201.6269   6.2427729928e+01   1.3741120681e+01    0.4072953    0.2706478  84.79  0.001833879    3.065    0.674
       200  -8.5442    210.8472    201.7533   4.8469704652e+01   2.6805726595e+00    0.1885701    0.1616894 -62.74 0.0006942834    1.999    0.500
       201  -9.0931    243.1643    200.5414   4.2751070786e+01  -1.7091788170e+00    0.2456435    0.1399845 -21.56 0.0009397048    1.599    0.375
       202  -7.9411    222.2917    201.6111   4.6423123706e+01   1.0360597910e+00    0.1026885    0.0977715 -63.50 0.0007010805    1.768    0.434
       203  -8.2570     79.8747    201.0701   7.6038234554e+01   2.3071735490e+01    0.2155605    0.1243338  69.36 0.0009566502    2.072    0.517
       204  -9.4107    149.5990    198.5515   6.0049669984e+01   1.2841503538e+01    0.3597772     0.260216  79.27  0.001382788    2.373    0.579
       205  -8.8101    123.8674    199.0545   6.5767032453e+01   1.6903854434e+01     0.246821    0.1829784  84.95 0.0008846259    1.869    0.465
       206  -9.1880    112.6138    198.5698   6.8239373381e+01   1.8761547564e+01    0.3633512    0.2792881  69.00  0.001955231    1.473    0.321
       207  -8.3411     59.5716    200.6816   8.0648504985e+01   2.5806887640e+01    0.2179689   0.09805512  35.29  0.001058825    1.932    0.482
       208  -8.6335     28.8170    199.6113   8.7493937356e+01   2.9503544679e+01    0.1904693    0.1233003  86.63 0.0008870338    1.428    0.299
       209  -9.2653    237.1347    198.6030   4.3397675056e+01  -6.5709730609e-01    0.1929974    0.1392954 -29.02 0.0007901969    1.434    0.303
       210  -8.4224    177.0339    198.9759   5.4431001238e+01   8.3182662321e+00    0.1830696     0.156097  65.77 0.0005841195    1.667    0.400
       211  -8.0442    133.9713    199.2105   6.3545507486e+01   1.5259818122e+01    0.1855758    0.0933874  37.34 0.0007804691    1.708    0.414
       212  -8.9294     88.6555    198.3064   7.3708233916e+01   2.2396335731e+01    0.3347875    0.1920856  69.11  0.001588652    2.248    0.555
       213  -8.6632     21.1838    198.8077   8.9128649673e+01   3.0425132412e+01    0.1382229    0.1325965  61.98 0.0004799845    1.315    0.239
       214  -8.2760    202.4751    197.9576   4.9351171833e+01   4.4716108883e+00    0.1485191    0.1118514 -62.27 0.0008079693    2.407    0.585
       215  -8.7179    103.5554    198.2407   7.0265396302e+01   2.0212981273e+01    0.2522505    0.1559027  36.43 0.0007872755    1.417    0.295
       216  -8.5613     60.6733    196.6125   8.0025898433e+01   2.6512390719e+01     0.247007    0.1263605  79.17  0.001137142    2.491    0.599
       217  -8.7371    215.7601    195.2756   4.6472882267e+01   2.8377935708e+00    0.2496257    0.1544018 -47.31   0.00108798    2.264    0.558
       218  -8.8388    170.1914    196.1669   5.5349608689e+01   9.8751836951e+00    0.2737904    0.1574722  26.42 0.0008542672    1.703    0.413
       219  -8.1119    142.9410    196.2050   6.1124686206e+01   1.4343355553e+01    0.1862659   0.09344631  37.97 0.0007160429    1.727    0.421
       220  -7.5221    209.3168    195.6311   4.7692383318e+01   3.7578809665e+00    0.1097841    0.1020557  84.53 0.0007036579    1.783    0.439
       221  -9.2183    185.1812    194.6326   5.2082950087e+01   7.6864244763e+00    0.2206773     0.200464 -82.87 0.0007827423    1.668    0.400
       222  -9.1260    160.7170    193.9637   5.6952226593e+01   1.1800495875e+01    0.2595971    0.2064219  85.11  0.001311733    2.014    0.503
       223  -9.3613    245.5476    193.3493   4.1118999998e+01  -1.1497646973e+00    0.2078493    0.1784346 -50.59 0.0008321085    1.966    0.491
       224  -8.7166    224.4489    193.7323   4.4681464452e+01   1.7651130242e+00    0.2056497    0.1085734 -37.60 0.0008631931    1.998    0.500
       225  -8.1982    180.0050    194.7651   5.3130441037e+01   8.5021885875e+00    0.1753211   0.09643937  36.30 0.0008770747    1.615    0.381
       226  -8.5640     76.8250    193.9754   7.5981655430e+01   2.4943180714e+01    0.2021268     0.148602  61.23  0.000545428    1.263    0.208
       227  -9.1093     44.0060    193.6045   8.3632907214e+01   2.9132672640e+01    0.3331273    0.1493483  68.02  0.001508902    2.528    0.604
       228  -9.6586      5.2864    193.4145   9.2337345503e+01   3.2973295795e+01    0.2487763     0.229621  52.70  0.001138639    1.298    0.229
       229  -8.2889    205.1837    192.2792   4.7860947339e+01   4.8704485981e+00    0.2292746   0.09059643 -35.66  0.001014441    2.613    0.617
       230  -8.1793    126.8371    193.1346   6.4240806541e+01   1.7540569956e+01    0.1835834    0.1455317  19.34 0.0005627175    1.321    0.243
       231  -8.3977    198.8402    191.5590   4.8917275133e+01   5.9709961224e+00    0.1854605    0.1482758 -32.66 0.0004268522    1.364    0.267
       232  -8.9070    152.8003    192.5431   5.8405243605e+01   1.3361542899e+01    0.3187306    0.1146613  40.22  0.001258727    2.444    0.591
       233 -10.2664     92.3914    189.3346   7.1741510497e+01   2.3684884622e+01    0.8186933    0.2966866  47.63  0.003194544    2.659    0.624
       234  -8.4153    172.1827    191.2396   5.4111192472e+01   1.0354408450e+01    0.1647961    0.1557185  65.28 0.0005405184    1.363    0.267
       235  -8.9987    139.4226    190.3199   6.0978943652e+01   1.5994394149e+01    0.2774576     0.200231  73.06 0.0009713248    2.037    0.509
       236  -8.6828    116.7567    191.5956   6.6322166306e+01   1.9462111799e+01    0.2538662     0.119522  33.23 0.0007744614    1.989    0.497
       237  -9.2930     16.3685    190.8979   8.9768772354e+01   3.2531788740e+01    0.2039335    0.1268883  48.84 0.0005683645    1.336    0.251
       238  -9.2679    216.7693    188.5657   4.5102761702e+01   3.6157553457e+00    0.3419537    0.2193947 -42.59  0.001711218    1.867    0.464
       239  -8.9824    164.4144    188.0926   5.5186545656e+01   1.2183880840e+01    0.3649781      0.24348 -20.27  0.001641976    1.842    0.457
       240  -8.4478    148.3969    189.1387   5.8804932871e+01   1.4705155130e+01     0.174653    0.1308848 -65.54 0.0009364748    1.783    0.439
       241  -8.7401    129.0614    188.2739   6.2997434664e+01   1.8102612173e+01    0.2265019    0.1809184  78.93 0.0006658073    1.593    0.372
       242  -9.1193     34.4008    188.3918   8.5473497379e+01   3.1296242945e+01    0.2843725    0.1227683  65.71  0.001299317    2.442    0.590
       243  -9.3506    249.3008    186.5063   3.9311146671e+01  -8.1151847724e-01      0.34995    0.1905695 -25.43  0.001741364    1.629    0.386
       244  -8.2866    237.3716    188.2820   4.1538368767e+01   6.2150690523e-01    0.1562885    0.1007293 -35.15 0.0007051529    1.626    0.385
       245  -8.9032    191.0577    187.3839   4.9665610575e+01   7.8579318891e+00    0.2588821    0.1967747  41.11  0.001312006    1.366    0.268
       246  -9.2054    155.8888    187.3617   5.6879734547e+01   1.3755286091e+01    0.2838464    0.1969831 -55.95 0.0008349851    1.805    0.446
       247  -9.3723    120.5041    185.9458   6.4617872088e+01   1.9967256770e+01    0.4050188    0.2397108 -74.70  0.001787426    2.631    0.620
       248  -8.9631     69.2296    188.3171   7.7176485182e+01   2.7162377070e+01     0.285381    0.1691925  28.81  0.001169753    1.741    0.426
       249  -8.7799     66.6164    184.3645   7.7384711027e+01   2.8360070286e+01    0.3245429    0.1554482  56.45  0.001038051    2.163    0.538
       250  -9.0130     47.7782    187.3956   8.2232086900e+01   3.0031936220e+01    0.3666492    0.1332623  39.87  0.001514576    2.237    0.553
       251  -8.3307    230.3764    187.1762   4.2500937087e+01   1.7741725001e+00    0.1614901    0.1040934 -37.99 0.0007473065    1.709    0.415
       252  -8.8750    109.4809    185.8349   6.7197352465e+01   2.1772283057e+01    0.3440041    0.2121113  66.31  0.001250158    2.158    0.537
       253  -8.7617     54.8817    186.8267   8.0478810055e+01   2.9310698153e+01    0.3063816    0.1444643  64.57  0.001362162    2.431    0.589
       254  -8.9819      9.9664    187.5314   9.1035647945e+01   3.3813768832e+01    0.1670895    0.0995495  36.29 0.0006582779    1.573    0.364
       255  -8.4508      2.9926    187.4358   9.2588615405e+01   3.4414408266e+01    0.1592023    0.1004315  33.99 0.0005708253    1.569    0.363
       256  -9.1693     25.9737    186.3223   8.7298791658e+01   3.2600782259e+01    0.3175749     0.106132  33.81  0.001454087    2.528    0.604
       257  -9.3037    210.1539    184.1010   4.5479973919e+01   5.2796372867e+00    0.2484498    0.1647894 -36.04 0.0006975382    1.572    0.364
       258  -8.9623    202.7548    184.4617   4.6909308364e+01   6.4058547472e+00    0.2250257    0.1646205 -50.36 0.0008403209    1.853    0.460
       259  -8.4828    182.9756    184.7311   5.0783069931e+01   9.6167724497e+00    0.2090229    0.1704657 -54.31 0.0007452713    1.613    0.380
       260  -8.5393    224.0171    183.4621   4.2908009386e+01   3.2250548781e+00    0.1913058    0.1425792 -21.63 0.0005992004    1.242    0.195
       261  -9.0985    174.1879    183.3244   5.2314472558e+01   1.1334337134e+01    0.2646144    0.2066257 -54.97 0.0007743664    1.647    0.393
       262  -8.0315    196.9947    183.2140   4.7768760606e+01   7.5310730460e+00     0.169727    0.1448148 -54.36 0.0005122464    1.612    0.380
       263  -8.9244     44.4956    182.5053   8.2597537099e+01   3.1477155871e+01    0.2935279    0.1336174  60.89 0.0008880117    2.274    0.560
       264  -8.4328      1.8226    183.6011   9.2687963887e+01   3.5321809015e+01    0.1671855   0.07959036  43.14 0.0009502412    1.746    0.427
       265  -8.3262    133.9006    182.4820   6.0966572239e+01   1.8405397307e+01    0.2118694    0.1237675  36.88  0.000610717    1.537    0.349
       266  -8.6392     38.0072    181.7317   8.4105555009e+01   3.2365172002e+01    0.2257159    0.1486228  42.92  0.000824452    1.356    0.263
       267  -9.0726     36.2655    177.2592   8.4167545199e+01   3.3545120457e+01    0.4455211    0.1640542  75.76  0.001496462    4.515    0.778
       268  -9.2658    147.4952    180.4459   5.7541999019e+01   1.6453630266e+01    0.3051383    0.2442906  79.41  0.001036188    1.743    0.426
       269  -8.8490     58.3375    180.9907   7.9062700404e+01   3.0161643042e+01     0.293154    0.1424837  41.00  0.001094121    1.782    0.439
       270 -10.0110     25.2469    178.9849   8.6979393388e+01   3.4277121452e+01    0.5902477    0.2610286  62.14  0.002852079    2.170    0.539
       271  -7.6708    240.6620    180.3177   3.9555404322e+01   1.1879440829e+00    0.1039122   0.09733018 -54.40 0.0007048923    1.704    0.413
       272  -9.1700    204.9377    178.4634   4.5394500294e+01   6.9560843689e+00    0.3242982    0.1810653 -31.70  0.001624506    1.790    0.441
       273  -8.5473    137.6620    179.1775   5.9553159399e+01   1.8398665389e+01    0.2763006    0.1954062  76.39  0.001306428    2.192    0.544
       274  -9.3881    191.2450    178.1135   4.7936627133e+01   9.2896308307e+00    0.2376799    0.2213652 -35.22 0.0005675766    1.289    0.224
       275  -8.4956    113.0707    179.5778   6.5409265911e+01   2.2472730588e+01    0.2151929    0.1231771  37.26   0.00101569    1.577    0.366
       276  -8.8701    250.5367    172.5286   3.6558045046e+01   7.8824096654e-01    0.2568632    0.1462443 -22.24 0.0005858449    1.562    0.360
       277  -9.3537    248.9073    177.1210   3.7662895762e+01   4.2795695198e-01    0.2492829    0.1813185 -33.23 0.0005865249    1.446    0.309
       278  -8.7265    247.3345    173.6983   3.7270938860e+01   1.0935852523e+00    0.1654992   0.09746727 -20.85  0.000342106    1.525    0.344
       279  -8.5321    142.5652    184.0662   5.9259841538e+01   1.6626632103e+01    0.2195526    0.1634471  35.58 0.0005505776    1.198    0.166
       280  -8.4626    129.2746    177.3907   6.1202009037e+01   2.0194203605e+01    0.2319532    0.1724374 -83.08 0.0008449572    1.865    0.464
       281  -8.6567     75.0881    178.5214   7.4620552612e+01   2.8492749458e+01     0.252629     0.126926  29.28  0.001136579    2.072    0.517
       282  -8.2192     70.9556    178.0000   7.5592425117e+01   2.9176449684e+01    0.2562456    0.1380258  41.68 0.0005609201    1.638    0.389
       283  -8.4905    231.0289    176.9686   4.0513499604e+01   3.0589959857e+00      0.16728    0.1514647 -52.85 0.0006324009    1.657    0.396
       284  -8.4494    217.4853    176.9974   4.2846642118e+01   5.1523879136e+00    0.1811437    0.1153936 -33.13 0.0005910016    1.539    0.350
       285  -9.3091    183.1354    176.1906   4.9185475854e+01   1.0990428518e+01    0.2200854    0.2109582  24.53 0.0006450337    1.199    0.166
       286  -8.8327    177.6731    176.9906   5.0444405550e+01   1.1803035125e+01    0.2733406    0.1538013  16.05 0.0008386922    2.561    0.610
       287  -8.5357     88.8801    176.7537   7.0942393631e+01   2.6883278594e+01    0.2560028    0.1613677  75.42 0.0008758341    2.040    0.510
       288  -9.0679     58.7325    175.4826   7.8385499000e+01   3.1339667700e+01    0.4750123    0.1962916  64.93  0.001681622    3.722    0.731
       289  -8.9457     55.7753    170.3860   7.8588386816e+01   3.2864021782e+01    0.4686216    0.2095582  70.09  0.001750606    3.354    0.702
       290  -9.2631     12.5614    175.9668   8.9827089572e+01   3.6099373174e+01    0.3375694    0.1241412  85.47  0.001466127    2.819    0.645
       291  -9.2157    158.8044    174.8810   5.4052622124e+01   1.5493983971e+01    0.3404068    0.2433686  78.08  0.001110088    2.506    0.601
       292  -8.1044     98.4799    177.0000   6.8588447763e+01   2.5356351328e+01    0.3009724   0.07208247  35.31 0.0009199038    3.816    0.738
       293  -9.1381    103.8192    174.1970   6.6849173474e+01   2.5107392059e+01    0.3995029    0.2163775  60.08  0.001665118    2.395    0.582
       294 -10.4504     75.7378    169.9061   7.3367855522e+01   3.0323593526e+01     1.184138    0.4404122 -77.47  0.003494554    5.299    0.811
       295  -8.5253    224.4724    174.0104   4.1065653441e+01   4.4807911798e+00    0.1821209    0.1124576 -31.37 0.0004527997    1.535    0.349
       296  -8.6817    151.2897    174.3849   5.5624331907e+01   1.6920878921e+01    0.2713938    0.1241735  35.57  0.001119617    2.074    0.518
       297  -7.7795    241.6656    173.6917   3.8162103304e+01   1.9169145426e+00    0.1273585   0.08065481   3.09 0.0007041972    1.673    0.402
       298  -9.6224    175.6292    171.9543   4.9921091361e+01   1.3024198039e+01    0.3647572    0.2384856 -41.12  0.001321857    1.625    0.385
       299  -8.9988    195.0177    172.0000   4.6046569447e+01   9.6272670170e+00    0.2724674    0.1415615  30.59 0.0009970677    1.962    0.490
       300  -8.4464    198.2090    170.1343   4.5074291849e+01   9.3782449069e+00    0.2052743    0.1659338   2.06 0.0005531413    1.168    0.144
       301  -8.4303    142.7669    172.1746   5.7160622072e+01   1.8859557338e+01    0.2082767    0.1792356 -80.26 0.0006327587    1.455    0.313
       302  -8.6906    134.9360    171.8903   5.8931201654e+01   2.0304101937e+01    0.2209084    0.1658386  66.94  0.000778831    1.667    0.400
       303  -9.5037    121.4066    170.4927   6.1926447664e+01   2.2951181787e+01    0.3622242    0.2593609 -89.75  0.001000321    1.987    0.497
       304  -9.0653     45.3015    171.1269   8.1354454877e+01   3.3938461908e+01    0.3478822    0.1667965  70.14  0.001367898    2.479    0.597
       305  -9.3460    230.9025    169.9409   3.9202683751e+01   4.0535110737e+00    0.2689908    0.2157003 -42.13  0.001690376    1.537    0.349
       306  -8.9093    186.6281    170.8985   4.7481233149e+01   1.1262771021e+01     0.248793    0.1659459  28.98 0.0008508274    1.433    0.302
       307  -8.3452    205.9661    170.0378   4.3598890424e+01   8.0755665372e+00    0.1846517    0.1631671 -67.39 0.0005863642    1.682    0.405
       308  -8.6850    162.0383    170.2982   5.2497330130e+01   1.5752793625e+01    0.4094967    0.1374011  45.06   0.00143488    2.995    0.666
       309  -9.1691    166.7747    168.3306   5.1099337456e+01   1.5254073885e+01    0.2910435    0.2313647  64.60 0.0008867045    1.648    0.393
       310  -8.9619    109.0466    169.5432   6.4817811471e+01   2.5247735157e+01    0.3604065    0.1542974  39.44  0.001234654    2.104    0.525
       311  -8.6615    111.4727    166.9806   6.3790671142e+01   2.5390784634e+01    0.2367361    0.1852424  61.76 0.0009386731    1.345    0.256
       312  -8.9324     38.4572    169.6941   8.2969346269e+01   3.5023460547e+01    0.3048676    0.1313965  40.11   0.00122099    2.023    0.506
       313  -9.7721     17.9961    170.1751   8.8154742656e+01   3.6919563299e+01    0.3587932    0.1815425  16.11  0.001773578    2.649    0.622
       314  -8.6659    244.6188    169.3566   3.6876657669e+01   2.0597803848e+00    0.1613877    0.1429921 -47.17  0.001074227    1.619    0.382
       315  -8.3290    237.2218    169.2364   3.8030981389e+01   3.1816837629e+00    0.1545842    0.1378024 -28.10 0.0005666891    1.339    0.253
       316  -8.9753    218.7537    168.4576   4.0990474853e+01   6.1975999371e+00    0.2337211    0.1607545 -29.79  0.000739689    1.379    0.275
       317  -8.6042    149.6800    169.2064   5.5040307117e+01   1.8191203137e+01    0.2063641    0.1789044 -86.17 0.0007586226    1.485    0.327
       318  -7.8388    211.2916    167.6469   4.2160115465e+01   7.5497202092e+00    0.1187795    0.1054535 -66.89 0.0003655801    1.678    0.404
       319  -9.0461    191.8987    166.5899   4.5601806292e+01   1.1050395775e+01    0.2404489    0.1885815 -40.38 0.0005442917    1.383    0.277
       320  -8.6078    184.9975    166.2916   4.6912444732e+01   1.2325525731e+01    0.2284941    0.1919284 -65.34 0.0006928247    1.654    0.395
       321  -8.6158    140.0211    165.6916   5.6618487461e+01   2.0629540467e+01    0.2721403    0.1829957  55.25  0.001266574    1.670    0.401
       322 -10.1034    136.0009    163.9828   5.7253309034e+01   2.1703186509e+01    0.5201556    0.3462459 -77.91  0.001916312    2.450    0.592
       323  -8.5043    179.6220    166.2342   4.7993641757e+01   1.3300563108e+01    0.2455513    0.1567819  20.80  0.001144194    1.765    0.433
       324  -9.8933     94.8346    162.5567   6.7332676949e+01   2.9104350836e+01    0.7861847    0.3916283  70.67  0.002314326    5.084    0.803
       325  -9.3563     20.2477    166.0020   8.7306581476e+01   3.7666507257e+01    0.2970562    0.1203208  58.34   0.00134803    2.380    0.580
       326  -8.4420    234.0814    164.8432   3.7694041621e+01   4.2738019269e+00    0.1792402    0.1582047 -24.81 0.0006114932    1.259    0.206
       327  -9.8176     33.7151    163.2265   8.3616019561e+01   3.7013342870e+01    0.6007016    0.1637533  49.17  0.002194135    3.464    0.711
       328  -8.5687    240.1687    164.0036   3.6551213787e+01   3.4506679909e+00    0.1855157    0.1314277 -49.08 0.0005235464    1.949    0.487
       329  -8.6949    159.4825    163.9956   5.1853528708e+01   1.7387074701e+01    0.2442276    0.2076856 -68.84  0.001138883    1.496    0.332
       330  -9.1001    246.1649    162.8865   3.5397237045e+01   2.6962195852e+00    0.1756318    0.1473915 -24.55  0.000479653    1.227    0.185
       331  -8.6548    204.9363    162.5045   4.2307136387e+01   9.4299373642e+00    0.2004212    0.1657612 -22.78 0.0004568238    1.156    0.135
       332  -9.2573     60.7400    162.0883   7.6321591264e+01   3.4154106479e+01    0.3889413    0.3277426  65.34  0.002331939    1.074    0.069
       333  -9.4231      3.5581    162.2586   9.1266784780e+01   3.9887179600e+01    0.3933967    0.1213908  52.16  0.001627632    2.787    0.641
       334  -8.8171    171.7401    162.5815   4.8918599842e+01   1.5383335495e+01    0.2799116    0.1269304  36.45  0.001138522    2.167    0.538
       335  -9.2247    125.8800    162.0374   5.9347476304e+01   2.3930917305e+01    0.3089467    0.1962795  34.84 0.0008458912    1.509    0.338
       336  -8.1085    113.9535    163.0000   6.2491457415e+01   2.5824378908e+01     0.238625     0.076647  37.48 0.0005534457    2.898    0.655
       337  -9.1261    177.4021    160.3813   4.7290234415e+01   1.4730874409e+01     0.283194    0.2325457 -60.49 0.0008736213    1.567    0.362
       338  -8.6681    151.7985    160.7730   5.2953212812e+01   1.9429056378e+01    0.2498056    0.1880787 -79.45  0.000990666    2.002    0.501
       339  -8.6141    227.3455    158.9335   3.7643240056e+01   6.1947451520e+00    0.2550627    0.1788611 -47.17  0.001423443    1.772    0.436
       340  -9.8833    250.1972    157.6741   3.3772545934e+01   2.7929460020e+00    0.3123914      0.19831 -29.32 0.0007718374    1.371    0.271
       341  -9.2687    246.5810    155.4892   3.3890478681e+01   3.6357019705e+00    0.4194381     0.182207 -20.40  0.001769395    2.862    0.651
       342  -7.7255    162.6585    159.2867   5.0224369342e+01   1.7679317800e+01    0.1384153    0.1127836  71.94 0.0002934996    1.641    0.391
       343  -9.4413    105.7372    157.6620   6.3673855665e+01   2.8402972404e+01    0.4356721    0.2784386  71.88  0.001226465    2.224    0.550
       344  -8.6907    212.8833    163.5358   4.1064310388e+01   7.9099762564e+00    0.2367053    0.1747336 -36.43 0.0006247089    1.391    0.281
       345  -8.5367    196.5576    157.7468   4.2926498807e+01   1.1680688728e+01    0.1789954    0.1264528 -45.93 0.0005961478    1.597    0.374
       346  -8.8081    188.1057    157.4817   4.4524198773e+01   1.3262983726e+01    0.2117659    0.1902353 -55.65 0.0006488624    1.372    0.271
       347  -9.1857    167.5425    157.1121   4.8719961424e+01   1.7165142234e+01    0.2886225    0.2352546 -78.80 0.0009760929    1.762    0.432
       348  -9.1547    142.9343    157.6594   5.4402625362e+01   2.1702907312e+01    0.3831735    0.1900732  41.10  0.001092515    1.890    0.471
       349  -9.2255    144.2371    154.4414   5.3457720061e+01   2.2106339304e+01    0.2400213    0.2041812 -60.80 0.0005527217    1.334    0.250
       350  -8.4590     79.4706    158.2937   7.0762359693e+01   3.2444879029e+01    0.2462295    0.1886409  29.92 0.0008304103    1.363    0.267
       351  -9.2893     81.5579    154.4746   6.9615893646e+01   3.3022640648e+01    0.4212661    0.2486087  71.72   0.00137494    2.315    0.568
       352  -8.5389    218.0370    156.4848   3.8739345623e+01   8.1122622220e+00    0.2383815    0.1679708 -44.77 0.0006905337    1.626    0.385
       353  -8.9890     40.3275    156.9931   8.1254417287e+01   3.7779977650e+01    0.3101522    0.1739948  33.85 0.0009547214    1.747    0.428
       354  -9.5349     35.0486    155.7713   8.2565410612e+01   3.8626815240e+01     0.378954    0.1366512  34.91  0.001633254    2.483    0.597
       355  -9.2437    157.4940    155.9578   5.0703896336e+01   1.9287388512e+01    0.2520157    0.2121876 -68.56 0.0009500959    1.486    0.327
       356  -9.1585    119.5763    154.9933   5.9625196736e+01   2.6566470141e+01     0.384474      0.26077  83.86  0.001524192    2.315    0.568
       357  -9.4281     49.6741    155.0871   7.8487672034e+01   3.7174299515e+01    0.4423435    0.1925314  58.61  0.001764601    2.719    0.632
       358  -9.7400    243.0015    154.7123   3.4285321784e+01   4.2954053006e+00    0.2126147    0.1850931 -62.69 0.0004204746    1.754    0.430
       359  -9.6823    237.3768    150.1944   3.4257210781e+01   5.8246156359e+00    0.2915857    0.1758373  21.42  0.001520497    1.923    0.480
       360  -8.2148    204.4698    155.2758   4.0928642307e+01   1.0665848214e+01    0.1742572    0.1242103 -43.46 0.0005916953    1.532    0.347
       361  -8.8468     98.0223    154.7748   6.5211965088e+01   3.0346970591e+01    0.3668556    0.1571057  44.53 0.0009994829    2.223    0.550
       362  -9.0637     68.2011    153.8539   7.3202643618e+01   3.5097187844e+01    0.4377863    0.1894789  55.96  0.001290871    2.873    0.652
       363  -9.8281    132.8465    152.9850   5.5916438823e+01   2.4555289935e+01    0.4338323     0.349752  77.17  0.001240312    1.550    0.355
       364  -9.5803    134.6108    147.6127   5.4401916864e+01   2.5350740502e+01      0.50023    0.2916707  37.19  0.002200499    1.668    0.400
       365  -9.6213    138.9450    144.7433   5.2740777625e+01   2.5115489455e+01    0.3817802    0.2706489 -72.04  0.001172493    1.954    0.488
       366  -9.7541      8.5230    152.8056   8.9441537609e+01   4.1687982609e+01    0.5532429    0.1189653  27.38  0.002133534    3.935    0.746
       367  -9.7830     29.4654    150.6765   8.3607183583e+01   4.0394950026e+01    0.4953995    0.2019804  67.70  0.001915244    3.154    0.683
       368  -9.1446    189.5273    150.1081   4.2709661295e+01   1.4264931610e+01    0.2828844    0.2233631 -61.59 0.0009516957    1.707    0.414
       369  -8.7574    110.0341    151.5765   6.1458200036e+01   2.9018092949e+01    0.3981859    0.1344358  38.33  0.001213993    2.784    0.641
       370  -8.4686     98.1669    150.6440   6.4455970800e+01   3.1266966477e+01    0.2402075    0.1952384 -83.12 0.0007097069    1.345    0.256
       371  -9.6439    248.9463    149.1525   3.2278642181e+01   4.1380194442e+00     0.286653    0.1544862 -30.94 0.0007302823    1.605    0.377
       372  -8.6842    243.4003    149.7892   3.3241312590e+01   4.9177442147e+00    0.2352147    0.1034121 -36.42  0.001115636    2.054    0.513
       373  -7.8581    182.2845    150.6783   4.4284580495e+01   1.5535004292e+01    0.1316684    0.1143555 -82.02 0.0003456154    1.594    0.373
       374  -8.4211    162.4869    150.4996   4.8463431978e+01   1.9375367863e+01    0.1425418    0.1366942  32.59 -8.749715e-05    1.078    0.072
       375  -9.9868     40.3210    148.2289   8.0315579634e+01   3.9875846875e+01    0.5321318     0.215228  56.00   0.00210861    2.812    0.644
       376  -8.2147    212.8231    149.6015   3.8239786563e+01   1.0083737026e+01    0.1633465    0.1268107  49.52 0.0001954088    1.505    0.336
       377  -8.2668    198.8045    148.7954   4.0638018984e+01   1.2756044225e+01    0.1726121    0.1650229 -75.14 0.0004323822    1.340    0.254
       378 -10.4808    148.9410    145.0761   5.0412934303e+01   2.3088882633e+01     0.596971     0.414147  88.75  0.001759839    2.657    0.624
       379  -9.9574     89.3822    146.3233   6.6111178779e+01   3.3712746196e+01    0.6952294    0.3833632  84.17  0.002340102    3.754    0.734
       380  -9.2873     52.7445    148.7455   7.6852506123e+01   3.8326216312e+01    0.2964376    0.1796326  39.05  0.001003594    1.584    0.369
       381 -10.4711     54.9716    144.7059   7.5681101791e+01   3.9030271946e+01    0.7672098    0.3353073  64.35  0.002640432    3.646    0.726
       382  -9.1276    233.5013    147.4799   3.4318916667e+01   6.8514835511e+00    0.2526705    0.1129501 -33.92 0.0007572202    2.018    0.504
       383  -8.6201    122.2231    148.3741   5.7676584205e+01   2.7522716922e+01    0.2661343    0.1791779  47.99   0.00125147    1.456    0.313
       384  -8.2415    223.2231    146.7473   3.5850578009e+01   8.7024929742e+00    0.1767107    0.1351502  -4.93 0.0003826111    1.281    0.219
       385  -9.9739    106.7535    144.4110   6.0981559774e+01   3.1214422440e+01    0.7028427     0.390043  70.45  0.002332063    3.679    0.728
       386  -9.1362     78.0348    147.0146   6.9415264640e+01   3.5311550276e+01     0.232256    0.1589049  68.38 0.0008788951    1.650    0.394
       387  -8.6567     20.1899    152.2352   8.6281990759e+01   4.0873912083e+01    0.1849483    0.1212007  69.56  0.001000666    1.386    0.278
       388  -9.0882     13.1732    146.0441   8.7716083919e+01   4.2920868017e+01    0.3006876    0.1329868  65.22   0.00111275    2.319    0.569
       389  -9.2926    240.3840    145.1809   3.2770028030e+01   6.0514096183e+00    0.2251746    0.1523026 -41.36 0.0005238077    1.548    0.354
       390  -8.0399    206.4547    146.4710   3.8725317552e+01   1.1730662350e+01    0.1349651    0.1227166  -7.61 6.984502e-05    1.044    0.042
       391  -8.1846    175.5800    145.8249   4.4638682000e+01   1.7701007734e+01    0.1965872    0.1346361 -51.43 0.0005175067    1.685    0.407
       392  -9.5790     65.8034    143.9546   7.2436854645e+01   3.7798204693e+01    0.3917629    0.2361926  71.30  0.001753472    2.046    0.511
       393 -10.8195     69.5371    140.9872   7.0889912946e+01   3.7997448514e+01    0.6750466    0.4112117 -82.23   0.00284241    1.912    0.477
       394  -9.9806     72.5464    133.4932   6.8744819952e+01   3.9387033335e+01    0.4446269    0.2033587  37.78  0.001825145    2.109    0.526
       395  -9.8832     73.1709    129.2580   6.7799090147e+01   4.0329823323e+01    0.4286487    0.2823117  85.49 0.0009599383    1.939    0.484
       396  -9.4509      3.0320    141.6958   9.0210159819e+01   4.4686450749e+01    0.4203944    0.1409198  65.09  0.001648291    3.334    0.700
       397  -9.1547    247.0404    143.8151   3.1487721974e+01   5.1735370442e+00      0.23018    0.1544961 -24.11 0.0005001054    1.284    0.221
       398  -8.6060    250.3369    140.9326   3.0420285181e+01   5.0506322907e+00     0.178616    0.1345149 -22.09 0.0005470905    1.113    0.102
       399  -8.9348    165.5130    143.8486   4.6375767141e+01   2.0051347697e+01    0.2602887    0.2250829  77.09 0.0006715794    1.464    0.317
       400  -9.6633    124.9305    142.3804   5.5767424108e+01   2.8321988310e+01    0.4530225    0.3048744 -87.85  0.001164856    2.487    0.598
       401  -9.1235     31.5964    144.0319   8.2349262603e+01   4.1787054180e+01    0.2588154     0.150122  47.55  0.000869388    1.644    0.392
       402  -9.5168    242.9776    143.0515   3.1939794603e+01   5.9324462486e+00     0.353389    0.1564455 -30.05  0.001654557    2.037    0.509
       403  -7.5914    194.2966    143.6779   4.0404223540e+01   1.4465565862e+01    0.1316399    0.1128219 -74.71 0.0003523564    1.620    0.383
       404  -8.3869    181.9932    141.3475   4.2335184785e+01   1.7256443419e+01    0.1967749    0.1793987  32.27 0.0004685149    1.099    0.090
       405  -8.4218    134.0000    139.9669   5.2950497273e+01   2.7089400936e+01    0.2417795   0.08574206 -48.11 0.0008007419    2.931    0.659
       406  -9.8317     44.7577    139.7369   7.8015293701e+01   4.1453470847e+01    0.5319888    0.1806176  26.23  0.001977242    3.255    0.693
       407  -9.9723     23.5154    138.0020   8.4083227254e+01   4.3999550374e+01    0.5053996    0.2043087  60.37  0.002046696    2.878    0.653
       408  -9.4478     17.9940    138.6285   8.5748345000e+01   4.4313686627e+01    0.3059889    0.1588405  15.12  0.001368314    2.459    0.593
       409  -9.0249    240.8083    137.8053   3.1185396280e+01   7.0361416638e+00    0.1664956    0.1417919 -42.51   0.00056599    1.334    0.251
       410  -7.6065    218.6958    138.3453   3.4836697340e+01   1.0796976205e+01    0.1289607     0.104548 -61.84 0.0004263757    1.689    0.408
       411  -8.2204    207.3006    137.4826   3.6636200726e+01   1.3037326758e+01    0.2229765     0.158901 -53.05 0.0007637829    1.735    0.424
       412  -8.5507    172.1298    137.8860   4.3626251988e+01   1.9855226266e+01    0.2146805    0.1982731 -86.73  0.000591942    1.314    0.239
       413  -8.5825    197.4750    137.0981   3.8358480287e+01   1.4976188891e+01    0.2097459     0.131523 -36.86 0.0005403326    1.542    0.352
       414  -9.5803    152.1993    135.5990   4.7570925108e+01   2.4348243452e+01    0.6354254    0.2298566  35.95  0.001993319    3.350    0.702
       415  -9.4260    140.1707    136.5832   5.0678921530e+01   2.6580466658e+01    0.2846346    0.2312747  12.03  0.001415879    1.423    0.297
       416  -9.2007    111.8026    136.9321   5.8116199704e+01   3.2002622624e+01    0.3932651    0.2217865  44.75  0.001167373    1.724    0.420
       417  -8.9291    112.7717    132.9505   5.7012900400e+01   3.2726743490e+01    0.2915713    0.2107333 -71.98  0.001207121    1.665    0.399
       418 -10.3244     83.3755    133.1047   6.5443335546e+01   3.7822220504e+01    0.5762797    0.3550758 -69.36   0.00145798    1.769    0.435
       419  -9.3284    248.5198    135.1304   2.9495147895e+01   6.1479061129e+00    0.2922353    0.1755312 -26.14 0.0009048095    1.457    0.313
       420  -9.2810    250.7395    129.5400   2.8022641625e+01   6.5673529236e+00    0.4673518    0.1016067 -32.51  0.001517036    4.196    0.762
       421  -9.0933     91.8002    136.5634   6.3643735118e+01   3.5618822483e+01    0.4134218    0.1550358  29.55  0.001324144    3.411    0.707
       422 -10.6318     59.5695    135.0209   7.2912210902e+01   4.0813248750e+01    0.7192038    0.2667587  31.23  0.002738034    2.729    0.634
       423  -8.9547     39.1871    136.1177   7.9220763045e+01   4.2950226011e+01    0.2606909    0.1384345  55.91 0.0006374709    1.980    0.495
       424  -7.8960    187.6882    135.3326   3.9854055310e+01   1.7201977601e+01    0.1390398    0.1153415 -76.92 0.0003252166    1.677    0.404
       425  -8.8441    179.2167    133.6063   4.1173326045e+01   1.9213718706e+01    0.2461323    0.1904228 -48.64  0.000732847    1.396    0.284
       426  -9.0152    128.0745    134.6237   5.3299290379e+01   2.9405381993e+01    0.3353584    0.1400678  41.48  0.001188717    2.315    0.568
       427  -8.1608    237.3902    133.2239   3.0742100598e+01   8.2766323715e+00    0.1825428    0.1055774 -40.92 0.0005245966    1.683    0.406
       428 -10.1690    132.4265    131.4676   5.1476492875e+01   2.9223328098e+01    0.4640666    0.3345428  86.54  0.001206804    2.122    0.529
       429  -9.0177    142.9439    131.4301   4.8837974828e+01   2.7095125754e+01     0.277638    0.2106778 -65.55 0.0006344484    1.602    0.376
       430  -8.4056    247.0565    129.8395   2.8605779598e+01   7.1322828638e+00    0.1866442    0.1534088 -40.36 0.0006112836    1.282    0.220
       431  -8.1045    204.7650    130.2013   3.5477124373e+01   1.4720803180e+01    0.2130062    0.1479101 -72.32 0.0008865946    2.631    0.620
       432  -7.9526    192.6136    129.8132   3.7644356576e+01   1.7185821525e+01    0.1931628    0.1281934 -45.90 0.0004532503    1.585    0.369
       433  -9.4801    168.3316    129.3053   4.2484474067e+01   2.2254257696e+01    0.2896881     0.240335 -83.48 0.0004466879    1.610    0.379
       434  -9.8619    152.9073    128.4392   4.5760166278e+01   2.5645106258e+01    0.5275418    0.2292244 -49.60  0.001500849    2.562    0.610
       435 -10.0950     99.2370    127.6295   5.9692025987e+01   3.6442210483e+01    0.5995331    0.3794877  89.25  0.001773876    2.657    0.624
       436 -10.6148     60.8141    125.7093   7.1006773015e+01   4.2949515201e+01    0.9024811      0.44993  67.83  0.003155873    3.426    0.708
       437  -9.8728     12.9047    129.0816   8.6403823833e+01   4.7025949929e+01    0.4411618    0.1951845  63.89  0.001694273    2.479    0.597
       438  -8.3144    211.4890    128.9737   3.4016491948e+01   1.3626680347e+01    0.1971864    0.1092447 -54.01 0.0008103596    2.588    0.614
       439 -10.1801     40.0617    126.0232   7.7626698578e+01   4.5358392432e+01    0.2349859    0.2321723  29.90 0.0002940496    1.165    0.142
       440  -9.0692     50.3451    128.6773   7.4774791248e+01   4.3537234480e+01    0.3057708     0.193955  68.08   0.00120574    1.781    0.439
       441 -10.6143     44.5056    123.5946   7.5859281031e+01   4.5479435368e+01     0.885245    0.4209584  80.08  0.003108511    3.556    0.719
       442  -9.1863     27.9760    129.3650   8.1829608946e+01   4.5719743557e+01    0.3834623    0.1680623  26.73  0.001730279    2.414    0.586
       443  -9.8301    117.7356    125.4333   5.3988616363e+01   3.3473985866e+01     0.531251    0.4095374 -76.72  0.001497389    1.589    0.371
       444  -8.9767    179.2592    124.6272   3.9082289241e+01   2.0847600210e+01    0.2823465    0.2309222 -74.99 0.0006576842    1.622    0.384
       445  -9.8201    135.2895    124.3075   4.9087734566e+01   3.0175311025e+01    0.5123712    0.2533728  38.67  0.001974531    2.068    0.516
       446  -9.8820    131.0549    118.5526   4.8793019085e+01   3.2291702664e+01    0.5874104    0.3763209  82.36  0.002054625    3.193    0.687
       447 -10.2722     28.5983    122.3931   8.0803985591e+01   4.7391535407e+01    0.7111909    0.2938656  69.65  0.002442442    3.933    0.746
       448  -7.9403    228.3036    124.6645   3.0296489575e+01   1.1159453694e+01    0.1297849    0.1001786 -58.41 0.0004639603    1.665    0.399
       449  -9.1042    171.7539    121.8015   3.9971962659e+01   2.2955197706e+01      0.37884    0.2068385 -33.77  0.001387575    1.919    0.479
       450 -10.1648    158.2753    121.5090   4.2866649237e+01   2.5892142570e+01    0.4056619    0.3614914  87.12  0.001458399    1.328    0.247
       451  -8.9913     90.2986    120.8388   6.0886402408e+01   3.9622598869e+01    0.4054495    0.1902799  35.33  0.001154035    2.185    0.542
       452  -9.2182     76.2260    123.7112   6.5808425488e+01   4.1224607972e+01    0.3298629    0.1336619  31.53  0.001199028    2.659    0.624
       453  -8.4975      2.4556    122.6332   8.9044697990e+01   4.9285820306e+01    0.2327301   0.06387541  36.66 0.0009550129    3.232    0.691
       454  -7.9945    162.6583    136.3219   4.5342926486e+01   2.2072817923e+01      0.21606    0.1757126  88.00 0.0007406259    1.701    0.412
       455  -8.8145     84.1517    122.4503   6.3105056900e+01   4.0269451691e+01    0.2846437    0.2330786 -24.09  0.001066105    1.481    0.325
       456  -9.9501    141.6283    118.5097   4.6091634067e+01   3.0066785894e+01    0.4237817    0.2977459 -72.77   0.00117853    2.045    0.511
       457  -8.4978     99.9741    119.4969   5.7687255028e+01   3.8218476707e+01    0.4016955    0.2559644   4.61  0.001454973    3.053    0.672
       458  -8.7194    105.2940    117.5728   5.5679920553e+01   3.7673144280e+01    0.3704565    0.2416903  20.05  0.001428324    2.073    0.518
       459  -9.5198     71.2014    119.8461   6.6632000713e+01   4.2933547681e+01    0.3058717    0.2015097  69.11  0.001360055    1.908    0.476
       460  -9.0713    121.5481    118.4971   5.1315196644e+01   3.4263190027e+01    0.6060057    0.1861641  35.14  0.001568496    4.675    0.786
       461  -9.3971     19.0800    117.9568   8.3353121254e+01   4.9296111422e+01     0.249299    0.1774144  23.64  0.001438864    1.600    0.375
       462  -9.3958      2.8905    117.2713   8.8483201000e+01   5.0561679521e+01    0.3683061    0.1588724  66.35  0.001644523    2.538    0.606
       463  -7.5762    231.6624    117.3324   2.8164284722e+01   1.1651668754e+01    0.1321152   0.09935512 -60.85 0.0007051985    1.741    0.426
       464  -7.9905    185.6304    115.8030   3.5695703968e+01   2.1097008676e+01    0.2067895    0.1294159 -46.85 0.0004260227    1.666    0.400
       465  -9.8951    109.3500    114.0952   5.3670374703e+01   3.7690643406e+01    0.5502323    0.3639888 -81.64  0.001410705    2.399    0.583
       466 -10.1920    111.1794    106.6524   5.1273803661e+01   3.9015751074e+01    0.6833124    0.2931858  34.29  0.002299978    2.801    0.643
       467 -10.7664    248.8692    107.8953   2.3679951169e+01   9.9280035231e+00    0.5505628    0.2758291 -25.35  0.002641047    1.939    0.484
       468 -10.8496    248.8537    102.7658   2.2566742990e+01   1.0653616449e+01    0.4045288     0.303019 -32.22  0.002466652    1.130    0.115
       469  -8.0484    192.9662    115.0396   3.4112642009e+01   1.9679739955e+01    0.1740001    0.1571454 -27.16 0.0003864205    1.054    0.051
       470  -9.8957     79.0459    112.4397   6.2571110862e+01   4.3529459407e+01    0.5615557    0.3546221  76.87  0.001750178    2.455    0.593
       471  -9.7030     61.8490    114.2490   6.8580797419e+01   4.5655068132e+01    0.5344604    0.2358239  22.41  0.001947348    3.062    0.673
       472  -9.9671     66.1432    110.1851   6.6331596287e+01   4.6057179638e+01    0.3910474    0.3071609  80.63  0.001363224    1.430    0.301
       473  -8.2237    167.3862    114.1826   3.9039640305e+01   2.5338754655e+01    0.2125503    0.1372939 -49.99 0.0006308864    1.667    0.400
       474 -10.1374     92.6366    112.2694   5.8236053619e+01   4.1253848351e+01    0.5240492    0.3349336 -72.67  0.001296017    2.003    0.501
       475  -9.2969     68.6625    104.7704   6.4311451442e+01   4.7018672973e+01    0.4932128    0.1828084  29.41  0.001687206    3.143    0.682
       476  -9.7294     33.8772    113.7886   7.7904830869e+01   4.9044500478e+01    0.6053976    0.1524622  28.18  0.002108778    3.777    0.735
       477 -10.8011    133.7582    109.6469   4.5848335830e+01   3.3622291452e+01    0.7623023    0.3682739 -47.15  0.002519903    2.117    0.528
       478  -9.8280    122.0760    112.5994   4.9716062334e+01   3.5459385253e+01    0.3229594     0.263871  76.81 0.0006644302    1.466    0.318
       479  -8.7186    174.7216    111.4275   3.6803522802e+01   2.4247812490e+01    0.2696179    0.1707554 -47.88 0.0005842027    1.656    0.396
       480  -8.6873    159.1882    111.6415   4.0207586485e+01   2.7631470393e+01    0.2642334    0.1992607 -51.42 0.0006231525    1.406    0.289
       481  -8.9734     49.4315    111.9723   7.2330572862e+01   4.7816852927e+01    0.2822601    0.1721541  47.63  0.001001992    1.727    0.421
       482  -9.6722     14.2878    110.9785   8.4155563237e+01   5.1379325756e+01    0.4029764    0.1836741  66.59  0.001715896    2.686    0.628
       483  -8.8770    145.7124    110.6051   4.3096775190e+01   3.0813447285e+01    0.3099848    0.1438523  41.98  0.001139864    2.197    0.545
       484  -8.8540      6.6993    108.6931   8.6466598101e+01   5.2435644439e+01    0.2494338    0.1412911  31.37  0.001350655    1.906    0.475
       485  -9.0704    250.3261    114.9230   2.4998913485e+01   8.6854229848e+00    0.2871445    0.1924513 -60.81  0.001120901    2.170    0.539
       486  -8.8523     43.6402    108.8049   7.3763154695e+01   4.9277805395e+01    0.2470257    0.1134868  22.81  0.001016444    2.550    0.608
       487  -8.1992    189.3295    107.3014   3.2902019545e+01   2.1799620506e+01    0.2089252    0.1257189 -43.72  0.000598432    1.645    0.392
       488 -10.1025    125.8404    106.4900   4.7119951393e+01   3.6000012294e+01    0.4454752    0.2166475  30.98   0.00149318    2.892    0.654
       489  -9.5559    150.6563    103.0641   3.9938316116e+01   3.1226506247e+01    0.4468324     0.283847 -64.82   0.00133125    2.268    0.559
       490  -9.4413    139.9385    104.3294   4.2876668905e+01   3.3376786317e+01    0.3606722    0.2721542 -88.19 0.0008287541    1.871    0.465
       491  -9.9179     83.7133    104.3226   5.9175497016e+01   4.4709743069e+01    0.7508804    0.2288425  39.67  0.002400958    3.216    0.689
       492  -9.2646     82.0220     99.6263   5.8574036144e+01   4.6118731882e+01    0.3775596    0.2568175 -76.81  0.000912588    1.888    0.470
       493 -10.4287     45.6069    102.1078   7.1849623417e+01   5.0730022417e+01    0.7334192    0.3705604  66.85  0.002668926    3.364    0.703
       494 -10.6297     22.4176    102.5119   8.0263073247e+01   5.2877047094e+01    0.6282485      0.35945  68.70  0.002224435    2.055    0.513
       495  -8.2733    166.5245    103.9651   3.6617622936e+01   2.7461715186e+01    0.2271654    0.1457373 -41.82  0.000570399    1.542    0.352
       496  -9.4511     95.5754    103.3852   5.5143817627e+01   4.2804124521e+01    0.4899273    0.2351104  26.82  0.001650193    3.062    0.673
       497  -8.3714      6.9527    102.9948   8.5795387225e+01   5.3821884926e+01    0.2083745    0.1274177  64.21   0.00071128    1.715    0.417
       498  -7.6639    175.6845    102.3000   3.4284202019e+01   2.5703758241e+01    0.1488558    0.1181676 -76.00 0.0003330818    1.613    0.380
       499  -9.9469    128.2722    101.5650   4.5151732631e+01   3.6528460728e+01    0.3384734    0.2683093 -66.81 0.0008414562    1.463    0.316
       500  -9.5520    132.2018     96.3872   4.2688189353e+01   3.6742968638e+01    0.6698441    0.2002238  39.77  0.001782365    4.275    0.766
       501  -8.2636    159.8043    100.7965   3.7244913086e+01   2.9587557249e+01    0.2090504    0.1765102 -66.56 0.0004780476    1.344    0.256
       502 -10.2895    108.7365     98.6827   4.9879606857e+01   4.1297953444e+01    0.5708826    0.3745725  69.80  0.001119207    2.247    0.555
       503 -10.2027     63.9047     95.8571   6.3924291206e+01   4.9897241508e+01    0.5283285    0.3256069  85.46  0.001863986    2.688    0.628
       504  -9.4579     95.0255     96.8193   5.3597272076e+01   4.4426280202e+01    0.2940463    0.2415505 -77.41 0.0006003774    1.402    0.287
       505 -11.3515    247.1953     91.5045   2.0295115178e+01   1.2535162243e+01    0.6117688    0.2175933 -29.02   0.00242496    2.723    0.633
       506  -8.1630    164.5950     93.8005   3.4320596262e+01   2.9796292420e+01    0.2172944    0.1379762 -48.69  0.000325479    1.647    0.393
       507  -9.2370     53.3052     93.5715   6.7263654322e+01   5.1908529699e+01    0.3789755     0.180016  41.50  0.001344884    2.227    0.551
       508  -9.1948     48.2636     91.5857   6.8711077863e+01   5.3025337440e+01    0.4711788    0.2031286  26.71  0.001896354    2.574    0.611
       509  -7.5295    188.6790     93.3381   2.9480263848e+01   2.4346681587e+01    0.1521004    0.1123205 -68.04 0.0007050232    1.713    0.416
       510  -8.0447    176.3793     93.1192   3.1735552267e+01   2.7189772979e+01    0.2174784     0.130431 -47.91 0.0005375977    1.734    0.423
       511 -10.1940    139.3020     90.8394   3.9307887035e+01   3.6250462731e+01    0.6898916    0.3561843 -37.14  0.001677808    2.017    0.504
       512 -10.2312    124.6120     90.8170   4.3132078141e+01   3.9594822025e+01    0.7792801    0.4427862  36.64  0.001194238    1.950    0.487
       513  -8.7250    107.4862     92.4822   4.8529402290e+01   4.2927370419e+01    0.2682881    0.2253422  31.76  0.001063199    1.239    0.193
       514  -9.4948    113.2448     90.3025   4.6194532165e+01   4.2188983081e+01    0.8080099     0.206196  44.02  0.002227671    3.925    0.745
       515  -8.4244     83.9923     93.4907   5.6321298569e+01   4.7222468724e+01    0.2285715    0.1481779  36.97 0.0007024729    1.583    0.368
       516  -8.9960      5.2114     92.0632   8.5200466248e+01   5.6604683606e+01    0.2393308    0.1287002  52.27  0.000938757    2.078    0.519
       517  -9.4228     34.7777     89.6898   7.3490973319e+01   5.4971496475e+01    0.4342512    0.2448467  82.28  0.001614366    2.567    0.610
       518  -9.3619     97.6549     89.8378   5.0822617094e+01   4.5500772618e+01     0.472065    0.2055938  27.65  0.001342134    4.269    0.766
       519  -9.5385     25.0530     90.0690   7.7337558357e+01   5.5757569963e+01    0.6499943    0.1672233  24.64  0.002315171    3.915    0.745
       520 -10.1330     86.5509     86.5129   5.3521930321e+01   4.8369671900e+01    0.5023832    0.3554719  80.10  0.001416493    2.155    0.536
       521  -9.5928     87.6369     80.3137   5.1324256983e+01   4.9558729554e+01    0.8811749    0.3500293  27.11  0.002170582    5.978    0.833
       522  -9.3327     67.9088     86.4207   6.0093127644e+01   5.1562087917e+01    0.7330404     0.262951  24.60  0.002002234    5.206    0.808
       523  -9.5516     48.2501     83.7386   6.6907802415e+01   5.4941913264e+01    0.4458498    0.2775231  80.06  0.001705394    2.536    0.606
       524  -8.1683    157.8648     83.7889   3.2968189942e+01   3.3218280565e+01    0.2097524     0.175265 -64.15 0.0004272208    1.315    0.240
       525  -9.7301    104.6819     82.8420   4.6552893874e+01   4.5601588042e+01     0.454389    0.3113304 -64.27 0.0008202804    1.821    0.451
       526  -9.3997    107.4013     76.1351   4.3634313600e+01   4.6427144533e+01    0.7593119    0.2834685  41.78  0.002519627    2.793    0.642
       527  -9.0281    105.9596     71.9010   4.2707646803e+01   4.7601760851e+01    0.3340226    0.2153231 -57.85 0.0008401354    1.866    0.464
       528  -9.0189     10.7904     82.1615   8.1711135701e+01   5.8716473083e+01    0.4951911    0.2092264  75.51  0.001758226    4.080    0.755
       529  -9.2966    129.9760     82.6278   3.9277090569e+01   4.0036652086e+01     0.524658    0.1787354  46.90   0.00166635    2.899    0.655
       530  -7.9775     64.2762     82.6347   6.0425587197e+01   5.3012135752e+01    0.1456136      0.11241  84.12 0.0007007523    1.672    0.402
       531  -9.3722     24.5863     80.5168   7.5784795902e+01   5.8146680701e+01    0.3711945    0.2248322  77.59  0.001543879    2.161    0.537
       532  -8.8339     74.7618     80.2810   5.5863296429e+01   5.1877854923e+01    0.3306714    0.1970484 -67.66  0.001038134    2.214    0.548
       533  -8.9424     37.9595     81.0165   7.0397568626e+01   5.6774928261e+01    0.3563587    0.1591888   1.25  0.001031067    5.858    0.829
       534  -8.6951    151.6709     94.6751   3.7422256267e+01   3.2634601898e+01    0.2494184    0.1876734  11.10  0.001107837    1.779    0.438
       535  -8.3020    150.3951     80.2752   3.3598807230e+01   3.5650915592e+01     0.220601    0.1398474 -48.35 0.0006651063    1.648    0.393
       536  -8.7365    119.4171     79.8274   4.1284757159e+01   4.3013197845e+01    0.2923614    0.1465484 -47.11  0.000999963    2.069    0.517
       537  -7.9377    166.7613     79.6196   2.9925418497e+01   3.1826679527e+01    0.1504785    0.1176626   0.53 0.0004247401    1.632    0.387
       538  -8.2061    184.2457     77.9590   2.6184550046e+01   2.7937820779e+01     0.191644    0.1204424 -36.25 0.0003847727    1.529    0.346
       539  -9.2768    128.1396     75.1450   3.7456000909e+01   4.1922679342e+01    0.3746164    0.2492195 -58.02 0.0007327743    1.798    0.444
       540  -8.2729    140.4199     75.2320   3.4402732469e+01   3.8981160895e+01    0.2158922    0.1422848 -49.67 0.0004828426    1.609    0.378
       541  -9.8761     63.1690     73.5670   5.8268080050e+01   5.5285203278e+01      0.43822    0.2874248 -71.67  0.001053981    1.966    0.491
       542  -9.7203     82.3786     72.4115   5.0695534553e+01   5.2276900218e+01    0.4250023    0.2787572 -69.61 0.0009639534    2.176    0.540
       543  -8.0880    163.4002     73.1488   2.8732936802e+01   3.3755310692e+01    0.2237645    0.1328432 -47.15 0.0009266027    1.736    0.424
       544  -8.6666    151.4111     73.1914   3.1259438855e+01   3.6680270054e+01    0.2187948    0.1385591 -48.06 0.0005009466    1.647    0.393
       545  -8.2723    115.6765     72.9199   4.0161853087e+01   4.5236610292e+01    0.2145262    0.1946561 -45.71  0.000448841    1.118    0.105
       546  -9.1802     95.0810     70.7503   4.5789221399e+01   5.0140369680e+01    0.3865031    0.2068744 -55.21  0.001016902    2.236    0.553
       547  -9.4087     51.4946     69.5057   6.1805353152e+01   5.7894073003e+01    0.4445166    0.2514788 -75.83  0.001424431    2.777    0.640
       548  -9.3373    140.9262     81.9044   3.6298940005e+01   3.7608542737e+01    0.4998049    0.2595001 -34.16   0.00162466    2.063    0.515
       549  -8.6623     16.7761     69.9796   7.7062955468e+01   6.1288180460e+01    0.2335143    0.1649739  87.62 0.0007372829    1.575    0.365
       550  -8.7564    147.0156     68.2318   3.0712847316e+01   3.8628363846e+01    0.2778388    0.2033975 -59.78 0.0007230694    1.561    0.360
       551  -8.7040     29.9823     69.6812   7.1142858395e+01   6.0292460525e+01    0.2092512   0.09884153 -10.25 0.0007049238    4.303    0.768
       552  -8.7100    131.3584     68.2876   3.4444248880e+01   4.2439195857e+01    0.1595222    0.1191872  21.14 0.0007023987    1.682    0.405
       553  -9.1457    249.2392     65.7109   1.4296918456e+01   1.5661898297e+01    0.1989154   0.09847265 -21.39 0.0008892853    2.357    0.576
       554  -9.6600    138.7600     65.8432   3.1852731183e+01   4.1076424142e+01    0.3468096    0.2006628 -43.15 0.0009764957    1.755    0.430
       555  -8.9128    121.6558     65.8374   3.6173390796e+01   4.5203516521e+01    0.2862183    0.2229907 -70.92 0.0007131541    1.599    0.374
       556  -9.1448     65.5975     62.5486   5.3802083458e+01   5.7347935916e+01    0.5731255    0.3348233   0.12  0.001975781    3.741    0.733
       557  -8.7514     37.3445     64.2813   6.6458876694e+01   6.0819151980e+01    0.2552087     0.181618  70.81  0.001078422    1.976    0.494
       558  -8.7608    110.0700     63.4705   3.8641529835e+01   4.8331769564e+01    0.2869193    0.2057444 -57.21 0.0006533556    1.623    0.384
       559  -9.3446     97.5614     61.2252   4.1721889891e+01   5.1526476550e+01    0.4405721    0.2709093 -40.86  0.001431705    1.634    0.388
       560  -8.9048     86.0216     63.4863   4.6417179775e+01   5.3455379985e+01     0.212408    0.1281364  19.22 0.0008101822    2.532    0.605
       561  -7.8345    158.2802     61.6691   2.6315419011e+01   3.6929504907e+01    0.1550276    0.1133867 -66.09 0.0003127993    1.605    0.377
       562  -8.6785     52.6685     61.2768   5.8774477415e+01   5.9592710555e+01    0.3689932    0.1310376  26.00  0.001217654    3.809    0.737
       563  -9.6737     73.2378     59.0796   4.9583427240e+01   5.6767188065e+01    0.4051864    0.2454288 -55.08  0.001199837    1.847    0.459
       564  -8.7430    146.9979     59.2222   2.7875094158e+01   4.0154981918e+01    0.2279459    0.1575137 -55.41 0.0007045612    1.616    0.381
       565  -9.7897     23.4575     56.2461   7.0769455804e+01   6.4012499993e+01    0.4588203     0.273388  79.82  0.002025564    2.882    0.653
       566  -9.4587      7.4957     57.0161   7.8763462157e+01   6.4922503240e+01    0.2852788    0.1864575  73.75  0.001054335    1.943    0.485
       567  -8.4358    130.5093     57.5060   3.1092269387e+01   4.4543381200e+01     0.150908    0.1470582  78.57 3.511747e-05    1.034    0.033
       568  -8.2373    140.3718     56.1726   2.8336756964e+01   4.2314495079e+01    0.2175426    0.1334036 -46.28 0.0004628823    1.708    0.415
       569  -8.6235    119.3161     55.9050   3.3407815336e+01   4.7538182893e+01    0.2654845    0.2103852 -87.29 0.0008740776    1.603    0.376
       570  -9.4161    249.8126     54.8271   1.1800352133e+01   1.6960717956e+01    0.1811774    0.1272743 -56.25  0.001075751    1.341    0.254
       571  -8.9925     62.9450     54.6345   5.2115044004e+01   5.9452694761e+01    0.2649846    0.1976934 -54.67 0.0005870684    1.423    0.297
       572  -8.7270     54.1328     53.5103   5.5492383514e+01   6.1061816629e+01    0.2780024    0.1816509 -67.29 0.0009493072    2.057    0.514
       573  -8.4086    105.8538     53.1087   3.6210541262e+01   5.1185877881e+01    0.2307246    0.2021625 -72.23 0.0007052719    1.332    0.249
       574  -9.4376     92.4767     50.4017   3.9414586345e+01   5.4640527362e+01    0.3683972    0.2461678 -53.85  0.001032655    1.775    0.437
       575  -8.6215     44.0694     55.4871   6.0717583720e+01   6.2016082015e+01    0.2494275    0.1877975 -71.73 0.0009882563    1.596    0.373
       576  -8.9029    144.5349     48.9615   2.5050314810e+01   4.2399117868e+01    0.2228071    0.1475704 -33.42 0.0004726005    1.546    0.353
       577  -8.9157    129.6392     49.2071   2.8447424526e+01   4.6119567055e+01    0.2058212    0.1448662 -20.41 0.0006502604    1.630    0.387
       578  -9.3217      8.9934     48.2304   7.6041934391e+01   6.6865266458e+01    0.2104751    0.1103166 -31.65 0.0009171933    1.938    0.484
       579  -8.3900    112.1613     46.7154   3.2027967050e+01   5.0794361604e+01    0.2587401    0.1943297 -47.44 0.0007218567    1.430    0.301
       580  -8.8585     82.0710     46.4576   4.1492978824e+01   5.7524346641e+01    0.2618528    0.1979812 -54.43 0.0006691337    1.539    0.350
       581  -7.7639    163.6637     47.7024   2.1004167154e+01   3.7707305448e+01    0.1511424    0.1112129  30.93 0.0007031845    1.653    0.395
       582  -8.9383     44.9970     44.4878   5.6373276831e+01   6.4231802761e+01     0.247731    0.1825944 -64.51 0.0006860279    1.653    0.395
       583  -9.1843     16.7179     44.5712   7.0949231154e+01   6.7181227860e+01    0.1951712    0.1486462 -88.65 0.0006045387    1.647    0.393
       584  -9.1757    132.6566     43.3562   2.5695927029e+01   4.6259282341e+01    0.2887433    0.1885052 -28.63 0.0006728089    1.627    0.385
       585  -8.6617     58.1008     42.5254   4.9530654061e+01   6.2661002090e+01    0.2569296    0.1890029 -57.76  0.001262648    1.628    0.386
       586  -9.8809      5.1676     42.2365   7.6620914850e+01   6.8422664047e+01    0.3027654    0.2018629 -82.25  0.001563182    1.664    0.399
       587  -9.3290     69.6530     41.2317   4.4108541923e+01   6.0882082643e+01    0.2962792    0.2290559 -65.83 0.0009779562    1.778    0.438
       588  -8.7043    105.9302     40.9989   3.1596539705e+01   5.3187019956e+01    0.2306737    0.1772526 -69.14 0.0006017205    1.694    0.410
       589  -8.5062     36.7206     40.5623   5.8988347519e+01   6.6095924530e+01    0.2115251    0.1626733 -73.96 0.0008478955    1.746    0.427
       590  -8.3991    160.5075     40.0093   1.9136446014e+01   3.9593018910e+01    0.2231293     0.143618 -31.03 0.0007593571    1.595    0.373
       591  -8.9910     95.5164     38.0226   3.3524139895e+01   5.6062221777e+01    0.2142687    0.1412096 -36.15 0.0005335449    1.556    0.357
       592  -9.0243     21.6384     37.3432   6.5913284408e+01   6.8347561911e+01    0.2919627    0.1494954  28.69  0.001478657    2.105    0.525
       593  -9.3696     26.2022     35.4722   6.2673982953e+01   6.8305815055e+01    0.2640621    0.2120057 -70.54 0.0008322023    1.522    0.343
       594  -8.8501    126.0723     35.9496   2.4513097555e+01   4.8993892773e+01     0.238232    0.1725215 -68.09  0.001111792    1.721    0.419
       595  -8.1075     80.7078     36.3668   3.7815007335e+01   5.9544136992e+01     0.140185    0.1133221 -71.25 0.0006347143    1.713    0.416
       596  -8.7554    111.7562     34.3879   2.7409065916e+01   5.2777279613e+01    0.2565191    0.1697406 -43.47 0.0006532521    1.627    0.385
       597  -9.6395      8.7703     34.1110   7.2276702542e+01   7.0004852001e+01    0.3073663     0.168497  18.21  0.001530774    2.003    0.501
       598  -8.0665    119.4713     33.4740   2.5125591462e+01   5.0997889765e+01    0.1459675    0.1380791  88.74 3.696113e-05    1.107    0.097
       599  -8.8734     48.4994     32.9113   4.9885489846e+01   6.5981106175e+01    0.2245656    0.2094422  83.47  0.000688064    1.454    0.312
       600  -8.2426     99.0055     33.0000   3.0389996825e+01   5.6023596851e+01    0.2387018    0.0790835  54.54  0.000795614    2.895    0.655
       601  -8.7885     60.6786     32.1966   4.3935694941e+01   6.4102390453e+01    0.2035505    0.1663835 -50.82 0.0006875551    1.430    0.301
       602  -8.8764     72.3998     31.1674   3.8633288035e+01   6.2072085270e+01    0.1921698    0.1265336 -45.82 0.0006906096    1.702    0.412
       603  -9.3141     12.9138     29.9349   6.8382452778e+01   7.0609706039e+01    0.3283716    0.1756724 -72.37  0.001578977    2.455    0.593
       604  -8.8092     81.4255     27.2037   3.3508290445e+01   6.0812633385e+01    0.2501866    0.2034721 -63.82 0.0008086969    1.624    0.384
       605  -8.6318     91.9975     26.4716   2.9717178868e+01   5.8569714082e+01    0.2579536    0.1884015 -47.53 0.0007303884    1.579    0.367
       606  -9.2841      3.5491     27.0831   7.3256096143e+01   7.1798644577e+01     0.221273    0.1464142 -84.21  0.001115142    1.969    0.492
       607  -8.9660     75.9036     25.4115   3.4655538143e+01   6.2241681696e+01    0.2881457      0.15454  37.06  0.001283784    1.899    0.474
       608  -8.2731    104.4419     23.7022   2.4978893336e+01   5.5998105242e+01    0.2702348    0.1334565 -32.82  0.001094036    2.087    0.521
       609  -8.2056     34.2462     22.9886   5.2735036983e+01   6.9792875439e+01     0.166629   0.09926701 -42.68 0.0008785519    1.570    0.363
       610  -8.4545    120.8697     21.7908   2.0289956808e+01   5.2140018123e+01    0.1918717    0.1638176 -68.84 0.0004357273    1.298    0.230
       611  -8.8555     63.8606     21.1967   3.7323319929e+01   6.5269331056e+01    0.2855318    0.1762488 -46.57 0.0008388562    1.958    0.489
       612  -8.8195     48.5196     21.3419   4.4358297089e+01   6.7976468266e+01    0.2108976    0.1848639 -50.77 0.0005989948    1.429    0.300
       613  -8.7176     74.0050     19.2925   3.2421715911e+01   6.3497663332e+01    0.2318186    0.1859515 -54.69 0.0007718254    1.597    0.374
       614  -8.5976     38.7339     18.9191   4.8195498692e+01   6.9880116480e+01    0.2172502    0.1606763  42.72  0.001263683    1.583    0.368
       615  -8.0592     88.2641     17.6492   2.6875085000e+01   6.0573198788e+01    0.1342806    0.1062047 -60.17 0.0006847191    1.616    0.381
       616  -8.6500    152.7657    249.5928   6.6327518156e+01   4.4902234797e+00    0.1657626   0.08409575  40.67 0.0005765043    1.609    0.378
       617  -9.4495    112.8660    248.8793   7.3929404482e+01   1.0062308132e+01    0.2398488    0.1815715  53.41  0.001415859    1.264    0.209
       618  -9.7640    104.0190    246.9510   7.5475606348e+01   1.1549127940e+01    0.4023953    0.2303545  85.93  0.002101971    3.090    0.676
       619  -8.6697     77.7943     12.9718   2.7966706251e+01   6.3485472339e+01    0.2381019    0.1705479  67.43 0.0008552063    1.643    0.391
       620 -10.6181     76.5999    247.0998   8.0852637907e+01   1.5076778538e+01    0.4449442    0.1563889  42.36  0.002159488    2.027    0.507
       621  -8.4214     53.4709     14.6932   3.8495939924e+01   6.8138573523e+01    0.2230468     0.112358  44.04 0.0008885283    1.942    0.485
       622  -9.7609     82.5216    246.2601   7.9631872405e+01   1.4468494105e+01    0.3159417     0.141357  41.21  0.001103176    1.645    0.392
       623 -10.0744     77.6857    242.6791   8.0301026853e+01   1.5675351334e+01    0.3128104    0.1718576  71.76  0.001718834    2.237    0.553
       624  -7.8666     30.2943     15.6861   5.1325531232e+01   7.1577613537e+01    0.1087067    0.1021554 -87.08 0.0004015281    1.598    0.374
       625  -9.9531     82.2669    238.6867   7.9066179169e+01   1.5765048980e+01    0.4258201    0.1767512  31.55  0.001942175    2.172    0.540
       626 -10.0326     64.4654    248.3546   8.3288227121e+01   1.6352455526e+01     0.245868     0.150625  45.40 0.0005937259    1.205    0.170
       627  -9.4930     51.6359    248.9809   8.5773612652e+01   1.7745969434e+01    0.2083701    0.1311968  45.88  0.000403572    1.168    0.144
       628  -8.8313    203.3749    247.7664   5.6851848445e+01  -2.0713535377e+00    0.2325776    0.1152686  24.94  0.001161185    1.669    0.401
