#   1 NUMBER                 Running object number                                     
#   2 MAG_AUTO               Kron-like elliptical aperture magnitude                    [mag]
#   3 X_IMAGE                Object position along x                                    [pixel]
#   4 Y_IMAGE                Object position along y                                    [pixel]
#   5 X_WORLD                Barycenter position along world x axis                     [deg]
#   6 Y_WORLD                Barycenter position along world y axis                     [deg]
#   7 A_WORLD                Profile RMS along major axis (world units)                 [deg]
#   8 B_WORLD                Profile RMS along minor axis (world units)                 [deg]
#   9 THETA_WORLD            Position angle (CCW/world-x)                               [deg]
#  10 FWHM_WORLD             FWHM assuming a gaussian core                              [deg]
#  11 ELONGATION             A_IMAGE/B_IMAGE                                           
#  12 ELLIPTICITY            1 - B_IMAGE/A_IMAGE                                       
         1 -14.3514      4.2635    176.3826   1.4893120148e+02   3.7817349976e+01      4.52575          nan -71.13    0.0137132    7.031    0.858
         2 -15.0608     10.9723    155.3263   1.4607699063e+02   4.1719873586e+01     6.634837     1.982945 -88.45   0.02439872    4.249    0.765
         3 -13.5055    193.4057     29.4671   6.9498483350e+01   3.2769036272e+01     1.489072     1.408883 -33.40  0.007806615    1.150    0.130
         4 -13.7221    208.0664      9.8675   6.2363568693e+01   3.1124226268e+01     1.419798     1.021638  43.46  0.007642816    1.602    0.376
         5 -11.9972      3.0117      5.3659   1.2035940580e+02   7.3700711048e+01    0.5031825    0.2757898 -54.94  0.003123294    1.931    0.482
         6  -9.2932     23.9083    245.9292   1.4906332737e+02   2.2881922849e+01    0.1731539   0.07658012  61.94 0.0006000565    1.686    0.407
         7 -11.8760    248.3090    248.4343   1.0968968918e+02  -1.0294826116e+01    0.5763285    0.2521783  36.16  0.003290554    1.794    0.442
         8  -9.1202    156.3258    250.3065   1.2619242555e+02   3.7241465174e+00    0.1162434    0.0808415  21.50 0.0007035765    1.649    0.394
         9 -11.5529    139.7382    249.6733   1.2914787881e+02   6.4701904227e+00     0.407741     0.162563  40.56  0.002023807    1.935    0.483
        10 -11.4738    109.8050    249.6442   1.3458401080e+02   1.1118946536e+01    0.5737547    0.1676428  50.54  0.002419146    2.965    0.663
        11 -10.6387     98.0221    249.3313   1.3666831867e+02   1.2912539447e+01    0.2337483    0.1734987  48.48  0.001046725    1.128    0.113
        12  -9.9173     29.3241    250.0293   1.4839292340e+02   2.1613616419e+01     0.240095     0.152406  85.41   0.00150087    1.362    0.266
        13 -10.5536     33.4969    248.4796   1.4764467668e+02   2.1407890203e+01    0.3375149    0.1992019  64.87  0.002484703    1.223    0.182
        14 -10.8831     35.1148    244.1440   1.4715240437e+02   2.1953670800e+01    0.2839288     0.226555  43.41  0.001909776    1.510    0.338
        15 -10.3781      2.6268    248.5006   1.5247764017e+02   2.4599800794e+01    0.2933212    0.1555198 -83.62  0.001750995    1.698    0.411
        16 -10.5792    125.5204    250.0000   1.3177520216e+02   8.6595421981e+00    0.3560579   0.05215557  41.03  0.001078942    5.188    0.807
        17  -9.3491     82.6582    243.3046   1.3889524396e+02   1.6085527400e+01     0.122429   0.06522783  62.22 0.0006421228    1.682    0.405
        18 -10.8305      4.2767    240.8620   1.5195093798e+02   2.5715043419e+01    0.3724957    0.1796581  45.31  0.001417427    1.684    0.406
        19  -9.9396     12.7036    240.2254   1.5059903462e+02   2.5002217448e+01    0.1802144    0.1213373  40.07  0.001343334    1.642    0.391
        20  -9.9728    182.9688    238.5006   1.1972524687e+02   9.5688219199e-01    0.1959476   0.09656949  39.93 0.0005212016    1.574    0.365
        21 -10.9486    233.0791    235.9361   1.1030766253e+02  -6.7666378557e+00    0.2654585    0.1930029 -58.50  0.001485637    3.150    0.683
        22 -10.4345    229.8341    230.6959   1.1002840518e+02  -5.6737860592e+00    0.2687878     0.166484 -48.32  0.001470072    2.787    0.641
        23 -14.4663      9.4775    206.6785   1.4959772967e+02   3.1365798579e+01     9.908604          nan  39.03   0.00667435   11.572    0.914
        24  -9.9663     46.5612    248.7262   1.4551613870e+02   1.9855726681e+01    0.2757562    0.1173224  70.77  0.001149807    2.351    0.575
        25 -11.2544    198.7814    246.7159   1.1801210747e+02  -2.6530916136e+00     0.281139    0.2329707 -85.21  0.001823689    2.247    0.555
        26  -8.4111     94.6896    217.2499   1.3414985057e+02   1.8902597705e+01     0.125034   0.07622443  61.61 0.0001962538    1.513    0.339
        27 -10.3146    156.1839    228.6022   1.2341646250e+02   6.8951819845e+00     0.189725   0.09972933  34.25 0.0007168944    1.738    0.425
        28  -8.9549    152.4834    212.9506   1.2191665309e+02   1.0038969993e+01     0.160698    0.1334327 -51.86 0.0004158372    1.458    0.314
        29 -11.1120     20.2633    199.9666   1.4723775991e+02   3.1634425785e+01    0.2050653    0.1566533  65.59 0.0003868733    1.117    0.105
        30 -11.5807     16.3528    197.7842   1.4784509814e+02   3.2442464916e+01    0.2850458    0.1587208  55.13 0.0006526794    1.477    0.323
        31  -9.9878    193.1450    195.4298   1.1081913834e+02   5.4044755331e+00    0.6880983    0.3463686 -61.43  0.001853066    8.063    0.876
        32  -9.2817     51.6628    197.3426   1.4087010850e+02   2.8701937535e+01    0.2049061    0.1353511  66.40 0.0006877411    1.282    0.220
        33 -11.6295     63.3781    198.4008   1.3856549346e+02   2.7003208757e+01    0.3026929    0.2331633 -48.52  0.001122317    1.766    0.434
        34 -12.7360     37.3231    232.8998   1.4614472433e+02   2.3650419130e+01    0.2741132     0.222647  83.71 0.0007256141    1.257    0.204
        35 -11.9182     69.1638    190.4834   1.3653594410e+02   2.7846051147e+01    0.2575536    0.2404149 -78.13 0.0005046235    1.284    0.221
        36 -13.2375     65.9144    175.7108   1.3558788854e+02   3.1411631944e+01    0.4630789    0.2727033 -46.32   0.00146043    2.247    0.555
        37 -10.8120     78.8665    177.6976   1.3288126230e+02   2.9175359682e+01    0.2208487    0.1986742  89.49 0.0003409266    1.114    0.103
        38  -8.6735    100.4591    176.9549   1.2781760883e+02   2.5984151621e+01    0.1782464    0.1099201  85.10  0.000514148    2.204    0.546
        39 -11.9397     86.4409    168.1824   1.2981851731e+02   3.0108023031e+01    0.6340105    0.5776233  58.33  0.003965033    1.114    0.102
        40 -14.6166     43.1293    224.5509   1.4459545044e+02   2.4482782161e+01     3.545783      1.33676  36.05   0.00722542    2.629    0.620
        41 -10.4412     32.6405    156.0496   1.4114296351e+02   3.9627690150e+01    0.2804106   0.09777895 -71.96  0.001245541    2.482    0.597
        42 -10.0981     98.6709    152.2765   1.2427261629e+02   3.1675163234e+01     0.340742    0.2651761 -49.15 0.0008888787    1.384    0.278
        43  -9.4008    101.6339    147.9584   1.2274304498e+02   3.2140930270e+01    0.2153717    0.1678731 -41.41 0.0005439282    1.465    0.317
        44 -12.1128     87.3014    151.5640   1.2703073358e+02   3.3684811392e+01    0.2801378    0.2493099 -43.68 0.0004698768    1.299    0.230
        45 -12.6609     67.1401    143.9443   1.3100472523e+02   3.8369160196e+01    0.7618152    0.5107331  73.90  0.003973497    1.654    0.396
        46 -11.5643     56.7024    129.9471   1.3160600375e+02   4.2955653532e+01    0.9509673    0.3471667 -76.04  0.002944437    4.617    0.783
        47  -9.3952     68.9019    235.2491   1.4071868713e+02   1.9335901333e+01    0.2328077    0.1414941 -72.02  0.001511027    1.779    0.438
        48  -8.6047    191.9905    144.0100   1.0053669343e+02   1.4394521234e+01    0.1749488    0.1653735   4.04 0.0003595774    1.041    0.039
        49  -8.7591    181.4750    144.5517   1.0288611083e+02   1.6603902833e+01    0.1503705    0.1427717  40.60  0.000807144    1.060    0.057
        50  -9.7899    109.9980    137.1625   1.1846371273e+02   3.3082721287e+01    0.3609066    0.2537159 -14.89  0.001319753    2.358    0.576
        51 -10.5390     97.3310    134.5320   1.2129721831e+02   3.5933631674e+01    0.2592341    0.2296523 -28.37 0.0003169813    1.321    0.243
        52 -11.5292     34.0650    133.3759   1.3823019175e+02   4.4614324991e+01    0.2966159    0.2302024 -82.66  0.001903238    1.094    0.086
        53 -10.6077     82.2275    133.5077   1.2519700839e+02   3.8619301001e+01     0.269978    0.2193841  69.83 0.0004966696    1.270    0.213
        54  -9.4067     92.4132    132.2369   1.2217201629e+02   3.7289285448e+01    0.2121099    0.1748367  71.24 0.0003781791    1.271    0.213
        55  -9.2125    106.9855    123.9642   1.1642436865e+02   3.6624814950e+01    0.2051122    0.2009884  78.42            0    1.022    0.022
        56  -9.8132     38.9749    146.5111   1.3856505085e+02   4.1126690785e+01     0.174805     0.120199  35.01  0.001041941    1.618    0.382
        57 -10.8283     32.9170    117.2466   1.3636655251e+02   4.8436752699e+01    0.6758459   0.06818323 -67.98  0.001420715    9.906    0.899
        58  -9.8033    102.9694    225.4745   1.3340613247e+02   1.6157299868e+01    0.1843061   0.07615585  56.15 0.0007119976    2.485    0.598
        59 -10.3246    167.7764    112.8616   9.8192832150e+01   2.5852120095e+01    0.3529334    0.2931608 -85.51 0.0009481397    1.506    0.336
        60  -9.5978    203.2783    111.5759   9.0420009488e+01   1.7631851215e+01    0.2573248    0.1866966  -7.12 0.0006551826    1.710    0.415
        61 -10.7147    173.2620    222.5018   1.1922606049e+02   4.8640972859e+00    0.3556692    0.2046007  41.04  0.001911549    1.404    0.288
        62 -10.3623    243.5071     88.4806   7.7953321517e+01   1.2153328918e+01    0.3106764    0.1326377 -16.27 0.0008106332    5.824    0.828
        63  -9.1457     70.8804     84.9440   1.1779139734e+02   5.1445535116e+01    0.3308303    0.1468616  53.62   0.00111255    4.027    0.752
        64  -8.7126    184.5139     77.4590   8.4866599379e+01   2.8166122057e+01    0.1556578    0.1486652  33.28  0.000155893    1.062    0.059
        65 -10.8472     10.2682     64.0734   1.3474931791e+02   6.2021343756e+01    0.2983287      0.12593  35.01  0.001523316    2.915    0.657
        66 -11.3814     24.0817     58.9343   1.2814585405e+02   6.2213644324e+01    0.6664894    0.2047586  39.60  0.002584419    4.577    0.782
        67 -11.1982      2.7098     41.6880   1.3282003941e+02   6.7043712518e+01    0.4000191   0.05723432 -57.65  0.001574201    3.387    0.705
        68 -10.3244    152.0015    248.4811   1.2676271634e+02   4.6744296750e+00    0.1918823   0.09212158  41.44 0.0004532775    1.575    0.365
        69 -10.1024     81.7522    248.5981   1.3948789990e+02   1.5340509151e+01    0.1660251   0.07577749  49.73 0.0009475407    1.626    0.385
        70 -11.3930      2.4592     25.4197   1.2831727362e+02   7.0209297430e+01    0.4132072   0.07900126 -58.35  0.001613172    3.788    0.736
