#   1 NUMBER                 Running object number                                     
#   2 MAG_AUTO               Kron-like elliptical aperture magnitude                    [mag]
#   3 X_IMAGE                Object position along x                                    [pixel]
#   4 Y_IMAGE                Object position along y                                    [pixel]
#   5 X_WORLD                Barycenter position along world x axis                     [deg]
#   6 Y_WORLD                Barycenter position along world y axis                     [deg]
#   7 A_WORLD                Profile RMS along major axis (world units)                 [deg]
#   8 B_WORLD                Profile RMS along minor axis (world units)                 [deg]
#   9 THETA_WORLD            Position angle (CCW/world-x)                               [deg]
#  10 FWHM_WORLD             FWHM assuming a gaussian core                              [deg]
#  11 ELONGATION             A_IMAGE/B_IMAGE                                           
#  12 ELLIPTICITY            1 - B_IMAGE/A_IMAGE                                       
         1  -8.1985    236.2525      1.5391   2.8908340896e+02   6.3832550165e+00   0.01240036  0.008284616   3.88 0.0009691188    1.878    0.468
         2  -9.0671    144.2412    249.2192   2.9160769799e+02   4.0554082446e+00   0.01772316  0.006858091  48.44  0.001279929    3.356    0.702
         3 -10.0667    190.1629    245.8826   2.9106566245e+02   3.8287907950e+00   0.02589757   0.01831163 -53.22  0.002824099    1.369    0.270
         4  -9.1521     94.3184    248.9871   2.9217436437e+02   4.3459653657e+00   0.01290563  0.008945906  53.80  0.001352392    1.605    0.377
         5  -9.2570     62.4880    247.7455   2.9252932497e+02   4.5436068407e+00   0.01275543   0.01093863 -43.71 0.0004780642    1.167    0.143
         6  -8.9922    101.4784    246.5174   2.9207824475e+02   4.3332744118e+00   0.01026633  0.005804949  39.67 0.0009844025    1.781    0.439
         7  -9.4745    172.4265    244.4610   2.9125888548e+02   3.9476908880e+00   0.01927175    0.0111365 -21.41  0.001519009    2.616    0.618
         8  -8.2205    150.5115    245.5159   2.9151439899e+02   4.0620376391e+00  0.006521304  0.006332482  81.09 -0.0001423931    1.046    0.044
         9  -8.2002     87.6017    244.1938   2.9222242075e+02   4.4401044678e+00  0.009271589  0.005825959 -52.65 0.0004953097    1.535    0.348
        10  -8.6328    111.2258    240.7662   2.9193322346e+02   4.3436055365e+00    0.0104347  0.005622269  11.16 0.0008898921    2.475    0.596
        11  -8.8165    148.1521    238.6840   2.9150069309e+02   4.1546508912e+00   0.01331587  0.005056901  35.30 0.0008170392    2.504    0.601
        12 -11.3823    211.5798    228.5915   2.9071942751e+02   3.9048191444e+00    0.1028814   0.03865833 -35.12  0.005756469    5.922    0.831
        13  -7.5008     37.4823    213.4481   2.9261110271e+02   5.0842555977e+00  0.006547312  0.006265122 -37.16 0.0002663171    1.049    0.047
        14  -8.6229     40.2459    226.2807   2.9265557613e+02   4.9198868980e+00   0.01150471   0.01057475  58.75  0.000393731    1.127    0.113
        15  -7.2964     59.4462    203.4270   2.9230150891e+02   5.0738443456e+00  0.006479747  0.006269423 -40.20 6.711809e-05    1.032    0.031
        16  -8.7412    172.2230    216.5950   2.9109565363e+02   4.2710113138e+00   0.01226422  0.006713123  10.35  0.001060116    2.451    0.592
        17  -9.8992    183.7451    195.3874   2.9083845527e+02   4.4495642383e+00   0.01148238   0.01130826  77.55  0.000262798    1.029    0.028
        18  -7.3097    183.8628    180.6457   2.9074938669e+02   4.6192839843e+00  0.009284559  0.005584795  40.51 0.0004418624    1.686    0.407
        19  -7.3161     13.6639    170.6530   2.9262912423e+02   5.7162942152e+00  0.007170633  0.004788453 -29.75 0.0007048245    1.776    0.437
        20  -7.1940     58.9637    162.0157   2.9206137324e+02   5.5556916793e+00  0.007646725  0.007547733  23.54 0.0009658933    1.034    0.033
        21  -8.6086    248.1984    156.7175   2.8987510544e+02   4.5231891263e+00   0.01353319  0.006927914  62.07    0.0010344    3.201    0.688
        22  -8.0751     12.0086    153.1248   2.9254411350e+02   5.9285882318e+00   0.01010416  0.008593274 -25.59 0.0005214002    1.262    0.207
        23  -7.7670    237.4961    152.4737   2.8997145779e+02   4.6342446586e+00  0.006495031  0.006355437 -53.53 0.0001138823    1.007    0.007
        24  -7.6045     13.9623    146.9982   2.9248549615e+02   5.9882392547e+00  0.007900236  0.007398548  25.65  0.000972727    1.090    0.083
        25  -7.9103    243.3535    144.6684   2.8985830261e+02   4.6904403959e+00  0.007128244  0.004854505  62.75 0.0001899556    1.782    0.439
        26  -9.1897    128.8298    141.8349   2.9114502868e+02   5.3861056122e+00   0.01065248   0.01020778  62.95 0.0002648597    1.069    0.065
        27  -8.5980    242.1966    136.8569   2.8982484542e+02   4.7873647450e+00  0.009424393  0.007528298 -32.84 0.0005731902    1.338    0.253
        28  -8.3975    193.7438    131.9640   2.9034688736e+02   5.1246916902e+00    0.0100929  0.009254588  28.12 0.0004083565    1.111    0.100
        29  -9.6586    249.4626    126.3508   2.8967952631e+02   4.8665418744e+00   0.02469278  0.007264951 -57.69  0.001805401    2.992    0.666
        30  -8.5537    126.0325    126.9426   2.9108824124e+02   5.5744293810e+00  0.009504753  0.009176224  87.12            0    1.051    0.049
        31 -10.2884    239.5831    123.4907   2.8977478588e+02   4.9568775790e+00   0.01321465   0.01270315  21.27  0.001668884    1.064    0.060
        32  -7.0228    168.6282    116.2630   2.9053924624e+02   5.4515273702e+00  0.006912441   0.00476869  56.72 0.0006983381    1.659    0.397
        33  -7.1801     49.5879    113.5074   2.9188013782e+02   6.1706851060e+00   0.00651454  0.006239012 -52.69 6.331172e-05    1.024    0.024
        34  -7.6330    185.9328    109.3139   2.9030071125e+02   5.4316140639e+00  0.008831012  0.008288318  13.58 0.0003181435    1.099    0.090
        35  -6.9970     28.3507    109.7132   2.9209996257e+02   6.3367561280e+00  0.006916583  0.004840287  59.54 0.0007022514    1.662    0.398
        36  -8.9778    242.7104    104.7668   2.8962741220e+02   5.1549273687e+00   0.01622017      0.01125  88.36   0.00112243    1.792    0.442
        37  -7.7026    189.3351    104.5521   2.9023355359e+02   5.4669113569e+00   0.00862137  0.006479342   9.27 0.0009329279    1.497    0.332
        38  -7.7067    210.0603     83.2694   2.8987050296e+02   5.5925505057e+00  0.008825796  0.008328334  31.78 0.0001860356    1.078    0.073
        39  -7.9324    155.8123     65.6607   2.9038333104e+02   6.1102554849e+00   0.01087062  0.008307748 -51.79 0.0004043865    1.275    0.216
        40  -8.7615    193.0487     61.5381   2.8993437709e+02   5.9420875849e+00   0.01149998  0.009230063 -62.02 0.0003032334    1.220    0.180
        41  -7.0182    235.3327     55.3365   2.8941588863e+02   5.7682549941e+00  0.007092758  0.004827484 -29.14 0.0005574308    1.739    0.425
        42  -9.8136    248.2222     47.9126   2.8922482742e+02   5.7790098068e+00   0.01454966   0.01237154 -66.65 0.0003430815    1.166    0.142
        43  -8.8138    133.3030     50.7717   2.9055110591e+02   6.4124580001e+00   0.01640175  0.009936386  43.96  0.001176603    1.720    0.419
        44  -9.4536    248.7929     36.8482   2.8915212333e+02   5.9032977407e+00   0.01684652   0.01314731  47.28  0.001853328    1.333    0.250
        45  -7.8677    189.0732     34.9184   2.8982052590e+02   6.2723561274e+00  0.009443007  0.009151753 -28.12 0.0003167288    1.045    0.043
        46  -8.0887    160.8507     28.3052   2.9010268407e+02   6.5122875193e+00   0.01714758  0.006543957 -47.70  0.001019452    2.656    0.623
        47 -10.3299    143.0303     27.0491   2.9029841923e+02   6.6300009098e+00   0.01214451    0.0106028 -58.89  0.000311318    1.118    0.106
        48  -7.4597    153.8028     22.2000   2.9014655519e+02   6.6235671777e+00  0.009025057  0.007363394 -34.31 0.0004062728    1.290    0.225
