#   1 NUMBER                 Running object number                                     
#   2 MAG_AUTO               Kron-like elliptical aperture magnitude                    [mag]
#   3 X_IMAGE                Object position along x                                    [pixel]
#   4 Y_IMAGE                Object position along y                                    [pixel]
#   5 X_WORLD                Barycenter position along world x axis                     [deg]
#   6 Y_WORLD                Barycenter position along world y axis                     [deg]
#   7 A_WORLD                Profile RMS along major axis (world units)                 [deg]
#   8 B_WORLD                Profile RMS along minor axis (world units)                 [deg]
#   9 THETA_WORLD            Position angle (CCW/world-x)                               [deg]
#  10 FWHM_WORLD             FWHM assuming a gaussian core                              [deg]
#  11 ELONGATION             A_IMAGE/B_IMAGE                                           
#  12 ELLIPTICITY            1 - B_IMAGE/A_IMAGE                                       
         1 -11.6800    144.8895     33.0898   8.3052728512e+01   4.5132149858e+01    0.6284301    0.2975208 -46.86 0.0004231673    2.530    0.605
         2  -8.8282      2.4413     20.8236   1.3521041843e+02   7.2379280858e+01    0.3995401    0.1323229 -55.05  0.001862619    2.065    0.516
         3 -12.0658     76.6406     24.1785   9.7859633580e+01   6.2265335968e+01    0.6252985    0.4614439 -47.12  0.002011675    1.545    0.353
         4 -11.4679     13.9605     21.1385   1.2804380098e+02   7.1622137193e+01     0.372701    0.3064395  63.39  0.002376032    1.683    0.406
         5 -10.4908     52.6106     22.2985   1.0709033669e+02   6.6882318301e+01    0.5490764    0.2016726 -34.51  0.002049665    2.802    0.643
         6 -11.5320     41.5871     18.4235   1.1064351612e+02   6.9226259506e+01    0.5922477    0.4043545 -45.97  0.003277385    1.425    0.298
         7 -11.0482     39.7603      6.2062   1.0467151290e+02   7.1603901376e+01    0.8325202    0.3386771  39.80  0.003677615    2.665    0.625
         8 -10.4639     40.3706      1.7192   1.0144664463e+02   7.2204174964e+01    0.5237424    0.2623105  51.31  0.002087008    2.874    0.652
         9 -11.1581     22.4084      9.3716   1.1710297112e+02   7.3274844540e+01    0.3564071    0.2529948 -11.00  0.001316004    1.431    0.301
        10 -11.7327     34.9977     13.4638   1.1162981358e+02   7.1024909181e+01    0.5333029    0.3397058 -41.32  0.001935076    1.382    0.277
        11 -12.1687     29.8119      6.7699   1.1086684491e+02   7.2890709791e+01    0.5432227    0.3456686 -38.71  0.002437583    1.358    0.264
        12 -10.8615     27.1078     15.5298   1.1739049214e+02   7.1581416768e+01    0.3709061    0.3006217 -12.79  0.001868628    1.179    0.152
        13 -10.7522    140.9592     11.6600   7.5516729169e+01   4.8575601460e+01    0.3011849    0.2063231 -39.29 0.0002583024    1.513    0.339
        14 -10.6820    212.2952     11.7942   6.6954336877e+01   3.0577309300e+01    0.2332897    0.1909029  65.21 0.0006981077    1.293    0.227
        15 -10.4602    184.6535     12.0676   6.9730971790e+01   3.7282467689e+01    0.2354556    0.1883292 -81.40 0.0005914184    1.344    0.256
        16 -11.0672    118.9656     11.9621   7.9805972513e+01   5.4174525984e+01    0.2225338    0.2085848  14.60  0.001268874    1.017    0.017
        17 -10.6910     92.5928      9.5121   8.5165957136e+01   6.0829829561e+01    0.2696159    0.2042128  23.90 0.0004756922    1.290    0.225
        18 -10.3391     86.0164     12.4491   8.8663288676e+01   6.1966566256e+01    0.2840447    0.1838385  43.66 0.0008286036    1.497    0.332
        19 -10.1834     88.5058      9.5178   8.6368715609e+01   6.1764955158e+01     0.363921    0.1671453 -22.66  0.001503953    2.149    0.535
        20  -9.9658      9.2989     10.3409   1.2655349309e+02   7.4237598098e+01    0.2876815    0.1208945 -27.07  0.001248168    2.907    0.656
        21 -11.2539     13.6098      8.3326   1.2253155731e+02   7.4311547585e+01    0.4183158    0.2922894  14.11  0.001407495    1.588    0.370
        22 -10.4834     10.1159      1.6549   1.2145900293e+02   7.5910231383e+01    0.2612869    0.2005152   3.96  0.001171107    1.376    0.273
        23 -10.0518      6.4391      4.5023   1.2581931423e+02   7.5628863254e+01    0.2401797    0.1465436 -24.32 0.0006142133    1.577    0.366
        24 -10.8064      3.8734     10.1383   1.3033742986e+02   7.4626322521e+01    0.2205936     0.204417  19.99 0.0004069445    1.363    0.266
        25 -10.5522      2.4714      6.4930   1.2978779380e+02   7.5470237768e+01    0.2242577    0.1609456 -32.01 0.0006999594    1.208    0.172
        26 -11.9575     56.0601      5.7763   9.6229673280e+01   6.8940871619e+01    0.6676854    0.5754296 -75.34  0.003868575    1.821    0.451
        27 -10.5802     70.7210      7.1999   9.1063759760e+01   6.5898186080e+01    0.3341537    0.2450345 -50.03  0.001144608    1.773    0.436
        28 -10.0941     65.9607      6.4797   9.2473386493e+01   6.6953314610e+01    0.2633457    0.2197364  27.41 0.0008281138    1.151    0.131
        29 -10.3389    210.1591      7.3772   6.5872614399e+01   3.1470145296e+01    0.2221747    0.1446853 -30.72 0.0007063474    1.395    0.283
        30 -11.3648    151.5687      5.5709   7.1544767564e+01   4.6372277268e+01    0.5519322    0.2758144  -7.68  0.001554935    2.278    0.561
        31  -8.9891    124.5087      8.4419   7.7136978690e+01   5.3125202450e+01    0.1461021    0.1316373  30.43 0.0001197092    1.049    0.047
        32 -10.3303    218.5187      7.0089   6.5103414675e+01   2.9552754394e+01    0.1962713    0.1181703 -23.13 0.0004771862    1.530    0.346
        33 -10.0198    160.4439      4.4307   6.9960929833e+01   4.4157487064e+01     0.236187    0.1835891 -31.18  0.001025823    1.283    0.221
        34 -10.3941    120.9773      4.1607   7.5933909509e+01   5.4424894514e+01    0.2256377    0.2000673  -3.55 0.0004446898    1.119    0.106
        35  -9.5051    235.5893      4.2169   6.3157353798e+01   2.5975129926e+01    0.1771673    0.1129064  -6.69 0.0009534754    1.695    0.410
        36 -10.8960    130.4322      3.4568   7.3932192878e+01   5.2056697194e+01    0.3047566    0.2214727 -75.18   0.00109273    1.681    0.405
        37  -9.4184     91.2116      3.1874   8.2266467420e+01   6.1832450736e+01    0.2253172    0.1536949 -58.36  0.001063744    2.064    0.515
        38 -10.5297     19.9309      2.4308   1.1471499306e+02   7.4825686896e+01    0.2658136    0.1620179 -28.35 0.0007984606    1.461    0.315
        39 -11.3244     80.4671      1.5958   8.4532954840e+01   6.4453475575e+01    0.3546987    0.1606507  51.75 0.0008796407    2.059    0.514
        40  -9.1738      2.4638      2.5355   1.2791909623e+02   7.6284377815e+01    0.1200325    0.0945241 -42.07 0.0003036011    1.040    0.039
        41  -9.9817    242.9902      2.0000   6.2139959399e+01   2.4578559813e+01    0.1879851   0.06935492  76.71 0.0001233722    3.000    0.667
        42 -10.2795    199.4781      2.6937   6.5392355770e+01   3.4425716880e+01    0.2304888    0.2012872 -72.62 0.0005073065    1.149    0.130
        43 -10.2399     15.4354    185.2145   1.4986926602e+02   3.4542829113e+01    0.2209787   0.09033212 -85.59  0.001226057    2.324    0.570
        44 -11.3440     15.8832    249.4208   1.5210954834e+02   2.3803437325e+01    0.2380114    0.0818786  40.00  0.001590285    1.903    0.474
        45 -12.2637      4.9123    240.8342   1.5366499167e+02   2.5972735607e+01    0.4289909    0.1787368  42.97  0.003113437    1.625    0.385
        46 -10.6477      6.6173    249.2044   1.5358860858e+02   2.4599219601e+01    0.1502019   0.09914136  28.55  0.000687517    1.634    0.388
        47 -10.8148      1.8287    248.8472   1.5433972080e+02   2.5032352092e+01    0.2991804    0.1412762  87.70   0.00228884    2.057    0.514
        48 -12.6290      9.2655    245.2046   1.5306520888e+02   2.4970186963e+01    0.5052321    0.2221807  21.06   0.00306266    3.188    0.686
        49  -9.3717     21.8122    179.4206   1.4823654794e+02   3.5124067767e+01    0.1341136    0.1016058  14.62 0.0009421908    1.710    0.415
        50 -10.4606      4.6263    167.3945   1.5139046808e+02   3.8833128122e+01    0.2423709    0.1338243  57.24  0.001123149    1.490    0.329
        51  -8.8673    247.4422    155.4962   9.8057597810e+01   6.6269278864e+00     0.123635   0.09399871   0.62 0.0001235848    1.013    0.013
        52  -9.3071    243.1896    155.0095   9.8611808393e+01   7.3326703237e+00    0.1600262   0.08135273 -25.11 0.0004506699    1.765    0.433
        53 -10.0443      3.6257    154.0088   1.5102556908e+02   4.1632083840e+01    0.2231423   0.07530267  43.32  0.001153674    2.403    0.584
        54  -9.9656      8.7054    148.6900   1.4954370163e+02   4.2402126186e+01    0.1052264   0.07717159 -54.00 0.0002788269    1.590    0.371
        55 -10.1785     22.0380    143.1252   1.4585236909e+02   4.2601026218e+01    0.2096269    0.1499014 -84.13  0.001370001    1.229    0.186
        56 -11.0210     12.3749    130.3396   1.4744246296e+02   4.6155869137e+01     0.386876    0.1566158  49.38   0.00105798    2.325    0.570
        57  -9.2378     28.7130    128.3281   1.4277623854e+02   4.5355354757e+01    0.1275158   0.07851954  67.19 0.0002345414    1.613    0.380
        58  -9.4010     21.1858    125.8513   1.4465176838e+02   4.6528733775e+01    0.1557681     0.125393 -60.77  0.000459232    1.277    0.217
        59  -9.5570    226.3190    124.6600   9.4841033659e+01   1.3912234325e+01    0.1239065    0.1016984 -51.57 0.0007049586    1.713    0.416
        60  -9.9770     23.6931    122.3269   1.4360877125e+02   4.7141486580e+01    0.1983475    0.1498766  78.48 0.0007422603    1.197    0.164
        61 -10.9127     22.0000    118.9779   1.4377158274e+02   4.8046597139e+01    0.2862317    0.1469592 -86.24  0.001106067    1.826    0.452
        62 -10.8512     17.3676    115.0375   1.4475816321e+02   4.9302955559e+01    0.1735125    0.1649569 -49.51  0.000421543    1.244    0.196
        63 -11.1127      4.1797    113.3672   1.4851963163e+02   5.0531360742e+01    0.2863447    0.1940407 -18.74 0.0008479474    2.050    0.512
        64 -11.3732      5.8524    108.6477   1.4766116223e+02   5.1527624853e+01    0.3051347    0.2592763  -5.91   0.00177772    1.523    0.343
        65  -9.5563     96.0638    113.5434   1.2096153393e+02   4.0465739009e+01    0.1898343    0.1140929  60.25 0.0004940706    2.260    0.557
        66 -10.6024     65.6150    110.4408   1.2935546517e+02   4.5611927250e+01    0.2715444    0.2324704  77.87 0.0006611893    1.209    0.173
        67 -11.0187     12.8910    108.5883   1.4550555803e+02   5.1112297404e+01    0.2939305    0.1641484  76.83   0.00156678    1.766    0.434
        68 -10.4618     58.9000    106.9054   1.3079601303e+02   4.7275891754e+01    0.2900854    0.1777719 -30.04  0.001344884    2.270    0.559
        69 -10.1994      4.9963    102.5280   1.4742341963e+02   5.3004351241e+01    0.1548682    0.1192176  21.17  0.001023657    1.567    0.362
        70  -9.4536     23.3272    100.3100   1.4128136141e+02   5.2340683416e+01    0.1282207   0.08277646 -44.75 0.0007040037    1.660    0.398
        71 -11.6482     11.2289     87.6600   1.4385421899e+02   5.6180986629e+01    0.5857087    0.2189382 -75.58  0.002630168    2.229    0.551
        72 -12.1701     18.0260     94.6595   1.4234814605e+02   5.4072937104e+01    0.4945142    0.3508626 -81.36   0.00155753    1.213    0.176
        73 -11.2387     17.9233     87.9329   1.4151894114e+02   5.5694573073e+01    0.4643636    0.2637458 -38.05  0.001932962    2.025    0.506
        74  -9.9803     36.9864     95.7039   1.3604232078e+02   5.2293599737e+01    0.3674378    0.2007311  56.14  0.001761648    2.175    0.540
        75  -9.6699      3.7420     95.4163   1.4720926041e+02   5.4744578641e+01    0.1421144    0.1144672 -17.29 0.0006927488    1.578    0.366
        76 -10.3934     84.2893     93.8518   1.1993294717e+02   4.6758739451e+01    0.2924332     0.237288  19.42   0.00117065    1.389    0.280
        77 -10.7774     26.6717     90.0480   1.3872545372e+02   5.4544449655e+01    0.6675133    0.3599758  64.38  0.003188475    2.301    0.565
        78  -9.8633    118.4637     90.2883   1.0882506540e+02   4.1386118032e+01    0.3908632    0.1284959  48.95  0.001210499    3.532    0.717
        79 -10.5954     43.6498     89.3606   1.3261073589e+02   5.3162634633e+01    0.3829548    0.1862434  42.13  0.001113894    2.238    0.553
        80 -10.6070      1.6709     89.2585   1.4734513928e+02   5.6304173797e+01    0.4093189    0.1230101 -78.36  0.001130461    2.702    0.630
        81 -10.5414      3.8258     83.1519   1.4598485063e+02   5.7654774473e+01    0.2369192    0.1486975 -64.24  0.001044281    1.328    0.247
        82  -9.8452     76.9803     88.6984   1.2100874475e+02   4.9065179079e+01    0.1989123    0.1868901  27.70   0.00109563    1.135    0.119
        83  -9.3781     32.7021     88.2192   1.3629262646e+02   5.4482348223e+01    0.1760893   0.09878781 -62.69 0.0004143201    1.510    0.338
        84  -9.9004    124.0079     86.9584   1.0636231694e+02   4.0935327483e+01    0.2248395    0.2139934 -12.43 0.0004654835    1.006    0.006
        85  -9.9633     92.5533     85.1644   1.1503673668e+02   4.7318534853e+01     0.218726    0.1955837  54.89 0.0003660682    1.221    0.181
        86 -10.9352     54.3900     84.0381   1.2767573585e+02   5.3232541436e+01    0.2665119    0.2073812 -59.75  0.000386955    1.158    0.137
        87  -9.2376     43.0077     84.0629   1.3179784101e+02   5.4500124283e+01     0.158067    0.1335704 -64.25 0.0003271644    1.045    0.043
        88 -12.1251     63.9423     81.7593   1.2372452871e+02   5.2543951632e+01    0.5763472    0.3918961 -71.57  0.002740747    1.622    0.384
        89  -9.8007     65.2695     75.6957   1.2166406313e+02   5.3764939181e+01    0.3207551    0.2196259 -10.14 0.0005959616    2.078    0.519
        90  -9.9899    250.3717     80.7721   8.1107599427e+01   1.4977551531e+01    0.1860849    0.1066287 -15.43 0.0005903677    1.618    0.382
        91  -9.8796     89.3114     80.5695   1.1477164545e+02   4.8886862276e+01    0.2570468    0.1731132 -59.78 0.0007465682    1.617    0.382
        92  -9.4530     85.2174     79.7568   1.1587826392e+02   4.9763193511e+01    0.1840291    0.1561902 -20.70    0.0001892    1.258    0.205
        93 -10.0596     79.0397     79.6202   1.1790999062e+02   5.0804439515e+01      0.19004    0.1733959  25.94 0.0003154578    1.168    0.144
        94  -8.7972    124.4527     79.4673   1.0400768193e+02   4.2309924329e+01    0.1488555    0.1437472 -28.71 0.0001115793    1.057    0.054
        95  -9.4865     24.0239     79.0056   1.3792991896e+02   5.7414418683e+01    0.2149324    0.1275206 -43.09  0.001133802    1.714    0.417
        96  -9.4518    176.7593     77.3621   9.1418386110e+01   3.0966182382e+01    0.2145683    0.1306531  42.37 0.0009515485    1.686    0.407
        97 -10.2341     56.0694     75.6557   1.2504333374e+02   5.5001965476e+01    0.2695154    0.2252989 -77.70  0.001302027    1.263    0.208
        98 -10.2091     37.6883     75.4922   1.3200986962e+02   5.7088425558e+01    0.3454595    0.2131194 -54.75   0.00112559    1.398    0.285
        99  -9.8704     32.9602     73.4658   1.3342919127e+02   5.8015112330e+01    0.2890781    0.1534109  46.23  0.001124449    2.227    0.551
       100 -10.3534     36.5584     71.2639   1.3152837996e+02   5.8209762106e+01    0.3812806    0.1777341 -41.57  0.001248659    2.261    0.558
       101 -10.5905     16.7538     75.5571   1.4015962790e+02   5.8755609029e+01    0.3097796    0.1951295 -29.86   0.00170816    1.878    0.468
       102 -11.7323      4.1675     73.7863   1.4478919994e+02   5.9880218714e+01    0.3440683     0.273149  28.73  0.001298787    1.507    0.337
       103 -10.3775     46.6703     75.0523   1.2845086712e+02   5.6259944928e+01    0.3323915    0.2022142   5.98  0.001558507    2.339    0.572
       104  -9.3889    147.5589     74.4820   9.6688576098e+01   3.8131487611e+01    0.1533357    0.1406965  -0.98 0.0001135863    1.056    0.053
       105  -9.3337    136.5217     74.4362   9.9318535275e+01   4.0629492283e+01    0.1515516    0.1426989  -1.89 7.481904e-05    1.018    0.018
       106  -9.8409     95.9777     73.7651   1.1058460292e+02   4.9151381209e+01     0.209123    0.1912778  -8.77 0.0003332952    1.111    0.100
       107 -10.1908     91.4906     70.7541   1.1108613639e+02   5.0612498397e+01    0.4419826    0.2919543 -73.43  0.001677314    2.490    0.598
       108 -10.0473     80.9679     72.2956   1.1511195833e+02   5.2116994475e+01    0.2667033    0.2036228 -76.20  0.001312408    1.693    0.409
       109  -9.5949    216.8622     72.1972   8.3324495781e+01   2.2760685698e+01    0.1903173    0.1505741   8.54 0.0004363081    1.300    0.231
       110 -10.6362    105.9743     71.7259   1.0683581283e+02   4.7643403655e+01    0.2494911    0.2074824 -41.23 0.0004017497    1.163    0.140
       111  -9.1358    152.5755     71.5824   9.4648919028e+01   3.7473217728e+01    0.1484619    0.1423345 -21.50 0.0001125256    1.062    0.058
       112 -10.2516     75.5941     71.2155   1.1666607951e+02   5.3230587402e+01    0.2054153     0.124012 -41.48 0.0007040835    1.589    0.371
       113 -10.3276    130.0458     69.6306   9.9417577250e+01   4.2944867641e+01     0.260305    0.2089834 -23.00 0.0003013452    1.241    0.194
       114 -10.6057     44.7191     68.8879   1.2770587547e+02   5.7935207052e+01    0.4893202    0.2758687  51.12  0.002273645    2.284    0.562
       115 -10.2818     10.5828     68.5762   1.4152711228e+02   6.0806919716e+01    0.2981868    0.1671765 -82.22  0.001021528    1.632    0.387
       116 -10.2261     52.1199     67.5833   1.2442450282e+02   5.7378471120e+01    0.3063197    0.2237114  -4.28  0.001022223    1.739    0.425
       117  -9.2481    114.9304     66.6813   1.0254281763e+02   4.6787130325e+01    0.2672204    0.1652737 -71.06 0.0009031916    3.504    0.715
       118 -10.8549     16.7723     64.6199   1.3829369994e+02   6.1389537460e+01    0.3487105     0.293548 -65.11  0.001386997    1.018    0.017
       119 -10.2205     35.1804     64.8329   1.3059529622e+02   5.9873845699e+01    0.2588461    0.2167765 -53.10 0.0008365106    1.043    0.041
       120 -11.2823     39.7373     62.9065   1.2820648906e+02   5.9876604346e+01    0.6815472    0.2632473 -55.89  0.002873144    2.116    0.527
       121  -9.6067    133.2584     63.6442   9.6615410344e+01   4.3285410625e+01    0.2853296    0.1755164 -45.47 0.0009037998    1.717    0.418
       122 -11.5588      8.4570     61.7713   1.4133560275e+02   6.2554209848e+01     0.575143    0.1543141 -51.75  0.002323767    2.858    0.650
       123 -10.5821      7.5184     56.1166   1.4078793885e+02   6.3954075724e+01    0.2106031    0.2073845 -64.83 0.0007505459    1.209    0.173
       124  -9.8199    127.1227     61.8772   9.7579185994e+01   4.4991898935e+01     0.214248    0.2015065 -47.58 0.0004021674    1.142    0.124
       125  -9.7163     53.9309     61.9942   1.2210067384e+02   5.8438477526e+01    0.2081695     0.188954 -50.41 0.0006073174    1.042    0.041
       126 -10.7975      2.1627     59.8899   1.4375315153e+02   6.3296261246e+01    0.2875035    0.1768043  72.59  0.001614097    1.805    0.446
       127  -9.2891    202.1516     60.6288   8.2263314418e+01   2.7526890158e+01    0.1806571    0.1272606  43.28 0.0001243024    1.487    0.328
       128  -9.0923    157.5304     60.4977   9.0046880546e+01   3.8092891684e+01    0.1504076    0.1431032 -17.07 0.0008095941    1.039    0.037
       129 -10.2068     71.5852     57.6146   1.1374817026e+02   5.6840688235e+01    0.3510204      0.19568 -34.36  0.001103298    1.908    0.476
       130  -9.9646    178.0598     59.0975   8.5693124963e+01   3.3377786190e+01     0.215113     0.203075 -30.21 0.0004960242    1.075    0.070
       131 -11.2760      5.1451     51.7949   1.4110519192e+02   6.5096052354e+01     1.048135    0.2869463 -35.25  0.003512038    5.054    0.802
       132 -10.2431      8.5016     44.8832   1.3811252639e+02   6.6566809815e+01    0.2381077    0.1587908 -20.84  0.001062963    1.698    0.411
       133 -10.4266     26.7990     56.8943   1.3228149645e+02   6.2499991295e+01    0.3346642    0.2142802 -54.87 0.0006845501    1.293    0.227
       134 -12.3790     20.3523     57.1416   1.3522362335e+02   6.2936464390e+01    0.2926507    0.2859508  86.08 0.0008196739    1.185    0.156
       135 -12.1103     17.7288     45.2624   1.3361612506e+02   6.5920491236e+01    0.7829759    0.4376875   4.68  0.004057412    2.276    0.561
       136 -10.3771     22.4763     43.4411   1.3075504795e+02   6.5991849904e+01    0.2212171    0.1803203 -20.02 4.301285e-05    1.303    0.233
       137 -10.2488     60.4672     57.8368   1.1816299922e+02   5.8486088906e+01    0.2340599    0.2011936  30.64 0.0006654161    1.276    0.216
       138 -10.0087     54.5531     57.2557   1.2038184184e+02   5.9430069276e+01    0.3639306    0.1624187 -46.15 0.0009278704    1.997    0.499
       139 -10.5426     62.8830     61.8914   1.1851411197e+02   5.7238215523e+01    0.2210299    0.1739373 -28.91 0.0006842836    1.290    0.225
       140  -9.6255     49.4843     57.5105   1.2257447426e+02   6.0021413096e+01    0.2814961    0.1378669  28.61  0.001251389    2.315    0.568
       141  -9.2982     33.5401     57.5565   1.2946147137e+02   6.1747429713e+01    0.1308077    0.1150868 -62.73 5.767849e-05    1.078    0.072
       142 -10.5087     34.3580     53.6963   1.2804298836e+02   6.2570299007e+01    0.4125175    0.1597296 -43.71  0.001688277    2.449    0.592
       143 -11.6861    113.9044     54.6325   9.8605248210e+01   4.9233471377e+01    0.3479173    0.2988938   0.94 0.0006299183    1.202    0.168
       144 -10.7530     19.1785     52.1778   1.3462747960e+02   6.4196222318e+01    0.2386379    0.1835244 -45.04 0.0003692343    1.178    0.151
       145 -10.9911    106.4922     53.9029   1.0050330636e+02   5.0973900087e+01    0.4140929     0.366341  85.42  0.001535082    1.430    0.301
       146  -9.1149     76.9758     54.9339   1.1078103152e+02   5.6503511152e+01    0.1675908     0.152043 -28.88            0    1.007    0.007
       147 -11.8189     66.6082     52.5099   1.1387782699e+02   5.8720501780e+01    0.5272257    0.2645283  30.87  0.002243546    2.301    0.565
       148 -10.1087     46.5377     52.8180   1.2236367826e+02   6.1443991568e+01    0.2048649    0.1836375  20.64  0.000386266    1.244    0.196
       149  -8.7133    176.2785     52.3301   8.3886587396e+01   3.4748703247e+01    0.1519005    0.1097625  16.40 0.0001668816    1.600    0.375
       150 -11.5647     86.4621     53.6365   1.0689797254e+02   5.5055919371e+01    0.5857972    0.3807642  45.26  0.002778213    1.660    0.398
       151  -9.0862    161.3264     50.3407   8.5943273187e+01   3.8681241976e+01    0.1610701    0.1110118  20.18 0.0007051378    1.733    0.423
       152 -11.1819     77.2955     46.5394   1.0749114661e+02   5.8140842175e+01    0.4011253    0.3077856  -6.49  0.001556412    1.483    0.326
       153  -8.7980     59.6419     49.2865   1.1554386024e+02   6.0466051597e+01    0.1335161    0.1106576  79.82 0.0002472042    1.678    0.404
       154 -10.2556     38.2621     48.7174   1.2476822334e+02   6.3314494149e+01    0.2277885    0.1675105 -34.24  0.001125428    1.305    0.234
       155 -10.5227    102.0340     48.1320   9.9671035602e+01   5.2967287782e+01    0.2209584    0.2032278  -6.99 0.0004029865    1.029    0.028
       156 -10.5959     68.6949     46.7960   1.1091429699e+02   5.9572261355e+01     0.234976    0.2120596 -22.15 0.0002920894    1.027    0.027
       157 -11.1331     70.6901     42.9966   1.0861607173e+02   5.9997354757e+01    0.3182175    0.2835431 -47.56 0.0003226032    1.185    0.156
       158  -9.2676    136.2218     46.4230   8.9842643736e+01   4.5403247564e+01    0.1976375    0.1495636  70.45  0.000930926    1.569    0.363
       159  -9.9819     30.9906     45.9927   1.2734065407e+02   6.4668159766e+01    0.2911904    0.1719891 -84.55  0.001292412    2.621    0.619
       160  -9.0564     91.2856     45.2983   1.0201961206e+02   5.5707437638e+01    0.1466378    0.1106266   0.27 0.0004174981    1.550    0.355
       161  -9.8247    180.7350     43.9716   8.0505712522e+01   3.4762010445e+01    0.2102362    0.1757423 -31.14 0.0005161855    1.146    0.127
       162 -10.5212     35.6262     40.9340   1.2342686479e+02   6.5341305984e+01    0.3935649    0.2666393 -32.22  0.002156135    1.442    0.306
       163  -9.2447    183.3419     41.6846   7.9381450692e+01   3.4409027606e+01    0.1529464    0.1063543 -58.54 0.0007048058    1.708    0.415
       164 -10.7427    139.6665     40.6912   8.6961158476e+01   4.5405014467e+01    0.2599394     0.243223 -55.76  0.000577203    1.174    0.148
       165 -10.2188      4.1504     41.6160   1.3960541846e+02   6.7542913414e+01    0.3382422    0.1432196 -32.71  0.001580936    2.584    0.613
       166  -9.7257     13.2656     39.1719   1.3428578378e+02   6.7627364669e+01    0.3009022   0.09882991 -68.48   0.00118957    2.784    0.641
       167 -10.6922    133.6121     38.9512   8.7653796754e+01   4.7144245393e+01    0.4380889    0.2196472  59.58  0.001019553    2.116    0.527
       168  -9.9072     22.1717     38.4806   1.2942147664e+02   6.7150743930e+01    0.2404337    0.1560332 -79.03 0.0008285234    1.827    0.453
       169 -11.0388    120.9712     36.4004   8.9683132642e+01   5.0581248403e+01    0.5394257    0.3743492 -61.84  0.002395391    1.994    0.498
       170  -9.5296    229.5373    248.0436   1.1608464765e+02  -3.5320156203e-01    0.1300786   0.08550037 -15.31  0.001021247    1.564    0.361
       171 -10.7231     68.1939     36.2812   1.0679421114e+02   6.1723462888e+01    0.4761046     0.292755  15.96   0.00113064    2.263    0.558
       172  -9.5121    164.3268    247.6762   1.2660496026e+02   7.6957682720e+00   0.09904293   0.06898065  49.60 0.0007048923    1.692    0.409
       173 -11.1840      1.8102     35.1322   1.3941974066e+02   6.9152968069e+01    0.4928651    0.1879251 -65.82  0.001551973    1.963    0.491
       174 -10.9521      2.7358     28.1944   1.3717764553e+02   7.0707022728e+01     0.398421    0.2265209 -67.54  0.001499326    1.457    0.314
       175 -10.2820      7.0229     28.5029   1.3474897732e+02   7.0427808073e+01    0.2358673    0.1894924   0.33 0.0007467121    1.440    0.306
       176 -10.2940    150.2779     34.5719   8.2555956825e+01   4.3580415316e+01    0.3515501    0.1522814 -39.76 0.0006841436    2.335    0.572
       177 -11.2325     26.5282     35.2224   1.2605356263e+02   6.7507808394e+01    0.2971596    0.2088292 -39.19 0.0007263141    1.244    0.196
       178 -12.3116     50.6136     33.8464   1.1342984430e+02   6.4978455337e+01    0.3790859     0.268757  40.40 0.0005610954    1.629    0.386
       179 -11.3322     43.3155     29.6413   1.1513335472e+02   6.6824470021e+01    0.6065317    0.3788368 -22.05   0.00301879    1.819    0.450
       180 -11.3253    134.5515     34.0150   8.5551376478e+01   4.7600824215e+01    0.2516235    0.2038129  45.23 0.0002945436    1.220    0.180
       181 -11.4964     20.5823     31.8903   1.2810661214e+02   6.8759003090e+01    0.5162021    0.2821167 -11.42  0.001623676    2.471    0.595
       182  -9.0588    186.3078     37.6806   7.7685852050e+01   3.4166287735e+01    0.1501826    0.1039665 -55.34 0.0004285924    1.638    0.389
       183  -9.8879    187.3028     30.2394   7.5205300258e+01   3.4775380130e+01    0.2656614    0.1785574 -34.56  0.001308147    1.406    0.289
       184 -10.8824    151.3517     29.6536   8.0562700539e+01   4.3923180117e+01    0.2704484    0.2323661  24.74 0.0003641599    1.178    0.151
       185  -9.4358    101.4652     25.9589   9.0509532095e+01   5.6669936232e+01     0.257063    0.1620049 -66.63 0.0009881813    2.938    0.660
       186  -9.7696     69.8425     28.8359   1.0274569448e+02   6.2784298739e+01    0.2152949    0.1752494 -11.09  0.000454298    1.183    0.155
       187 -10.3945     34.0868    247.4704   1.4905586178e+02   2.2482451870e+01    0.1426856    0.0706047  36.59 0.0007806496    1.568    0.362
       188  -9.2996     34.1241     26.8558   1.1869440840e+02   6.8521575512e+01    0.1907566    0.1310798 -29.94 0.0006931451    1.356    0.262
       189  -9.3299    132.1341     26.2058   8.2999493334e+01   4.9221236052e+01    0.2044955    0.1708684 -58.09 0.0006686626    1.379    0.275
       190 -10.5188    114.4737     25.1105   8.6619556307e+01   5.3722369767e+01     0.331446    0.2657469   7.40 0.0008558883    1.282    0.220
       191 -10.5948     59.0999     24.5013   1.0520304387e+02   6.5432105478e+01    0.3237315    0.2410934 -30.80  0.001448852    1.206    0.171
       192  -9.8128     21.8019     22.5333   1.2383269926e+02   7.0684222904e+01    0.2801316    0.1493109   5.63 0.0007851004    2.488    0.598
       193 -10.4517    190.4974    246.5098   1.2209550756e+02   4.5359971603e+00    0.1060252   0.07491486  23.09 -0.0001708392    1.002    0.002
       194 -10.3320     12.8590     16.0944   1.2668817808e+02   7.2778778699e+01    0.2995196     0.169379  20.97  0.001668719    2.026    0.506
       195  -9.4996    229.6496     25.2050   6.9130709891e+01   2.5357683028e+01    0.1827073    0.1144922  -9.96  0.000359068    1.658    0.397
       196  -9.7641    104.5281     28.9593   9.0966070279e+01   5.5535205231e+01      0.22983    0.1398228 -27.53  0.001033305    1.596    0.374
       197  -9.6833    217.4836    245.0000   1.1755689572e+02   1.3563680616e+00    0.2313662    0.0439327  36.91 0.0009464534    4.030    0.752
       198 -10.0915     88.9599     20.8420   9.1936097451e+01   6.0195785137e+01    0.3873158    0.1611725 -40.45 0.0009496644    2.550    0.608
       199  -9.7317     34.8273     21.6190   1.1591477637e+02   6.9495325053e+01    0.2131346    0.1907957  73.10 0.0005696717    1.610    0.379
       200 -10.4128     31.1229     20.2466   1.1734457346e+02   7.0202214483e+01    0.2574737    0.1797783 -27.10 0.0005893721    1.325    0.245
       201  -9.4421     84.7180     21.4002   9.3613930069e+01   6.1029513713e+01    0.1957435    0.1258003  37.53 0.0005817607    1.569    0.363
       202 -10.8497    190.9376     18.9973   7.1225677682e+01   3.5054109702e+01    0.3698997     0.203642 -22.40  0.001357308    1.733    0.423
       203  -9.6606    163.5313     20.4799   7.5266506260e+01   4.1839321999e+01    0.1435076    0.1372398  18.65 0.0001128789    1.034    0.033
       204  -9.9067    146.4981    244.4911   1.2932224878e+02   1.0311644729e+01    0.1064747   0.07868417  31.54 0.0008106279    1.001    0.001
       205  -9.9500     39.9781    243.9781   1.4791820387e+02   2.2445183955e+01    0.2112199   0.05095015  56.60 0.0009541804    4.093    0.756
       206  -9.5879    178.3054    241.6639   1.2354197241e+02   6.5893701278e+00   0.09645001   0.07317638  48.37 0.0004860885    1.670    0.401
       207  -9.6255     60.5121    241.2640   1.4423320538e+02   2.0811688652e+01    0.1880935   0.06719404  34.09  0.001070989    2.193    0.544
       208 -11.1134     14.7116    239.1228   1.5200045177e+02   2.5430163850e+01    0.1586541   0.08754128  56.24 0.0007298738    1.304    0.233
       209  -9.5866    202.4772    240.0242   1.1931536599e+02   3.6899145267e+00    0.1313685   0.09498459 -18.69 0.0006368827    1.535    0.349
       210  -9.6367    236.6968     17.7089   6.6568666856e+01   2.4541198104e+01     0.123268   0.09267741  25.09  0.000215385    1.570    0.363
       211 -11.1452    108.1834     16.6736   8.4445025426e+01   5.6304136720e+01    0.2492529    0.2068972 -16.30 0.0003106536    1.173    0.148
       212 -11.3348     20.7866    235.7504   1.5086626937e+02   2.5427979865e+01    0.1950636     0.114249  89.03  0.001519736    1.703    0.413
       213 -10.8707     20.3050     16.8117   1.2222162181e+02   7.2010232541e+01    0.2084655    0.1691431   6.24 0.0005270314    1.336    0.252
       214  -9.1377      1.2248     15.3354   1.3419160178e+02   7.3645814553e+01    0.1267146   0.06436738 -45.90 0.0002182954    1.526    0.345
       215 -10.0251    162.8112     13.6395   7.2947352004e+01   4.2714102880e+01    0.2017688    0.1805996   6.98 0.0007404645    1.136    0.120
       216  -9.5577    156.6028     13.7640   7.3872038996e+01   4.4309749402e+01    0.2037533    0.1260571 -32.29 0.0009419327    1.581    0.368
       217  -9.4087    144.4521     14.4744   7.6037019049e+01   4.7390925976e+01    0.2190636    0.1714094 -60.64 0.0007375905    1.460    0.315
       218 -12.3601      4.2781    232.7180   1.5357214018e+02   2.7264517914e+01    0.5107579    0.1838692  51.61 0.0009772666    1.855    0.461
       219 -12.4552     10.0206    231.5021   1.5256831554e+02   2.6993311838e+01    0.3419987    0.2246707  36.54  0.001741172    1.388    0.279
       220 -11.7926      8.5296    227.5461   1.5271079558e+02   2.7738951525e+01    0.3626798    0.1964353  27.82  0.001791865    1.892    0.471
       221  -9.1366    183.6346    236.2592   1.2197258521e+02   6.4968210723e+00    0.1011735   0.07019232  44.86 0.0006094095    1.637    0.389
       222  -9.1614    210.6318    235.7292   1.1741889620e+02   3.0898699039e+00    0.1115458   0.06144439  15.40 0.0003189555    1.667    0.400
       223  -9.0569    155.5626    235.5226   1.2674992823e+02   1.0241131146e+01    0.1085621   0.08195738  28.14 5.581869e-05    1.016    0.016
       224  -9.8876    249.2813    234.1440   1.1117742505e+02  -1.4779394209e+00    0.1737421   0.09714591  21.02 0.0006009343    1.299    0.230
       225  -8.9966    250.4695    183.4737   1.0285283324e+02   3.1464505537e+00    0.1166046   0.08524138   5.36 0.0008093051    1.003    0.003
       226  -9.4896     79.8225    231.5840   1.4013124620e+02   2.0164700776e+01    0.1538154   0.06954121  44.08 0.0008873809    1.678    0.404
       227  -8.9779    124.3042    230.3437   1.3182328967e+02   1.4963156707e+01     0.103593    0.0764778   5.93  0.000419973    1.686    0.407
       228  -9.2958    209.5397    229.5163   1.1674509674e+02   3.8549551689e+00    0.1096856   0.07850264  17.84 0.0002797944    1.008    0.008
       229  -9.0847    140.6913    227.3417   1.2849113928e+02   1.3241164006e+01    0.1068758   0.07481217  55.86 0.0007043994    1.691    0.409
       230  -9.9241     32.7377    225.1828   1.4834906235e+02   2.6023978688e+01    0.2290823   0.03038105  36.23  0.001018168    3.620    0.724
       231 -10.2145     25.5195    224.9830   1.4963769184e+02   2.6710279958e+01    0.1337528   0.08478633 -89.70 0.0007814214    1.570    0.363
       232 -11.2179      2.2046    219.7016   1.5359759199e+02   2.9505707781e+01    0.2798478    0.1037359  85.36  0.001695191    2.564    0.610
       233  -9.4937     37.3180    223.6531   1.4744548663e+02   2.5842642966e+01    0.1106966   0.05310653  57.75 0.0007048625    1.728    0.421
       234 -10.8691      7.7172    217.4301   1.5255703897e+02   2.9448320451e+01     0.231898    0.1691286  69.41  0.001965673    1.118    0.106
       235  -9.6674    246.6584    216.6725   1.0895994633e+02   3.8675789485e-01    0.1157807    0.0613148  10.17 0.0007051326    1.738    0.425
       236  -9.8049    209.3218    212.0462   1.1424079068e+02   5.7456007805e+00    0.1562694     0.120134   2.75  0.001123723    1.145    0.127
       237  -9.9421     16.3261    212.3207   1.5081748382e+02   2.9602975117e+01   0.08489981   0.07488402 -42.24 0.0007047178    1.683    0.406
       238 -10.1387      3.4544    212.4642   1.5317902675e+02   3.0613781940e+01    0.1940911   0.08039447  30.00  0.001222653    2.217    0.549
       239  -9.4971     20.3675    209.6937   1.4995923013e+02   2.9709338329e+01    0.1135928   0.05089923  55.84 6.816316e-05    1.751    0.429
       240  -9.7038    246.8955    206.8999   1.0737645830e+02   1.2792178356e+00      0.17367    0.1088876   5.51  0.001146311    1.286    0.223
       241 -10.0042      2.1700    206.1454   1.5323428513e+02   3.1792158486e+01    0.1468191     0.082454  59.99 0.0008138722    1.336    0.251
       242  -9.4683    196.8934    203.8566   1.1512534560e+02   8.4355920855e+00    0.1508033    0.1256753  33.14  0.001073088    1.338    0.252
       243 -10.5463      9.5367    203.4694   1.5176918825e+02   3.1687418134e+01    0.1822594    0.1345545  59.53 0.0007703122    1.023    0.022
       244  -9.1508    181.5543    199.4961   1.1721112090e+02   1.1215908306e+01    0.1184937   0.09596972  21.45 6.111026e-05    1.046    0.044
       245  -9.7678     23.3379    197.2693   1.4883075428e+02   3.1646095790e+01    0.1812437    0.1218317  47.23  0.001332154    1.220    0.180
       246  -9.5620      6.3750    191.6957   1.5196657081e+02   3.4047705236e+01     0.115744   0.05120692  56.23 0.0002650499    1.765    0.434
