#   1 NUMBER                 Running object number                                     
#   2 MAG_AUTO               Kron-like elliptical aperture magnitude                    [mag]
#   3 X_IMAGE                Object position along x                                    [pixel]
#   4 Y_IMAGE                Object position along y                                    [pixel]
#   5 X_WORLD                Barycenter position along world x axis                     [deg]
#   6 Y_WORLD                Barycenter position along world y axis                     [deg]
#   7 A_WORLD                Profile RMS along major axis (world units)                 [deg]
#   8 B_WORLD                Profile RMS along minor axis (world units)                 [deg]
#   9 THETA_WORLD            Position angle (CCW/world-x)                               [deg]
#  10 FWHM_WORLD             FWHM assuming a gaussian core                              [deg]
#  11 ELONGATION             A_IMAGE/B_IMAGE                                           
#  12 ELLIPTICITY            1 - B_IMAGE/A_IMAGE                                       
         1 -11.6750    248.9791    103.0751   6.4445708233e+01   9.6273901262e+00    0.8408761    0.3988783 -24.37  0.003603435    2.045    0.511
         2 -11.5277    213.6497     20.2355   4.7071443523e+01   2.8945701424e+01    0.7229254    0.5922151 -20.84  0.004009011    1.268    0.211
         3 -11.8137      5.7527      5.9927   1.0226946459e+02   7.4148092275e+01     0.886335    0.5246187 -38.44  0.005762484    1.274    0.215
         4  -9.6034    179.3055      4.0353   4.5983012241e+01   3.9538878152e+01    0.1970945    0.1870591 -37.23  0.000892095    1.092    0.085
         5  -9.6400    171.7014      3.7754   4.6813607906e+01   4.1579306994e+01    0.2484238    0.2043407  42.88 0.0004292146    1.247    0.198
         6  -9.4632    138.1922      2.9454   5.1377841210e+01   5.0484428061e+01    0.2388947     0.196199  62.49 0.0003792894    1.155    0.135
         7  -9.0187    121.0000      9.5003   5.7368315717e+01   5.4208338282e+01    0.3129797   0.07971747 -22.37 0.0009442776    4.012    0.751
         8 -12.5957    235.1603    232.5375   9.2272991712e+01  -4.3585209472e+00     1.820688    0.8407982  21.57  0.009657026    2.330    0.571
         9  -7.8560    237.9264    250.7954   9.4474736930e+01  -6.4632892767e+00    0.1346065   0.06215018  35.19 0.0003362359    1.616    0.381
        10 -12.6134    166.2066    244.5343   1.0537706523e+02   4.4647104184e+00     2.230024    0.7345666  46.28   0.01054354    2.564    0.610
        11 -12.7118    110.8601    248.0287   1.1516613677e+02   1.2009775329e+01       1.9072    0.4710358  39.72  0.008273245    3.202    0.688
        12 -10.4914      7.0482    250.2291   1.3189472232e+02   2.3833835968e+01    0.2922822    0.1490066  37.81 0.0006648126    1.933    0.483
        13  -9.4963      1.9613    249.6497   1.3262348329e+02   2.4393173508e+01     0.237463    0.1425946 -85.72   0.00146346    1.593    0.372
        14  -7.8359    227.1864    186.1010   8.5865390698e+01   2.1512556991e+00    0.1468546    0.1340393  20.49 0.0002516224    1.248    0.199
        15  -7.8693    228.4685    181.1361   8.4721894600e+01   2.5766288843e+00    0.1626263    0.1154459 -22.06 0.0002620196    1.398    0.285
        16  -8.8754     66.8972    181.3241   1.1714420920e+02   2.9571101735e+01    0.1648446    0.1347631  58.11 0.0005287157    1.129    0.114
        17 -11.6184     22.5293    176.5516   1.2593404959e+02   3.5511082687e+01     0.708486    0.2521292  70.44  0.003156939    3.167    0.684
        18 -10.8000      8.5605    179.9902   1.2889750279e+02   3.6077857826e+01    0.2227848    0.1788731  33.01  0.001308819    1.622    0.383
        19  -9.1710      1.6124    201.2147   1.3111219138e+02   3.2610096815e+01    0.2239667    0.0762397 -82.78  0.001127729    2.465    0.594
        20  -8.2682    149.1737    175.1191   9.8764397799e+01   1.7787770969e+01    0.1925932    0.1687254  24.00  0.000316124    1.193    0.161
        21 -10.1640      3.9997    192.2119   1.3032364691e+02   3.4091381450e+01    0.3579117    0.1081108 -61.74  0.001722698    3.838    0.739
        22  -9.7398    196.5882    173.2904   8.8979704861e+01   9.3429075272e+00    0.2292995    0.2062185  31.54 0.0003376122    1.104    0.094
        23  -8.6264     82.6413    174.1828   1.1296850650e+02   2.8895162225e+01    0.1591482    0.1399231 -87.19 0.0003721994    1.129    0.114
        24 -12.3556      6.5268    158.1516   1.2811047587e+02   4.0714618093e+01     1.123076     0.620883 -86.77  0.007177638    1.420    0.296
        25 -12.2742     48.4359    219.2207   1.2379038502e+02   2.4652728462e+01     1.341408    0.2732644  39.87  0.005925743    3.450    0.710
        26  -8.1923     82.2258    159.0201   1.1109898908e+02   3.2153000981e+01    0.1685839    0.1462736  82.51 0.0002382809    1.024    0.023
        27  -8.3887    216.9362    156.4639   8.1858278166e+01   8.0815054634e+00    0.1940099    0.1678678  -5.77 0.0003784054    1.078    0.072
        28  -8.5994    126.5428    155.5433   1.0028132125e+02   2.5655003232e+01    0.1380879    0.1273007  64.11 9.446782e-05    1.016    0.016
        29  -7.8281    145.0000    152.0287   9.5461439604e+01   2.2917492717e+01    0.2187124   0.08106501 -47.69 0.0004658095    2.855    0.650
        30 -11.4724    247.3884    141.3496   7.3467432398e+01   4.5764107321e+00    0.5910987    0.3007346 -39.96  0.002776721    2.095    0.523
        31 -10.4960    117.3752    146.9899   1.0085999142e+02   2.9077717445e+01    0.3465343    0.2246729 -63.02  0.001694544    1.649    0.394
        32  -8.7729     69.1711    144.6233   1.1222234889e+02   3.7152379370e+01    0.4995184    0.2082478  65.38  0.001586424    4.821    0.793
        33  -9.0296     89.2353    142.9143   1.0698597706e+02   3.4650391467e+01    0.2174431    0.1944186  45.95 0.0004331651    1.193    0.162
        34 -11.8174    246.3604    132.5146   7.1678670426e+01   5.9834416934e+00    0.7942659    0.4602863  12.35  0.003540099    2.371    0.578
        35 -12.1394    211.1750    130.2300   7.7112212184e+01   1.3297212637e+01    0.6805355    0.4140129  51.23  0.003184205    1.752    0.429
        36  -9.7528     68.4084    162.1455   1.1468978357e+02   3.3385362362e+01    0.2965437    0.2028516 -49.95 0.0009535036    1.755    0.430
        37  -7.7439     98.4661    128.5439   1.0205228750e+02   3.6405769394e+01    0.1382695    0.1321346 -71.65 0.0001906317    1.082    0.076
        38 -13.6827     70.1364    240.0660   1.2142478749e+02   1.8575070562e+01     3.283659    0.9106221  51.44   0.01595125    2.770    0.639
        39  -9.2773    216.7484    101.9281   6.9199283762e+01   1.6646773909e+01    0.2342306    0.2103217  48.44 0.0003543543    1.193    0.162
        40  -7.8559    221.3155     98.3186   6.7514138757e+01   1.6199010169e+01    0.1508654    0.1093877  12.20 0.0007039036    1.653    0.395
        41  -8.2093    104.6645     85.8564   9.0136647717e+01   4.4922722978e+01    0.2027402    0.1783689 -54.06 0.0003353343    1.095    0.086
        42  -8.1572    160.4916    107.0687   8.1645964017e+01   2.8597402298e+01    0.2149424    0.1500317 -40.16 0.0001146704    1.424    0.298
        43 -10.0633    118.9880     64.3360   7.9271252625e+01   4.6411248733e+01    0.2607967    0.2094012 -36.84 0.0003000904    1.199    0.166
        44  -8.2121    215.2428     53.9922   5.6471667854e+01   2.4276868217e+01    0.2111684    0.1759857 -30.49 0.0003649067    1.136    0.120
        45 -10.2283    209.6270     25.0039   4.8885395143e+01   2.9419477537e+01    0.4729968    0.3036464   9.22  0.001538356    2.208    0.547
        46  -9.9267    131.1924    236.2433   1.1051533743e+02   1.0790010438e+01    0.1924053    0.1638733  43.90 0.0002631245    1.135    0.119
        47 -12.2698    199.5398    216.1212   9.5750423925e+01   2.8612719375e+00     1.410901     0.955012 -35.76  0.008999103    1.759    0.432
        48 -10.5318     41.5227    209.5395   1.2441332130e+02   2.7165329456e+01    0.2567018    0.1897921 -69.58  0.000759881    1.558    0.358
        49 -10.3047     10.6880    206.7663   1.2975665886e+02   3.0790454135e+01    0.3658463    0.2516672  39.68  0.002488263    1.586    0.369
        50 -12.7850     58.1188    193.0468   1.2003420290e+02   2.8345839141e+01     1.667688     1.136208  57.27   0.01108806    1.210    0.174
