#   1 NUMBER                 Running object number                                     
#   2 MAG_AUTO               Kron-like elliptical aperture magnitude                    [mag]
#   3 X_IMAGE                Object position along x                                    [pixel]
#   4 Y_IMAGE                Object position along y                                    [pixel]
#   5 X_WORLD                Barycenter position along world x axis                     [deg]
#   6 Y_WORLD                Barycenter position along world y axis                     [deg]
#   7 A_WORLD                Profile RMS along major axis (world units)                 [deg]
#   8 B_WORLD                Profile RMS along minor axis (world units)                 [deg]
#   9 THETA_WORLD            Position angle (CCW/world-x)                               [deg]
#  10 FWHM_WORLD             FWHM assuming a gaussian core                              [deg]
#  11 ELONGATION             A_IMAGE/B_IMAGE                                           
#  12 ELLIPTICITY            1 - B_IMAGE/A_IMAGE                                       
         1 -14.7982      8.0393    145.0860   1.4247712453e+02   4.3957571973e+01     6.333697     1.656038 -86.70   0.02621551    4.103    0.756
         2 -12.6674      2.2156     50.1131   1.3421956235e+02   6.4194426857e+01     1.662129   0.06889739 -68.90  0.004463941    7.418    0.865
         3 -13.7670    191.9551     26.1310   7.2937126308e+01   3.3625438760e+01      1.72988     1.575314  29.38  0.007350577    1.124    0.110
         4 -13.6523    208.1891      6.5460   6.4782221313e+01   3.1401117981e+01     1.563017     1.039017  46.37  0.007615017    1.573    0.364
         5 -13.3980      5.0826     11.5653   1.2319375497e+02   7.2000675706e+01     1.670752     0.478242 -56.41  0.007947213    2.377    0.579
         6 -10.4567    237.1605    246.6469   1.1346784857e+02  -1.9390564751e+00    0.1413697    0.1368672 -81.84  0.001299176    1.896    0.473
         7 -11.7527    174.1089    249.2753   1.2278329339e+02   6.6777871872e+00    0.3284574    0.1788934  49.71  0.001607233    1.461    0.316
         8 -13.3458    140.7820    247.9955   1.2758209465e+02   1.1480570930e+01    0.7074767    0.5412661  57.73  0.006093442    1.184    0.156
         9  -9.5358      2.6254    249.2275   1.4754185777e+02   2.7310312232e+01    0.1529817    0.1216884  63.83   0.00121461    1.439    0.305
        10 -12.9520    124.1910    249.4599   1.3017283337e+02   1.3567887789e+01    0.6106365     0.344404  44.26  0.004576458    1.311    0.237
        11 -11.0930    190.4177    246.6505   1.2011898168e+02   4.6146906592e+00    0.2218983      0.18045 -89.34   0.00178883    2.091    0.522
        12 -11.7324    185.8254    238.9401   1.1992667128e+02   6.0205575069e+00    0.3041864    0.2294238 -81.00  0.002210833    2.464    0.594
        13  -9.9412     95.7951    239.8851   1.3368408749e+02   1.8480159286e+01    0.2104041    0.1353026 -35.27  0.001301472    3.958    0.747
        14 -11.8153    162.5651    248.9005   1.2444116902e+02   8.3442071527e+00    0.3749482    0.1713239  51.62  0.002392715    1.831    0.454
        15  -9.4887    178.3342    228.6551   1.1986564825e+02   8.1939612155e+00    0.1026125   0.07176138  63.99 0.0007049743    1.765    0.434
        16  -9.8037      3.9378    227.6149   1.4675987700e+02   3.0244692749e+01    0.2502568    0.1337223  41.87  0.002065514    1.733    0.423
        17 -10.5328    172.4667    222.7269   1.2007182034e+02   9.7381418927e+00    0.2234209    0.1345509  28.93  0.001440058    1.754    0.430
        18 -14.3729    104.4180    228.9757   1.3149295461e+02   1.8805169128e+01     6.679076          nan  45.72   0.01516472   13.101    0.924
        19  -8.4146    221.6906    213.7098   1.1128900641e+02   3.0902730195e+00    0.1101153   0.06609543  23.34 0.0004374259    1.581    0.367
        20 -10.4706     21.2182    211.1659   1.4355008947e+02   3.1149710233e+01    0.3202563    0.1612077  45.58  0.001475774    1.625    0.385
        21 -12.5113     10.6082    206.7153   1.4503700787e+02   3.2846040694e+01    0.4831003    0.3195204  41.61  0.002936254    1.620    0.383
        22 -11.5547     63.4729    201.5329   1.3603522078e+02   2.8130640386e+01    0.1921927    0.1670786  86.54  0.000555266    1.324    0.244
        23  -9.9758    193.4828    195.9636   1.1311116346e+02   9.4922662035e+00    0.5655169     0.284907 -60.17  0.001988867    7.280    0.863
        24 -10.4406     10.5413    195.7193   1.4460272846e+02   3.4637905732e+01     0.277528   0.06996068  43.03  0.001602317    2.718    0.632
        25 -11.9315     69.5885    192.8772   1.3428504090e+02   2.8803497627e+01    0.2094197     0.184655  81.18 0.0004882046    1.275    0.216
        26 -13.2027     66.3470    177.8414   1.3355791644e+02   3.1789941745e+01    0.3808503    0.2424877 -48.30  0.001797486    2.332    0.571
        27 -12.8736     37.8977    236.4468   1.4214681209e+02   2.5691539392e+01    0.2322813    0.1936899  83.42 0.0007353001    1.442    0.306
        28  -8.6144    209.4848    179.9870   1.0797613270e+02   8.6563069623e+00    0.1317351    0.1042461 -68.50 0.0004063545    2.120    0.528
        29  -8.7548    103.7993    179.8800   1.2673141320e+02   2.6331765136e+01    0.1554225    0.1095083  68.75  0.001012653    1.321    0.243
        30 -10.8649     79.4381    179.5866   1.3126742621e+02   2.9800623328e+01    0.1986388    0.1614955  68.96 0.0003655974    1.049    0.046
        31 -11.8358     86.5317    170.1747   1.2890710788e+02   3.0496811550e+01    0.4779103    0.4571352  79.42   0.00367592    1.313    0.238
        32 -14.0027     43.6762    229.1952   1.4093772499e+02   2.6123924725e+01    0.7352493    0.3742864  52.02  0.003267882    1.387    0.279
        33 -10.1299     98.6929    153.8431   1.2440663129e+02   3.1711171383e+01    0.2438826    0.2112707 -75.46 0.0007075159    1.186    0.157
        34 -11.9377     87.5445    153.0026   1.2660718783e+02   3.3516736466e+01     0.225604    0.2202781 -83.65 0.0006984939    1.313    0.239
        35 -10.1904    134.6875    147.9673   1.1610375151e+02   2.6827013077e+01    0.5838732    0.1901698 -55.98  0.002053576    4.201    0.762
        36  -9.1988    101.8431    149.3093   1.2310153042e+02   3.2074875933e+01    0.1653446     0.143724  59.69  0.000502792    1.098    0.089
        37 -12.3872     67.1388    143.5934   1.2975655550e+02   3.8121575475e+01    0.5963085    0.3361681  63.79  0.002682955    1.779    0.438
        38  -9.9077    110.0698    138.2680   1.1961223348e+02   3.2847689546e+01    0.3276959    0.2444395 -18.42  0.001278944    2.317    0.568
        39  -9.0091     85.0176    135.4791   1.2469592732e+02   3.7293532505e+01    0.1772194     0.110151  49.31 0.0005611581    1.530    0.347
        40  -8.5473    192.2362    143.9960   1.0434273112e+02   1.6543775737e+01    0.1568858    0.1099786 -33.22 0.0004895639    1.544    0.352
        41 -10.6233     97.3486    135.4626   1.2194105610e+02   3.5438497926e+01    0.2367457     0.207527  59.26 0.0006801955    1.118    0.106
        42 -12.9909     51.2729    218.0491   1.3914759985e+02   2.6952399765e+01    0.8168301    0.6696255  82.89  0.005911534    1.308    0.235
        43  -9.1551    107.1067    124.5915   1.1786415318e+02   3.6004827478e+01    0.1714347    0.1462192  53.69  0.000433149    1.152    0.132
        44 -10.0004    167.9219    112.9050   1.0222831244e+02   2.6414835359e+01    0.2968221    0.2523639 -77.22 0.0008863105    1.415    0.293
        45  -9.2745    203.2290    111.7646   9.5357922654e+01   1.8965642610e+01    0.1975621    0.1545246  15.73 0.0006398045    1.360    0.265
        46 -10.8747    148.7184    229.6078   1.2457412681e+02   1.2487603896e+01    0.2024106    0.1046171  50.02  0.001307041    1.503    0.335
        47  -8.7638    156.6650     75.6845   9.4837791114e+01   3.5322784722e+01    0.1542282    0.1154549  16.47 0.0005620123    1.692    0.409
        48 -10.9192    155.5299    228.9817   1.2344162084e+02   1.1559883689e+01    0.2150695    0.1185284  36.38  0.001394408    1.621    0.383
        49 -10.2422     27.1783     60.1605   1.2726945892e+02   6.0268535379e+01    0.3164931    0.1144051  42.87  0.001404937    3.306    0.698
        50 -10.2628     19.8726    247.6224   1.4515086808e+02   2.5937756919e+01    0.3764837    0.1703356  38.52  0.002826907    2.153    0.536
        51 -11.1139      2.0000     43.9981   1.3318137298e+02   6.5510364174e+01     0.304085   0.09519819 -64.96  0.001492072    2.179    0.541
        52  -9.8514     81.8557    249.0913   1.3638774621e+02   1.9016868287e+01    0.1565078   0.08939579  60.66   0.00113955    1.318    0.241
        53 -10.2198     98.9418    248.5073   1.3383758218e+02   1.6976821065e+01    0.1529437   0.06852118  45.43 0.0006347054    1.599    0.375
