#   1 NUMBER                 Running object number                                     
#   2 MAG_AUTO               Kron-like elliptical aperture magnitude                    [mag]
#   3 X_IMAGE                Object position along x                                    [pixel]
#   4 Y_IMAGE                Object position along y                                    [pixel]
#   5 X_WORLD                Barycenter position along world x axis                     [deg]
#   6 Y_WORLD                Barycenter position along world y axis                     [deg]
#   7 A_WORLD                Profile RMS along major axis (world units)                 [deg]
#   8 B_WORLD                Profile RMS along minor axis (world units)                 [deg]
#   9 THETA_WORLD            Position angle (CCW/world-x)                               [deg]
#  10 FWHM_WORLD             FWHM assuming a gaussian core                              [deg]
#  11 ELONGATION             A_IMAGE/B_IMAGE                                           
#  12 ELLIPTICITY            1 - B_IMAGE/A_IMAGE                                       
         1 -11.5687    153.3787     13.1414   2.8908119122e+00   4.4048496523e+01    0.6569973    0.3427373  78.01  0.001198591    1.834    0.455
         2  -9.9856    156.0231      8.7354   1.1287460295e+00   4.3781066484e+01    0.2280691    0.2021716 -37.88  0.000442871    1.191    0.160
         3 -10.0331    120.4374      9.2525   6.0577967459e+00   5.3306549588e+01    0.3054644    0.2857144 -31.87   0.00103813    1.171    0.146
         4 -10.0721    171.8749      2.7703   3.5776784477e+02   4.0220181685e+01    0.2694909    0.1632792 -74.15  0.001251985    1.575    0.365
         5  -9.6112    141.9478    223.6954   5.6603995703e+01   1.0023561710e+01    0.1888334    0.1829524  75.76 0.0004150626    1.402    0.287
         6 -15.1503    223.5331      9.4514   3.5604127061e+02   2.7433039058e+01     5.956342     4.477878   6.42   0.03582419    1.921    0.479
         7 -10.7708    197.8109    197.5761   4.1610812400e+01   5.8905845969e+00    0.2938401    0.2621571  25.44  0.001078005    1.356    0.262
         8 -10.6688    189.8160    187.3627   4.1358594999e+01   8.5297228711e+00    0.3170124    0.2172153 -34.55  0.001487441    1.522    0.343
         9  -8.9648    185.2842    208.1423   4.5671776693e+01   6.1891676098e+00     0.204095    0.1430306  48.98 0.0007041161    1.962    0.490
        10  -9.1457    195.1431    206.8351   4.3617927185e+01   4.9957064932e+00    0.1718327    0.1470623  19.00 0.0006214578    1.245    0.197
        11 -15.4816    244.0830     80.6189   1.0783512651e+01   1.4920130238e+01     2.910871     1.850829 -10.72   0.01221056    1.931    0.482
        12 -15.4557    248.0097    106.1760   1.5853960223e+01   1.0878557073e+01     1.695138    0.8244687 -55.46  0.005993568    3.623    0.724
        13  -9.4786     37.8090    192.7443   7.7671735016e+01   2.9712227363e+01    0.1720959     0.156187  45.73 0.0009362197    1.166    0.142
        14 -10.1732    229.3419    221.3417   3.9987698967e+01  -1.1388960177e+00     0.263005    0.1724977  38.61  0.001164588    1.941    0.485
        15  -9.3542    203.4602    187.9998   3.8942485988e+01   6.4143181290e+00    0.2389685    0.2103113 -65.32  0.001046306    1.958    0.489
        16 -14.7258    195.0152     97.6078   2.1336104915e+01   2.2022557020e+01     5.066278     1.870842 -23.89   0.01405057    5.121    0.805
        17 -10.7023    170.0449    183.5029   4.4603142908e+01   1.2216345984e+01    0.3010879    0.2630162  -5.67  0.001227888    1.106    0.095
        18  -9.5391    145.9420    184.1585   4.9907701638e+01   1.6016785501e+01    0.2587193    0.1765776  48.93  0.001113672    1.594    0.373
        19 -11.8482    192.5917    193.8783   4.1956100551e+01   7.1647280294e+00    0.8201897    0.4500936 -54.76  0.003607891    3.701    0.730
        20  -8.5304    150.4631    180.4607   4.8270477896e+01   1.5934131989e+01    0.1364508    0.1191377  21.37 0.0001676156    1.010    0.010
        21 -11.0109    121.1685    168.6549   5.3157877723e+01   2.3154693073e+01    0.5443114    0.2059149 -57.58  0.001921362    3.412    0.707
        22 -11.0389    111.9463    169.9298   5.5710900470e+01   2.4442795321e+01    0.3504623    0.2983676 -78.97  0.001194769    1.384    0.278
        23  -8.6873      5.4715    170.4024   8.4786971051e+01   3.7743923545e+01    0.1255314   0.09905747  60.72 -4.78497e-05    1.032    0.031
        24 -10.0225    104.6766    161.1562   5.6158228980e+01   2.7551178874e+01    0.2905661    0.1404331 -65.02  0.001116388    2.709    0.631
        25 -11.1883    114.2212    155.6896   5.2648682132e+01   2.7106437364e+01    0.4048299    0.2749256 -62.50  0.000652918    1.712    0.416
        26 -14.8149    233.3901    171.7773   3.0977945417e+01   4.3475919853e+00     2.428123     1.898807 -54.38  0.009596785    2.159    0.537
        27 -10.5709     69.6526    145.3524   6.3657076785e+01   3.6816916616e+01    0.3803801    0.3023157  51.38  0.001212922    1.180    0.153
        28 -10.9842     66.4859    143.4844   6.4348768826e+01   3.7736183596e+01    0.4927492    0.3371472 -88.16  0.001842698    1.646    0.393
        29 -11.1361    152.1586    131.9567   3.8200220815e+01   2.4813379027e+01    0.5371224    0.2999372  50.18  0.002270914    1.907    0.476
        30 -10.2487     22.4875    132.5259   7.7261639764e+01   4.5628984493e+01    0.2294036    0.2113304 -62.84  0.001414062    1.182    0.154
        31  -9.9032    121.3247    129.9749   4.5491261842e+01   3.1444363692e+01    0.2117562     0.194305 -51.04 0.0004083505    1.137    0.121
        32 -10.6221    124.6504    127.0113   4.3916956050e+01   3.1430880474e+01    0.3727225    0.2932061 -77.46  0.001674278    1.615    0.381
        33 -10.2575    121.7588    122.1392   4.3556473119e+01   3.3090979157e+01    0.3260666    0.2237433 -46.27 0.0009774496    1.503    0.334
        34  -8.1829    101.2925    126.6747   5.0469999676e+01   3.6076659446e+01    0.1562363    0.1190835  75.39 0.0002892713    1.618    0.382
        35 -10.9699    115.8120    121.0180   4.4944198620e+01   3.4551367470e+01    0.7040769    0.2917129 -58.19  0.001970517    3.287    0.696
        36  -9.5055    114.4839    112.9619   4.3350782819e+01   3.6643581879e+01    0.2383482    0.1549418 -47.90 0.0007839962    1.576    0.366
        37  -8.9107    102.1773    116.3331   4.7832532028e+01   3.8348338242e+01    0.2614294    0.2104644 -41.74 0.0007307829    1.313    0.238
        38 -10.5057    126.5261    112.5112   3.9884667160e+01   3.4200027030e+01    0.3312277    0.2956997  38.82 0.0009581903    1.103    0.093
        39 -12.3903    124.3134    106.6746   3.8964841903e+01   3.5941029632e+01      1.11044    0.5038469 -38.57  0.003924339    2.467    0.595
        40 -12.2440    120.5970    102.5629   3.8886795644e+01   3.7646429962e+01    0.8616484    0.7658199 -15.56  0.004346028    1.256    0.204
        41 -11.4502    127.2356     97.2206   3.5590407715e+01   3.7306601344e+01     0.719838    0.3235285  52.11  0.002285065    2.353    0.575
        42 -11.0778    126.0176     93.0613   3.4730751594e+01   3.8453901581e+01    0.5508718    0.3961308  22.48 0.0005315143    1.793    0.442
        43 -12.3084     47.1405    106.0332   6.4710853152e+01   4.9985125953e+01    0.6249486    0.5332562  72.08 0.0007502885    1.184    0.155
        44 -13.5442     62.4814    109.0299   5.9531817738e+01   4.7097443899e+01     1.832265     1.283974  35.00  0.003891037    1.427    0.299
        45 -14.5094    220.4581    113.0765   2.1016593228e+01   1.4660409327e+01     1.244777    0.9831926  30.09  0.002472477    1.390    0.281
        46 -11.4732     55.2153    106.2358   6.1662470469e+01   4.8867512739e+01    0.5973458    0.4259902  46.35   0.00218204    1.410    0.291
        47 -15.9805    206.1898    115.6709   2.3809404584e+01   1.6916996474e+01      6.25688     2.402003 -25.71   0.02149244    3.494    0.714
        48 -10.3138    111.6261    105.5804   4.2277178750e+01   3.8910389785e+01     0.456872    0.2897572  79.40  0.001581728    3.015    0.668
        49 -15.8443    195.1205    167.8551   3.6786871457e+01   1.0656964342e+01     7.772267     3.584994  50.76   0.03202793    3.174    0.685
        50  -8.3849    106.4871    105.4552   4.3784163472e+01   4.0014691063e+01    0.1558606    0.1519891  51.77 3.268044e-05    1.007    0.007
        51 -10.1580    192.9471    213.5429   4.5078700642e+01   4.3963860266e+00    0.2087795    0.1695007  17.77 0.0005128385    1.151    0.131
        52 -11.7905     23.1873    106.0426   7.4071383727e+01   5.2487862206e+01    0.8779459    0.3819435 -57.07   0.00370737    2.107    0.525
        53 -10.7934    111.8704     96.2329   3.9641207895e+01   4.0949862412e+01    0.4668486    0.4085046 -43.16  0.001456813    1.168    0.144
        54  -9.4692    171.4856     92.7957   2.4277489093e+01   2.7973965152e+01    0.2782588     0.224613 -76.58 0.0007727697    1.509    0.337
        55 -12.6126     18.1558    104.0661   7.5806090018e+01   5.3412088665e+01     1.404625    0.7632398 -32.51  0.005975033    2.351    0.575
        56  -8.9985    167.6168     89.9179   2.4250519602e+01   2.9362162747e+01     0.209755    0.1762543 -38.54 0.0004588142    1.152    0.132
        57  -9.1100    107.1705     88.0916   3.8683105882e+01   4.3779333198e+01    0.2257937     0.210035 -10.57 0.0003576024    1.175    0.149
        58 -11.6570    182.7415     78.2347   1.8351108219e+01   2.7831455622e+01    0.7794378      0.50078 -48.18  0.001558033    1.544    0.352
        59 -11.2527    174.3522     72.1273   1.8075864461e+01   3.0769980572e+01    0.5864803    0.3597187 -13.21  0.001458928    2.329    0.571
        60 -11.1250    173.6401     64.5899   1.6048867177e+01   3.2126512737e+01    0.5259885    0.3387594  83.60  0.002331907    1.967    0.492
        61 -10.6967    172.8940     81.9498   2.1071505582e+01   2.9504619537e+01    0.4215982    0.3040664 -41.52  0.001237078    1.326    0.246
        62 -10.1107    196.1437     81.6333   1.7126525577e+01   2.4296236149e+01    0.2782536    0.2475452  84.85 0.0008097495    1.244    0.196
        63 -10.0030    128.9252     80.6284   3.0243330405e+01   4.0288936049e+01    0.2842655    0.2318346 -35.97 0.0004082204    1.262    0.208
        64  -9.8918    131.6696     77.2660   2.8499636061e+01   4.0276928229e+01     0.295731    0.2370098 -32.18 0.0007765456    1.309    0.236
        65  -9.5740     93.7717    213.5382   6.5989597945e+01   1.8505694556e+01    0.1823227    0.1735201 -71.67 0.0003784315    1.275    0.215
        66  -8.5839    105.6992     79.2528   3.6393219786e+01   4.6019909046e+01    0.2237776    0.1422591 -36.36 0.0008764511    1.700    0.412
        67 -10.1548    192.4060     76.8764   1.6458801262e+01   2.5852909675e+01    0.4029944     0.386977  77.06  0.002419789    1.110    0.099
        68  -8.4784    107.3634     73.8113   3.4103432551e+01   4.6776000981e+01    0.2155634    0.1491062 -31.94 0.0005738182    1.605    0.377
        69  -9.5719    145.9990     71.1013   2.3234331072e+01   3.7874899703e+01    0.2545826    0.2209978 -38.88  0.000499166    1.154    0.134
        70 -10.1477    146.9956     66.6277   2.1625957838e+01   3.8400125265e+01    0.3409148    0.2486745 -26.89 0.0007772619    1.486    0.327
        71  -9.4911    187.0366     70.1581   1.5483842482e+01   2.8099967754e+01    0.2706186    0.1997354 -17.34 0.0005579286    1.530    0.346
        72  -9.9515    151.8096     69.3722   2.1479464826e+01   3.6728330337e+01    0.3365387    0.2237247 -25.79 0.0008920776    1.678    0.404
        73  -8.5985    121.8060     71.1516   2.9087178416e+01   4.3855373015e+01    0.2112272    0.1859887  12.90 0.0004415009    1.309    0.236
        74  -9.3525    163.8731     61.7166   1.6865060299e+01   3.4973610733e+01    0.2423927    0.2045692 -19.77 0.0002693148    1.297    0.229
        75  -8.9472     93.8817     61.9162   3.4272315826e+01   5.2302161285e+01    0.2268379    0.2066692   1.13  0.000375613    1.203    0.169
        76  -8.9219    111.5154     60.5164   2.8270916294e+01   4.8387422450e+01    0.2738384      0.15487 -24.94  0.001022258    2.327    0.570
        77 -10.8664    142.3658     59.1771   2.0211931514e+01   4.0824701178e+01    0.4333791    0.3196395  65.47 0.0009826565    1.365    0.268
        78 -10.4792    217.3504     56.2196   7.9620100975e+00   2.3340593562e+01    0.3481778    0.2738129  37.61  0.001586266    1.585    0.369
        79  -8.3295    102.5642     58.4906   3.0191803130e+01   5.0939672680e+01    0.1544457    0.1489066  26.46 6.915205e-05    1.061    0.058
        80  -9.4337    237.2234     51.4329   4.8795185869e+00   1.9911385722e+01    0.2364101    0.1483287 -33.27 0.0006403095    1.345    0.257
        81 -15.3635    169.9336    118.5508   3.1144626176e+01   2.3696843198e+01     9.628004     4.558774 -51.80   0.01465284    2.722    0.633
        82 -10.1491    159.1794     50.5146   1.4237810017e+01   3.7861369815e+01    0.2570483     0.251982 -57.40 0.0004368366    1.071    0.066
        83  -9.3020    214.8351     49.5282   6.5654338419e+00   2.4745134197e+01    0.2092393    0.1902235   4.61 0.0005064539    1.328    0.247
        84  -9.6095    250.0450     46.4817   2.7110767664e+00   1.8075858218e+01    0.2205263    0.1739365 -58.90  0.001498988    1.187    0.157
        85  -9.8512    245.7093     46.5937   3.0740830436e+00   1.8869686233e+01     0.237172    0.1758875  68.32  0.001537132    1.588    0.370
        86 -17.2918    246.3102    126.1000   2.0203549319e+01   8.4997071589e+00     4.508689     2.125608 -25.80   0.01231117    1.917    0.478
        87  -9.7720    229.4452    214.1759   3.8855480960e+01  -3.4193581955e-01      0.18287    0.1589359   2.51 0.0007746014    1.427    0.299
        88  -8.8780    250.0130    211.5000   3.5225948253e+01  -2.4220250798e+00    0.1423619   0.08703125  24.48  0.000427142    1.481    0.325
        89  -9.6931    246.9722     38.2678   1.1315692795e+00   1.9598180458e+01    0.1612558    0.1365979 -59.78 0.0007821557    1.124    0.111
        90 -10.7400    206.6807    205.7887   4.1366377423e+01   3.5661728588e+00    0.5320435     0.433783  73.35  0.002991237    3.001    0.667
        91  -9.2687    139.3272     27.3116   9.8117830953e+00   4.6229196248e+01     0.244765    0.2116414  36.51 0.0006452611    1.291    0.225
        92  -9.1820    175.4835    222.4782   4.9708182517e+01   5.5576214314e+00    0.1205683   0.09406169  17.84  0.000139854    1.032    0.031
        93 -11.9902    179.2180     24.2446   3.4695111699e+00   3.6173481949e+01    0.5899502    0.4117816  77.42  0.002951803    1.397    0.284
        94 -11.1752    201.1770    200.1945   4.1433505103e+01   5.0585396457e+00    0.3764754    0.2513691  21.51   0.00096987    1.283    0.220
        95  -9.9519    190.4730     24.4572   2.3916705002e+00   3.3380718200e+01     0.232564    0.2031373 -65.44 0.0004666506    1.010    0.010
        96 -11.2601    170.5461     24.3531   4.4662950770e+00   3.8356304186e+01    0.3400662     0.253987 -42.55  0.001824345    1.271    0.213
        97 -10.5293    165.8348     20.7023   3.8815338098e+00   3.9980098314e+01    0.3011063    0.1409827 -51.74  0.001242461    2.154    0.536
        98 -10.5909    204.3073    247.9274   4.8005729933e+01  -1.1671544970e+00    0.2119357    0.1758013 -58.29  0.001494947    2.690    0.628
        99  -8.8344    130.5153    244.4772   6.1422642981e+01   8.4672980191e+00    0.1192243   0.08898155  31.15 0.0008095912    1.048    0.045
       100  -8.1754    108.7329     13.3238   9.9413576496e+00   5.6054374876e+01    0.1455327    0.1044324 -61.73 0.0002894065    1.566    0.362
       101  -8.5298     92.4647     13.6009   1.3832103752e+01   6.0306168926e+01    0.1436992     0.129922  58.85 0.0001011594    1.022    0.021
       102 -10.9139    245.9477    233.5693   3.9218063395e+01  -4.2613106681e+00    0.3120751    0.1926546  35.72  0.002095838    2.016    0.504
