#   1 NUMBER                 Running object number                                     
#   2 MAG_AUTO               Kron-like elliptical aperture magnitude                    [mag]
#   3 X_IMAGE                Object position along x                                    [pixel]
#   4 Y_IMAGE                Object position along y                                    [pixel]
#   5 X_WORLD                Barycenter position along world x axis                     [deg]
#   6 Y_WORLD                Barycenter position along world y axis                     [deg]
#   7 A_WORLD                Profile RMS along major axis (world units)                 [deg]
#   8 B_WORLD                Profile RMS along minor axis (world units)                 [deg]
#   9 THETA_WORLD            Position angle (CCW/world-x)                               [deg]
#  10 FWHM_WORLD             FWHM assuming a gaussian core                              [deg]
#  11 ELONGATION             A_IMAGE/B_IMAGE                                           
#  12 ELLIPTICITY            1 - B_IMAGE/A_IMAGE                                       
         1 -12.4334    182.6361     38.0887   6.0625238115e+01   3.4803514236e+01     1.230533    0.9540704  19.11  0.004168602    1.556    0.357
         2 -11.8631    206.8823      5.7421   4.8423817545e+01   3.2345655596e+01    0.7394148    0.6005127 -15.19  0.004391148    1.419    0.295
         3 -11.5063    200.8106      6.2322   4.9146744401e+01   3.3792703605e+01    0.7374268    0.3555963 -28.89  0.003416031    2.070    0.517
         4  -8.9183    168.2182    233.5865   1.0842345145e+02   4.4222294850e+00    0.2272032    0.1469939  47.41  0.001177839    1.414    0.293
         5 -11.2677    246.5093    246.5250   9.6720643483e+01  -8.7632129613e+00    0.3755128     0.284509  16.54   0.00285773    1.105    0.095
         6  99.0000     77.1561    207.8051   1.2288904800e+02   2.2709796063e+01    0.2731622    0.2544246 -68.79  0.001405286    1.327    0.246
         7 -10.0189     72.2407    230.3992   1.2590511418e+02   1.9201317675e+01    0.2077397    0.1441956  56.69 0.0008420866    1.139    0.122
         8  -9.9628     65.3538    209.7708   1.2540099449e+02   2.3884641933e+01    0.3427608    0.2036298  63.75  0.002045315    1.531    0.347
         9 -10.3306     12.3323    206.0076   1.3509983288e+02   3.0442237934e+01     0.275597     0.123257  76.30  0.001594212    1.996    0.499
        10  99.0000      7.4598    205.9760   1.3596959656e+02   3.0890950727e+01    0.3251745    0.1239128  42.59 0.0009443461    2.194    0.544
        11  -8.3484     88.0214    202.2245   1.2009649778e+02   2.2275878840e+01    0.2434845    0.1065912  41.47 0.0007817457    2.014    0.504
        12  -8.4130     84.4799    200.4779   1.2062539874e+02   2.3122194822e+01    0.2156889    0.1177914  56.38 0.0007398817    1.733    0.423
        13 -10.6071    140.5519    200.0837   1.0897059839e+02   1.4367840314e+01    0.3245072    0.2450703  11.94  0.001796516    1.720    0.419
        14 -10.7079     67.3288    196.4849   1.2372456018e+02   2.6246787414e+01    0.5847197    0.3375222  78.45  0.003159035    1.899    0.473
        15  -9.3781    193.5353    196.0078   9.7705026196e+01   5.7802766112e+00    0.4417004    0.2586443 -66.61  0.001488021    5.627    0.822
        16  -8.5692    159.9198    197.2409   1.0456416143e+02   1.1511079376e+01    0.1812773    0.1544405  35.34 0.0002921855    1.042    0.040
        17  -8.8909     82.2022    194.9687   1.2047104272e+02   2.4539930595e+01    0.2155299    0.1648875  48.84 0.0007614235    1.200    0.167
        18 -10.2658     98.3752    190.9230   1.1654215039e+02   2.2982342208e+01    0.2087079    0.1924408  84.60   0.00066833    1.100    0.091
        19  -9.6581     71.7312    174.2545   1.2026436330e+02   3.0315109845e+01    0.5088111    0.1769512  54.24  0.001854136    3.596    0.722
        20 -10.3073     78.5132    187.5027   1.2038173999e+02   2.6580128109e+01    0.3453534    0.2956874  16.64  0.001409136    1.569    0.363
        21 -11.2950     76.7940    183.0233   1.2021782933e+02   2.7753038076e+01     0.721275    0.6354881  21.77   0.00440491    1.455    0.313
        22 -10.0111    149.6565    188.7717   1.0527581316e+02   1.4830597552e+01    0.2772651    0.2461462 -76.61  0.001673975    1.313    0.238
        23  -9.0511    249.3410    229.3259   9.3528784894e+01  -7.3637484610e+00    0.1223851      0.06987  10.32 0.0004061698    1.733    0.423
        24 -10.1405     99.5120    180.9421   1.1492908690e+02   2.4846508110e+01    0.2448332    0.1828301  45.40  0.000596841    1.257    0.204
        25  -8.4983    149.2460    180.0385   1.0386208627e+02   1.6526714336e+01    0.2145391    0.1584852 -87.57  0.001058954    1.982    0.495
        26  -8.2512    204.5109    177.0184   9.2033769656e+01   6.7879701967e+00    0.2000326    0.1299676 -33.61  0.001029658    1.581    0.367
        27 -10.6138    119.2734    173.8488   1.0940774979e+02   2.3080336570e+01    0.3308426    0.2410367  12.70  0.001644126    1.974    0.493
        28 -10.2924    125.0334    171.5990   1.0772805739e+02   2.2542763788e+01    0.3140016    0.2638569  50.59  0.001076556    1.117    0.104
        29 -11.3083    105.5577    172.1666   1.1225608948e+02   2.5723956711e+01    0.4597476    0.3151263  55.74  0.002434951    1.434    0.303
        30  -8.9044    164.7001    171.3720   9.8960640626e+01   1.5262853470e+01    0.2387059    0.1863837 -43.26 0.0006030115    1.369    0.270
        31  -8.4458    140.1755    168.3740   1.0374569128e+02   2.0462227579e+01    0.1990042    0.1226657  51.31 9.011307e-05    1.637    0.389
        32  -9.1534    193.0492    165.2382   9.1891414228e+01   1.0893629671e+01    0.2511771    0.2044274 -38.57   0.00089739    1.301    0.232
        33  -8.2825     67.4740    225.7246   1.2638739599e+02   2.0645913845e+01     0.241665   0.08498646  38.38   0.00112409    2.515    0.602
        34 -10.1537     95.5905    159.3091   1.1253963228e+02   3.0106601555e+01    0.2471827    0.2340772  86.43 0.0002522314    1.056    0.053
        35  -8.9039    190.5012    155.4996   9.0350553904e+01   1.3090961510e+01    0.2626242    0.1263555  34.62 0.0008556941    2.266    0.559
        36 -11.1095    100.5089    152.5077   1.1018943773e+02   3.0825922360e+01    0.5796691    0.4234643 -28.76  0.002900008    1.864    0.463
        37  -9.2744    134.5728    149.2367   1.0131566306e+02   2.5457461198e+01    0.3255744    0.1795271 -59.51  0.001342196    2.163    0.538
        38  -9.0358    133.2940    140.6556   9.9817832060e+01   2.7529238664e+01    0.2768904    0.1183551 -51.21  0.001017607    2.439    0.590
        39 -12.0186     55.8225    222.7084   1.2828406515e+02   2.2641435967e+01    0.2542382    0.1502369  62.33 0.0008962709    1.419    0.295
        40 -10.4983    110.4866    138.4698   1.0502306304e+02   3.2265626974e+01    0.4977483    0.3251286 -28.39  0.002181215    2.162    0.537
        41  -8.3201    142.0000    138.9833   9.7364064668e+01   2.6160710998e+01    0.2489724   0.08455977 -46.55  0.000808439    2.984    0.665
        42 -10.7827     99.3370    138.0736   1.0780431125e+02   3.4275169602e+01      0.27215    0.2692036  17.81 0.0004468253    1.121    0.108
        43  -9.8165    106.0660    130.9062   1.0458986139e+02   3.4751566290e+01    0.3465877    0.2973393 -67.66  0.001142852    1.160    0.138
        44  -9.1930    116.3884    129.4444   1.0158673526e+02   3.3210375354e+01    0.2672033    0.2294325 -41.28 0.0007226928    1.191    0.160
        45 -11.0831     69.3402    218.5434   1.2542359419e+02   2.1717122411e+01    0.2839947    0.1691297  66.15 0.0008573212    1.554    0.356
        46  -9.5064    104.7309    125.3268   1.0373675775e+02   3.6252742372e+01    0.2648672    0.2345127 -24.73 0.0007589401    1.270    0.213
        47  -8.5833    111.7350    118.6550   1.0033743714e+02   3.6489741839e+01    0.2186582    0.1873113  14.48 0.0006645081    1.358    0.264
        48  -8.9989    168.2465    113.3133   8.5088682837e+01   2.5759213387e+01    0.2935401    0.2443081 -58.63 0.0007153813    1.339    0.253
        49  -8.8283    205.7763    110.0519   7.6678627522e+01   1.7878390430e+01    0.2673464     0.183516  34.99 0.0007493339    1.583    0.368
        50  -9.2105    134.6446    105.9069   9.1102341010e+01   3.4680515849e+01    0.4107787     0.142306 -44.88  0.001323614    2.848    0.649
        51 -10.9344     59.1001    214.2934   1.2699876479e+02   2.3807134266e+01    0.2010225    0.1505413  60.09 0.0003426805    1.089    0.082
        52  -8.5040    127.6450     95.2919   8.9994545197e+01   3.8384897408e+01    0.1544354    0.1230038  89.25 0.0007029263    1.684    0.406
        53  -9.3561     97.8635    214.0853   1.1945614325e+02   1.8601951299e+01    0.1930258    0.1431818  65.21 0.0007406892    1.236    0.191
        54 -10.8744    170.0570     69.7291   7.2450388863e+01   3.3290711915e+01    0.5480414    0.3677399 -89.77   0.00116161    2.285    0.562
        55 -11.7327    168.4336     53.0692   6.7664778696e+01   3.6326619859e+01    0.6213492    0.5146299 -26.63  0.001238871    1.229    0.186
        56 -19.4566     33.3952    145.3335   1.2584456528e+02   4.1265355815e+01     19.17533     3.404949 -71.24   0.05613002    5.510    0.818
        57 -11.3978    187.1748     31.6604   5.8033360534e+01   3.4457130336e+01    0.5758945    0.4884057  35.37  0.001522069    1.288    0.223
        58 -11.1359     73.2982    212.5378   1.2411262413e+02   2.2323442405e+01    0.2273921    0.1911478  82.16 0.0003868183    1.119    0.106
