#   1 NUMBER                 Running object number                                     
#   2 MAG_AUTO               Kron-like elliptical aperture magnitude                    [mag]
#   3 X_IMAGE                Object position along x                                    [pixel]
#   4 Y_IMAGE                Object position along y                                    [pixel]
#   5 X_WORLD                Barycenter position along world x axis                     [deg]
#   6 Y_WORLD                Barycenter position along world y axis                     [deg]
#   7 A_WORLD                Profile RMS along major axis (world units)                 [deg]
#   8 B_WORLD                Profile RMS along minor axis (world units)                 [deg]
#   9 THETA_WORLD            Position angle (CCW/world-x)                               [deg]
#  10 FWHM_WORLD             FWHM assuming a gaussian core                              [deg]
#  11 ELONGATION             A_IMAGE/B_IMAGE                                           
#  12 ELLIPTICITY            1 - B_IMAGE/A_IMAGE                                       
         1 -14.4504    168.1438     52.7185   6.9251096195e+01   3.6350080579e+01     2.288838     1.485855  16.81  0.006792841    2.161    0.537
         2 -14.0816    182.3854     36.8364   6.1517853005e+01   3.4909727791e+01    0.9933029    0.8933155 -38.18  0.002921513    1.096    0.088
         3 -13.5690    186.9512     30.3457   5.8698983855e+01   3.4532741945e+01    0.6106254    0.5741963 -12.72  0.001136919    1.072    0.067
         4 -13.4761    191.0400     15.8759   5.3451890529e+01   3.5115839658e+01     1.451303    0.6502206 -66.30  0.004548081    3.893    0.743
         5 -14.4409    203.5924      5.8522   4.8878399554e+01   3.2815049913e+01      1.19396     1.045878  39.10  0.004683345    1.226    0.184
         6 -12.1730     84.4731     12.0400   7.3480573682e+01   6.1860714098e+01    0.6330131    0.3011892  63.62  0.002468327    3.356    0.702
         7 -10.9469     74.5212      9.6174   7.5537656652e+01   6.4090869056e+01    0.2136927    0.1986709  21.93 0.0005368419    1.191    0.160
         8 -10.3319     10.6849    206.3216   1.3221162458e+02   3.1729221623e+01    0.3840646    0.1918278  37.23  0.002672046    2.082    0.520
         9 -14.3150     67.5185    212.5400   1.2298538850e+02   2.4490868990e+01     1.731394    0.9152938  34.10  0.007157317    2.231    0.552
        10 -18.0705     53.4209    240.2991   1.2711676087e+02   2.1768012205e+01     7.228303     5.844177  74.12     0.058424    1.266    0.210
        11 -11.4927    204.5040    165.4652   9.1131935598e+01   9.7520091346e+00    0.4563827    0.3164993 -38.19  0.001531894    1.600    0.375
        12 -11.6918    193.8903    166.7580   9.3294773819e+01   1.1564961102e+01    0.2893354    0.2741457  30.21 0.0007208464    1.117    0.105
        13 -10.9847    190.1256    160.9413   9.2877904722e+01   1.3158414036e+01    0.3002552    0.2588187 -87.23   0.00106932    1.581    0.367
        14 -11.4981    189.3060    155.0712   9.1876671190e+01   1.4227328350e+01    0.3793496    0.3585235  57.66  0.001601645    1.180    0.153
        15 -10.9491    161.2116    166.6045   9.9465114984e+01   1.7746812724e+01    0.2554829    0.1985641 -84.35 0.0008427623    1.747    0.428
        16 -10.5861    230.2995    166.6411   8.6924004248e+01   4.8424802432e+00    0.1148357    0.1026358 -68.09 0.0007035878    1.711    0.416
        17 -10.8147      3.5836    162.0567   1.3136065939e+02   4.0522178320e+01    0.1486643    0.1298638 -88.12 0.0005720608    1.357    0.263
        18 -10.1358      9.7871    160.8606   1.3007304186e+02   4.0249748107e+01    0.1435002    0.1151804  88.90  0.001005376    1.194    0.162
        19 -19.0535     30.3610    101.7373   1.1957893544e+02   5.1164892063e+01     15.00231    0.8130169 -68.41   0.02712736   14.369    0.930
        20 -12.2397    133.9390    145.8198   1.0130465633e+02   2.6608504158e+01     1.144364     0.302202 -55.42   0.00312908    5.794    0.827
        21 -12.6281    152.7853    193.2950   1.0535542011e+02   1.4938383293e+01    0.3696671    0.2310855  61.56  0.001749487    1.808    0.447
        22 -10.4747    151.9944    150.4742   9.8355584292e+01   2.2312566106e+01     0.201348     0.184618 -50.89 0.0004204774    1.168    0.144
        23 -10.4287    174.8994    149.1186   9.3452461668e+01   1.8049617253e+01    0.2065021    0.1852616  74.16 0.0004951794    1.273    0.214
        24 -10.4638    207.6259    194.2051   9.5732881648e+01   5.3575125189e+00    0.1529041    0.1089122 -14.39 0.0002934047    1.591    0.371
        25 -11.6781    151.1913    183.1489   1.0413825393e+02   1.6822351471e+01    0.2260606    0.1801465  69.36 0.0004761113    1.366    0.268
        26 -12.6456     99.3623    138.5351   1.0778372690e+02   3.4131653986e+01    0.3276946    0.2449283  52.71  0.001863925    1.294    0.227
        27 -11.8933    106.0693    130.8311   1.0481369192e+02   3.4646806337e+01    0.4058664    0.3034382 -81.10  0.001248348    1.443    0.307
        28 -11.2937    104.9664    125.5420   1.0405877063e+02   3.5962044286e+01     0.263185    0.2377001 -36.88 0.0006333248    1.291    0.225
        29 -11.5979    135.3811    127.5547   9.7311587380e+01   2.9936330079e+01     0.491917     0.186081 -51.21   0.00178545    2.821    0.645
        30 -10.9764    160.3194    127.5048   9.1812668748e+01   2.4872894495e+01     0.397885     0.251409 -56.77  0.001366899    1.895    0.472
        31 -10.7082    120.9848    123.9783   9.9891591539e+01   3.3424449223e+01     0.215176    0.1769378 -10.55 0.0007967917    1.675    0.403
        32 -11.2448    116.6926    129.5591   1.0205288276e+02   3.3049582743e+01    0.2668642    0.2522012 -23.67 0.0007963839    1.250    0.200
        33 -10.3116    111.6959    118.8498   1.0104247182e+02   3.6210147133e+01    0.2157581    0.1923901  34.76 0.0004664921    1.251    0.201
        34 -10.8931    168.1212    113.0110   8.6725790260e+01   2.5868685074e+01    0.3795507    0.2844534 -74.52  0.001195568    1.838    0.456
        35 -10.6799    205.5229    110.1516   7.8724811629e+01   1.7977283374e+01    0.3219943    0.2029634  41.07 0.0009373826    1.599    0.375
        36  -9.9731    168.3053    176.6742   9.9839575814e+01   1.4804250476e+01     0.185818    0.1590646 -78.60 0.0006236357    1.473    0.321
        37 -10.4305    134.6429    105.5135   9.2355243194e+01   3.4543921440e+01    0.2656147    0.1369203 -45.05  0.001088348    1.915    0.478
        38  -9.3993     77.4400    104.5018   1.0691396461e+02   4.4990897618e+01    0.1352857    0.1191506 -71.86 0.0001041487    1.011    0.011
        39 -10.1940     63.8312     98.5183   1.0950250785e+02   4.8226603798e+01    0.2237777    0.1419814 -67.87  0.001021619    1.433    0.302
        40  -9.8535    151.4785     80.4816   8.1518142206e+01   3.5714762060e+01    0.1520213    0.1484603 -35.41 0.0002862172    1.011    0.011
        41 -12.8002    172.0107     71.1626   7.4326801308e+01   3.2398592275e+01    0.7697131    0.4683106 -76.47  0.001332918    3.263    0.693
        42 -11.1932    249.6778    248.4567   9.7317988758e+01  -6.4739314917e+00    0.1528388   0.08565041 -20.97  0.001094884    2.038    0.509
        43  -9.7594    168.9173    234.6815   1.0799928535e+02   6.6617778487e+00    0.1524516    0.1082878  43.76 0.0003459886    1.078    0.072
        44 -10.5084    165.9416    172.9571   9.9655800504e+01   1.5828134855e+01    0.2494202    0.1990521 -88.38 0.0008394796    1.693    0.409
        45 -10.7216     13.6312     59.9303   1.1788814589e+02   6.1883306062e+01    0.1823905    0.1618115  77.45 0.0004651359    1.294    0.227
        46 -11.8301    193.2535    195.2048   9.8369228218e+01   7.6951026147e+00    0.8506821    0.4550581 -62.68  0.002921143    6.577    0.848
        47 -10.7032    201.5100    169.0159   9.2342197026e+01   9.8082966645e+00    0.2842156    0.2112439 -61.35  0.001533692    2.032    0.508
        48 -12.0250    153.4801    212.5309   1.0785924909e+02   1.1975514024e+01    0.2930351    0.1614813  58.22   0.00129042    1.983    0.496
