#   1 NUMBER                 Running object number                                     
#   2 MAG_AUTO               Kron-like elliptical aperture magnitude                    [mag]
#   3 X_IMAGE                Object position along x                                    [pixel]
#   4 Y_IMAGE                Object position along y                                    [pixel]
#   5 X_WORLD                Barycenter position along world x axis                     [deg]
#   6 Y_WORLD                Barycenter position along world y axis                     [deg]
#   7 A_WORLD                Profile RMS along major axis (world units)                 [deg]
#   8 B_WORLD                Profile RMS along minor axis (world units)                 [deg]
#   9 THETA_WORLD            Position angle (CCW/world-x)                               [deg]
#  10 FWHM_WORLD             FWHM assuming a gaussian core                              [deg]
#  11 ELONGATION             A_IMAGE/B_IMAGE                                           
#  12 ELLIPTICITY            1 - B_IMAGE/A_IMAGE                                       
         1 -14.8898    172.2887     43.5095   6.8447764517e+01   3.6995571574e+01     1.107418     1.040237  10.12  0.003850067    1.340    0.254
         2 -15.2137    195.1095     10.2805   5.7518598387e+01   3.5621119082e+01     2.742706    0.9389385  66.57   0.01034178    2.373    0.579
         3  -9.6655    160.0000    244.9435   1.1575049307e+02  -4.0927595709e-01    0.1970469   0.07681222 -49.57 0.0007974322    2.908    0.656
         4 -10.5299    139.2155    249.9843   1.2080148360e+02   2.1219288153e+00    0.2457178    0.1992368  41.23 0.0007713437    1.071    0.066
         5 -11.3464    138.6150    243.9710   1.2008381756e+02   3.3472345086e+00    0.5956413    0.2119242 -51.71  0.002359423    3.136    0.681
         6 -14.4471    100.5767    243.5163   1.2800188716e+02   9.6666944278e+00    0.8479087    0.7491818 -61.19   0.00538538    1.309    0.236
         7 -17.9135     69.5803    226.8064   1.3258539485e+02   1.7926690281e+01     11.00639     7.001813 -72.68   0.05773633    1.532    0.347
         8 -10.3228    119.7740    212.5764   1.1953811881e+02   1.3077801943e+01    0.1998048    0.1601667  49.75  0.001063562    1.162    0.139
         9 -10.1187    150.9586    242.4643   1.1726749287e+02   1.5575709168e+00    0.2330602    0.1783386 -30.05 0.0008629752    1.576    0.365
        10 -12.4627    113.0365    195.2389   1.1831118686e+02   1.8244852150e+01     1.279314    0.7756128 -21.36  0.004398122    3.767    0.735
        11 -13.0186    107.0707    203.3221   1.2103994208e+02   1.7387375453e+01    0.5451934    0.4313603  60.35  0.001401149    1.222    0.182
        12 -11.6580    113.4100    207.6481   1.2023461215e+02   1.5297607674e+01    0.3124796     0.241348  70.91 0.0006916587    1.364    0.267
        13 -11.1078     30.5565    205.3183   1.3869636122e+02   2.7835236647e+01    0.1701295    0.1196867  17.05 0.0009528028    2.115    0.527
        14 -11.8205    100.9991    199.0477   1.2181014398e+02   1.9421672198e+01    0.3729605    0.3440641  10.12 0.0004618075    1.327    0.247
        15 -11.2062    108.9108    240.1669   1.2584056699e+02   9.0134421884e+00    0.2055909    0.1921754 -65.50 0.0006498398    1.227    0.185
        16 -12.6571    175.9055    230.5640   1.1012116146e+02  -4.6953872442e-01    0.6691781    0.1785092 -46.03  0.002229924    3.998    0.750
        17 -11.7306    131.0337    234.9476   1.2040284125e+02   6.3896586321e+00    0.2710027    0.1939752 -59.20    0.0014592    1.550    0.355
        18 -11.5161    222.9397    197.8209   9.4579920559e+01  -2.4239267578e+00     0.262659    0.1862856 -43.63 0.0007260696    1.399    0.285
        19 -12.8830    153.2804    184.9361   1.0683129070e+02   1.3084711391e+01    0.5035805    0.3604066 -48.25  0.001941457    1.415    0.293
        20 -13.5824    151.5327    195.5998   1.0928177662e+02   1.1041631740e+01    0.7285395    0.6007037  -4.29   0.00342101    1.496    0.332
        21 -11.8361    159.4879    194.5492   1.0726321829e+02   9.7564126352e+00    0.2980621    0.2571842  79.11 0.0007198943    1.347    0.258
        22  -9.1923      8.9345    194.9820   1.4236787949e+02   3.2419447379e+01    0.1662292    0.1223514 -70.70  0.001074727    1.256    0.204
        23 -10.7893    166.4942    235.1633   1.1285888967e+02   2.8267779731e-01     0.185278    0.1353599 -47.60 0.0007419701    1.515    0.340
        24  -9.9855    145.0207    234.9522   1.1739557281e+02   3.9978235875e+00    0.1502072     0.147542 -84.84  0.000314385    1.121    0.108
        25 -12.9752    109.4409    187.2862   1.1783008150e+02   2.0777115316e+01     1.436643    0.8583513 -33.62  0.005739193    2.469    0.595
        26 -11.8351    164.6996    187.1579   1.0464457376e+02   1.0364161784e+01    0.2724196    0.2422691  65.30 0.0005875609    1.220    0.180
        27 -12.5625    147.5515    185.3973   1.0826418557e+02   1.4096331502e+01    0.4618257    0.2635325 -51.02  0.001793867    1.781    0.438
        28 -10.7875    185.5262    169.0249   9.6296036081e+01   1.0169371785e+01    0.3932115    0.2557432 -54.24  0.001036876    1.631    0.387
        29 -11.9855    189.1375    178.4648   9.7505030015e+01   7.4628181653e+00    0.5018934    0.3932222  70.02  0.001447486    1.655    0.396
        30 -11.1852    188.3797    174.1637   9.6771139124e+01   8.5130001924e+00    0.3702507    0.2845936 -72.07  0.001141825    1.675    0.403
        31 -10.7185    225.9898    178.7502   9.0222084762e+01   5.8934670232e-01     0.172997    0.1189542  39.28 0.0006086461    1.568    0.362
        32 -10.8726    162.6957    233.9183   1.1346121740e+02   1.1625961124e+00    0.1788695    0.1744216 -30.12 0.0005028705    1.131    0.116
        33 -10.5444    203.5660    174.2442   9.3640581951e+01   5.5580359344e+00    0.2800992    0.1358344 -48.34  0.001119261    2.070    0.517
        34 -10.9769    195.5132    172.9167   9.5010501457e+01   7.3781695018e+00    0.3563933    0.2747726 -53.54 0.0009869043    1.348    0.258
        35 -10.3698    207.7219    171.1996   9.2174609530e+01   5.3829862521e+00    0.3890063    0.1637053 -55.36  0.001261286    3.471    0.712
        36 -10.4274    240.3206    169.3072   8.5740748027e+01  -1.1408882364e-01    0.1369514    0.1006071  -8.83  0.000220574    1.639    0.390
        37 -12.1109    230.5189    167.3788   8.7075407677e+01   1.9427492362e+00     0.474698    0.2081246 -55.21  0.001661265    3.334    0.700
        38 -11.9279     24.9277    165.7896   1.3583381353e+02   3.7863708454e+01    0.3440377    0.2263706   3.57  0.001684521    2.371    0.578
        39 -14.6546    147.3007    147.3235   1.0027269173e+02   2.2987640297e+01     1.885246     1.135064 -87.61  0.005560611    4.215    0.763
        40 -14.6613    133.6846    145.7224   1.0331623287e+02   2.6203459529e+01     1.713518    0.7124234 -55.90   0.00512916    2.714    0.632
        41 -13.9756    135.5386    127.2222   9.8452794682e+01   3.0131487761e+01     2.285471    0.5085982 -51.86  0.004998516    6.084    0.836
        42 -11.8262    134.5822    108.9019   9.4031113045e+01   3.4395586019e+01     1.134419    0.1670363 -45.00  0.002379011    6.761    0.852
        43 -12.4671    129.9577    109.8118   9.5468687545e+01   3.5200665882e+01    0.4004232    0.3364367  -9.78 0.0009104919    1.432    0.302
        44 -11.6458    188.4646    154.2479   9.2460334935e+01   1.2729704780e+01    0.6401014    0.3821034  41.00  0.002753049    1.776    0.437
        45 -11.0189    161.9558    149.9722   9.7376169806e+01   1.9267032179e+01    0.2633261    0.1975531  87.70   0.00113855    1.810    0.447
        46 -10.9632    174.5206    148.8493   9.4264764958e+01   1.6836998989e+01     0.318617    0.2757371  80.27 0.0007303984    1.305    0.234
        47 -12.0869    160.8491    128.0346   9.2474607494e+01   2.4414320842e+01    0.4644329    0.3507155 -74.43  0.002087115    1.610    0.379
        48 -19.1924     51.1967     99.7051   1.1668727478e+02   5.0964093997e+01     17.02158    0.9655333 -55.92   0.02639966   15.956    0.937
        49 -10.9093    231.2674    113.7067   7.5588509182e+01   1.1998659612e+01    0.2425283    0.2276065 -50.35 0.0007506848    1.115    0.103
        50 -11.8172    167.9197    112.8839   8.7144122833e+01   2.6052463865e+01    0.4438348    0.3281829 -73.40  0.002005558    1.638    0.389
        51 -12.3813    112.3512    104.9986   9.8976443644e+01   3.9898545327e+01     0.913864    0.4434738 -62.14   0.00292597    3.494    0.714
        52 -12.9836    121.2405    112.0222   9.8374902959e+01   3.6555743554e+01    0.4779843    0.3180212 -58.28  0.002091005    1.656    0.396
        53 -12.7833    117.3970    109.1999   9.8686831896e+01   3.7965442028e+01     0.432499    0.3317249 -54.92  0.001893777    1.342    0.255
        54 -10.9827    205.4643    110.0761   7.9056689119e+01   1.8134247261e+01    0.3519307    0.2153808  51.10 0.0009852865    1.732    0.423
        55 -13.0994    125.0586    242.3409   1.2271522066e+02   5.9247074871e+00    0.5481781    0.1855472 -54.87  0.002114096    3.267    0.694
        56 -10.7641    167.9704    241.8478   1.1361495630e+02  -1.1811917069e+00    0.2371983    0.1832515 -45.97 0.0008317481    1.451    0.311
        57 -11.0094     76.0406     86.5654   1.0492175464e+02   5.0323296379e+01    0.2620111    0.2241763  64.57 0.0007797442    1.501    0.334
        58 -11.3228    160.7001     83.4899   8.1117501620e+01   3.3458442372e+01    0.4014737    0.2396229  88.22  0.001413425    3.158    0.683
        59 -10.6078    148.2729     81.9348   8.3414355177e+01   3.6643396747e+01    0.2059534    0.1966706 -45.64 0.0004964045    1.088    0.081
        60 -11.5215     89.3204     78.3028   9.8226893019e+01   4.9701961827e+01    0.2786254     0.234861  46.17  0.001042497    1.275    0.216
        61 -11.1998    113.3497     76.4750   9.0596249108e+01   4.5370627471e+01    0.4871083    0.2591781  56.72  0.001989116    2.223    0.550
        62 -14.4258    159.1870     58.4579   7.4697081387e+01   3.7976534349e+01     1.379933     1.035847  53.77  0.001035696    1.263    0.208
        63 -12.6219    196.7823    245.0807   1.0826619771e+02  -6.3913676625e+00    0.4635815    0.2325573  53.37  0.001890684    3.280    0.695
        64 -13.0827    176.5914     36.5553   6.6025378326e+01   3.6885157914e+01    0.3747588    0.3531499  59.69 0.0009030853    1.203    0.169
        65 -10.9759     13.5018     59.6305   1.2028241337e+02   6.2751803177e+01    0.2007964    0.1569632 -34.85 0.0004130359    1.026    0.025
