#   1 NUMBER                 Running object number                                     
#   2 MAG_AUTO               Kron-like elliptical aperture magnitude                    [mag]
#   3 X_IMAGE                Object position along x                                    [pixel]
#   4 Y_IMAGE                Object position along y                                    [pixel]
#   5 X_WORLD                Barycenter position along world x axis                     [deg]
#   6 Y_WORLD                Barycenter position along world y axis                     [deg]
#   7 A_WORLD                Profile RMS along major axis (world units)                 [deg]
#   8 B_WORLD                Profile RMS along minor axis (world units)                 [deg]
#   9 THETA_WORLD            Position angle (CCW/world-x)                               [deg]
#  10 FWHM_WORLD             FWHM assuming a gaussian core                              [deg]
#  11 ELONGATION             A_IMAGE/B_IMAGE                                           
#  12 ELLIPTICITY            1 - B_IMAGE/A_IMAGE                                       
         1 -12.3017      5.1945     48.0838   8.0969365162e+01   6.5402585160e+01     1.007606    0.3354834 -47.57  0.004998481    2.168    0.539
         2 -11.6881      3.5277     16.3481   7.0713726316e+01   7.0681750736e+01    0.3195275    0.2783694 -52.64  0.001859312    1.966    0.491
         3 -12.2971    132.7966     19.0323   2.7485256276e+01   4.8433810751e+01    0.3501274    0.2184574  45.37 0.0003964825    1.477    0.323
         4 -11.9632     74.7365     15.6615   4.0414543677e+01   6.1176926890e+01    0.5594541    0.2893918  53.72   0.00289258    1.941    0.485
         5 -11.1652     77.4048      9.9283   3.7372256754e+01   6.1200752846e+01    0.4028934    0.1594882  42.18  0.001339098    2.028    0.507
         6 -10.3572     72.7220     10.3747   3.8955733943e+01   6.2046844074e+01    0.2707728    0.1482087  24.10  0.001283711    1.852    0.460
         7 -11.7743     31.3743     13.4117   5.5848417615e+01   6.8264857790e+01    0.3046684    0.2689053 -19.52 0.0005599867    1.557    0.358
         8 -12.1575    238.1146     17.6762   1.4049389946e+01   2.4385651885e+01    0.2282931    0.1657702 -67.26 0.0002950564    1.121    0.108
         9 -11.1838     60.0225     13.9847   4.4619976057e+01   6.3963775445e+01    0.2883802    0.2044391 -23.74   0.00156649    1.532    0.347
        10 -10.8012     11.1322     14.6983   6.6114958187e+01   7.0285248439e+01    0.2888564    0.1462127 -10.82  0.001385456    2.003    0.501
        11 -11.3273    129.8843     11.9975   2.5914113553e+01   4.9767161791e+01     0.390948    0.2188008 -48.17  0.001991848    2.263    0.558
        12 -11.6810    154.8362      9.1102   2.1100525966e+01   4.4180870252e+01    0.2832178    0.2225461 -71.59 0.0007717505    1.350    0.259
        13 -10.3869    105.0624     12.7948   3.1231374364e+01   5.5277094597e+01    0.2648197   0.09736498  44.22  0.001141908    2.320    0.569
        14 -10.5454    164.8501     11.7934   2.0416786826e+01   4.1562538909e+01    0.1780132    0.1331553 -81.03 0.0006638767    1.320    0.242
        15 -10.8617     19.0351     15.8560   6.2691905794e+01   6.9373089754e+01    0.2776156    0.1718618   2.93  0.001385076    1.381    0.276
        16 -11.7303    176.6138     10.7917   1.8680895311e+01   3.8887256144e+01      0.29864    0.1835961  59.89  0.001229238    1.450    0.310
        17 -11.9327    145.7865      8.1020   2.2156082927e+01   4.6400929591e+01    0.4045745    0.3047609 -21.04  0.002509446    1.664    0.399
        18 -11.0783     36.9389      7.7329   5.0867799994e+01   6.8154040362e+01     0.285661    0.2065783  44.65 0.0009182017    1.845    0.458
        19 -11.8136      9.4300      8.0189   6.4043493758e+01   7.1304620897e+01    0.3458709     0.215194   7.48  0.001080543    1.314    0.239
        20 -10.7130     10.7645      3.0252   6.1033010019e+01   7.1779195950e+01    0.2492157    0.1382982 -13.72  0.001271671    1.539    0.350
        21  -9.8754    138.5066     11.4977   2.4269411984e+01   4.7806300638e+01    0.2071251    0.1059183 -41.56  0.001028562    2.286    0.563
        22  -9.5256     91.7897      7.1532   3.2427788050e+01   5.8564316540e+01    0.1705684    0.1120993  36.93 0.0004090121    1.291    0.225
        23 -11.2059    231.3666      5.6703   1.2337886583e+01   2.7164606095e+01    0.4010836    0.1568107  85.23  0.001224559    2.550    0.608
        24 -10.3922    223.0263      5.3309   1.2927895639e+01   2.8968649598e+01    0.2060305    0.1703704 -14.94  0.001395718    1.925    0.480
        25 -10.4710     74.3447      3.1459   3.5604458663e+01   6.2346313491e+01    0.3647296    0.2133788 -30.54   0.00215268    2.058    0.514
        26 -10.7760    164.3188      4.7652   1.8720460566e+01   4.2340578619e+01    0.2097012    0.1599649 -87.06 0.0005438263    1.214    0.176
        27 -10.1265    241.3227      9.0720   1.2215810990e+01   2.4727400999e+01    0.1594074    0.1163029 -70.03 0.0004089193    1.085    0.079
        28 -10.3339    201.6260      3.5105   1.4409284574e+01   3.3856695544e+01    0.2373499    0.1285477  51.63  0.001272318    2.158    0.537
        29 -10.9844    178.9847      3.9237   1.6789617089e+01   3.8993013401e+01      0.18766    0.1487064  80.72 0.0003099584    1.019    0.018
        30  -9.8748    106.0977      3.9345   2.8010368780e+01   5.5777209611e+01    0.1642486    0.1111141  44.55            0    1.223    0.183
        31 -11.7232     27.4798      3.1538   5.2922375984e+01   6.9880160808e+01    0.2180944    0.1854599  -4.74 0.0009991687    1.422    0.297
        32 -10.2420     34.4609      1.4059   4.9009786580e+01   6.9123315597e+01     0.459433   0.09803563  44.24  0.001660699    5.109    0.804
        33 -11.1416    212.9930      8.5022   1.4405540892e+01   3.0810636747e+01    0.1842391    0.1606751  70.09 0.0008724423    1.337    0.252
        34 -10.7285    126.3019      2.9102   2.3818100482e+01   5.1343223688e+01    0.1668289    0.1467998  48.60 0.0006850105    1.133    0.117
        35 -10.7386    168.0638      1.9638   1.7573556755e+01   4.1712152916e+01    0.1851915    0.1465174  79.77 0.0003021059    1.016    0.016
        36  -9.9790     90.9504      2.2177   3.0844969301e+01   5.9118889586e+01    0.1614637    0.1257662  39.85 0.0002292059    1.040    0.039
        37 -10.5210     22.2162      1.7343   5.4705375798e+01   7.0674217600e+01    0.1572208   0.09510545   4.24 0.0005160153    1.393    0.282
        38  -9.3801    183.5155      1.4323   1.5732874383e+01   3.8176623641e+01     0.123397    0.0970106  78.47 9.376381e-05    1.064    0.060
        39 -10.8401     18.4619    173.0364   9.8786078032e+01   3.6179780931e+01    0.2256076    0.1442622  60.77  0.001251543    1.601    0.376
        40  -9.9621    110.0043    249.9941   8.7046013655e+01   6.1583855028e+00    0.1644267     0.138206  51.14  0.000611407    1.002    0.002
        41 -11.6128     89.4776    249.4251   9.1259194421e+01   9.5073650674e+00    0.3325139    0.2408142  39.18  0.001048142    1.306    0.234
        42  -9.2685     72.2734    250.3751   9.4857643127e+01   1.1884836080e+01    0.1128369   0.09805057 -34.90  0.000700106    1.689    0.408
        43 -10.3713     12.1937    250.6171   1.0616580674e+02   1.9452555932e+01    0.1615814   0.09384499  45.84 0.0004227381    1.553    0.356
        44 -12.5921      6.5008    245.1082   1.0684227501e+02   2.1159340691e+01    0.5485362    0.3386818  73.36  0.002194262    1.241    0.194
        45 -12.1500     14.4164    244.7540   1.0542303713e+02   2.0391674038e+01    0.3451573    0.1894918  89.83  0.001544984    1.551    0.355
        46 -11.9702     22.5606    248.6899   1.0421052775e+02   1.8685852883e+01    0.3649777    0.2125047  54.93  0.001336092    1.392    0.282
        47 -11.3667     17.7513    247.3546   1.0498852234e+02   1.9497827652e+01    0.2484714     0.177493  57.12  0.000915218    1.205    0.170
        48  -9.8330     25.6471    169.6818   9.6655998188e+01   3.6316796935e+01    0.1336627   0.08907574 -43.37 0.0007046897    1.744    0.427
        49  -9.5633    176.7174    168.6739   5.7635703195e+01   1.1110851342e+01    0.1570079    0.1209217  -8.39  0.000260046    1.600    0.375
        50 -10.7993      5.6929    168.0302   1.0133617240e+02   3.8477360515e+01    0.1847991    0.1337862 -77.12 0.0007306333    1.100    0.091
        51 -11.2733     51.1384    161.7502   8.8963916020e+01   3.5482141476e+01    0.6770068    0.3349006 -76.16   0.00277789    2.217    0.549
        52 -11.0350     36.1427    165.9089   9.3524330215e+01   3.6171696012e+01    0.3614996    0.2454249  24.65   0.00193901    1.782    0.439
        53 -10.6733     35.5292    161.1157   9.3046531404e+01   3.7435334499e+01    0.2488646    0.2178222 -39.99 0.0003314512    1.307    0.235
        54  -9.6347     10.2937    162.3151   9.9649185118e+01   3.9487496234e+01    0.1267208   0.08079048 -50.44 0.0003153706    1.599    0.375
        55  -9.7340    221.3008    161.3165   4.6754611817e+01   3.8291548665e+00    0.1457656    0.1086927  -8.13 0.0002986731    1.617    0.381
        56 -11.3452     20.9425    156.8987   9.6331330293e+01   3.9907279851e+01    0.4543259    0.3025669 -24.09  0.002412038    2.119    0.528
        57  -9.8911    216.4429    154.5121   4.6206004860e+01   6.0869150367e+00    0.1469152     0.133829 -34.61 4.383508e-05    1.013    0.013
        58 -10.9987    236.3926    152.2933   4.2112670756e+01   2.7885150842e+00    0.2896289    0.1211949 -37.81     0.001147    2.197    0.545
        59 -10.5965     10.7870    153.0739   9.8513475623e+01   4.1691276941e+01    0.2750312    0.1878268  31.85  0.001410306    1.727    0.421
        60  -9.8680     21.1607    147.8704   9.5125634638e+01   4.2113833989e+01    0.1782708    0.1305497 -52.55 0.0003759779    1.288    0.223
        61 -10.0108    234.3659    146.7970   4.1297991682e+01   4.1918345684e+00    0.2062809    0.1199623 -33.81 0.0009445216    1.654    0.395
        62  -9.9275    187.6687    144.0820   4.9666612180e+01   1.4130305931e+01    0.2145542    0.1944203 -33.32 0.0004513285    1.083    0.076
        63 -10.2705      9.2611    137.0813   9.6991039160e+01   4.5683834835e+01    0.3137805    0.1026205 -63.59  0.001338432    2.232    0.552
        64 -10.7529      2.8949    135.0228   9.8494173660e+01   4.6604722213e+01    0.3547113    0.1216156 -65.54  0.001580774    2.126    0.530
        65 -12.6078    241.7589    133.6507   3.7290428923e+01   5.2846826148e+00    0.3728066    0.2621055 -27.64  0.001422703    1.503    0.335
        66 -10.2723     21.0602    134.8329   9.3337903551e+01   4.5326605456e+01    0.2754973    0.1627503  70.01 0.0009994433    2.232    0.552
        67 -11.8261     36.5671    131.3354   8.8191304449e+01   4.4763498805e+01    0.4765216    0.2235412 -50.10  0.000900252    1.869    0.465
        68 -10.2951     59.3968    131.7886   8.1316942444e+01   4.1998444608e+01    0.2104416    0.1664241 -30.30  0.001098546    1.365    0.268
        69 -10.2752     53.4462    132.5327   8.3282394194e+01   4.2572058950e+01    0.1906548    0.1422808   5.37 7.206309e-05    1.670    0.401
        70 -10.7793     73.6918    128.9922   7.6334862102e+01   4.0670783683e+01    0.3181951    0.2873813 -59.76  0.001384557    1.064    0.060
        71 -10.2337     56.6950    126.6205   8.1100551812e+01   4.3629774284e+01    0.2319953    0.1424121  21.21 0.0002349516    1.928    0.481
        72  -9.9983     22.2183    125.9651   9.1634224122e+01   4.7391386113e+01     0.184461     0.144415 -63.94 0.0003527212    1.067    0.063
        73 -11.1468     15.3433    125.3238   9.3601688746e+01   4.8082019823e+01    0.3558212    0.1729971  27.49  0.001770958    2.380    0.580
        74 -11.4172     10.7404    122.1164   9.4500976054e+01   4.9175461485e+01    0.3038065    0.2241959 -84.21  0.001836272    1.341    0.255
        75 -11.4959    243.7074    122.0484   3.4546654156e+01   7.0476081970e+00    0.2046939    0.1584258 -44.74 0.0007029496    1.116    0.104
        76 -10.9219     20.1096    120.9658   9.1467338199e+01   4.8766546922e+01    0.3219188    0.1343885 -58.13  0.001472773    1.851    0.460
        77  -9.3935    220.3613    121.3209   3.8142427082e+01   1.1800663235e+01    0.1454271    0.1150956   2.63 0.0007042433    1.774    0.436
        78 -11.3424     24.5108    118.5353   8.9683736088e+01   4.8993159373e+01    0.3409863    0.2332073 -74.32  0.001173061    1.417    0.295
        79 -10.7910      1.4106    118.6025   9.6790472488e+01   5.0584712547e+01    0.2324939   0.09553423 -67.70 0.0002576231    1.884    0.469
        80 -11.4939    249.8550    117.5697   3.2710637985e+01   6.7069223982e+00    0.2812847     0.194468 -50.40  0.001135239    1.257    0.205
        81 -12.5310    248.7904    112.0756   3.1727086208e+01   7.8804458567e+00    0.4623187    0.3326521  39.71  0.001815186    1.793    0.442
        82 -11.1920     52.3346    115.0538   8.0033376029e+01   4.6987043439e+01    0.4227833     0.207088 -68.96  0.001169089    2.550    0.608
        83 -12.3336     23.3051    106.8898   8.7944297822e+01   5.1847312764e+01    0.7634684    0.3736387 -21.49  0.002880465    2.949    0.661
        84 -12.0148     14.4404    110.2600   9.1458399972e+01   5.1723486209e+01    0.3747993    0.3107804 -73.14  0.001717285    1.177    0.150
        85 -10.9985    182.5690    114.2251   4.3591284497e+01   2.1521054425e+01    0.2778149    0.2722088  70.05 0.0006658006    1.051    0.049
        86  -9.6816     71.9566    115.6649   7.3812287131e+01   4.4170546847e+01    0.2574894    0.1622777  85.37 0.0009171473    3.339    0.701
        87 -10.0091     94.5422    112.0677   6.5787886514e+01   4.1248398730e+01    0.2378323    0.1463187 -47.58 0.0006264098    1.574    0.365
        88 -10.9833     55.0057    109.5636   7.7911870447e+01   4.7960144621e+01    0.3160716    0.2132984 -59.03 0.0005554713    1.420    0.296
        89 -10.5794     56.2154    104.9818   7.6418786112e+01   4.8875360849e+01    0.2867744    0.1804434  -7.57  0.001152496    2.209    0.547
        90 -11.5648      2.3833    107.1310   9.4806671730e+01   5.3195839170e+01    0.4634607    0.1776425 -60.06  0.002229882    1.880    0.468
        91 -11.0589     31.2158    117.1487   8.7304462897e+01   4.8737155782e+01    0.3221462    0.1610871  -3.34  0.001266867    3.485    0.713
        92 -11.0988     15.8861    115.1478   9.1822899716e+01   5.0471155256e+01    0.2677273    0.1760282 -66.94 0.0006665127    1.296    0.229
        93 -10.7356     37.8169    102.3311   8.2083795336e+01   5.1593357110e+01    0.3193428    0.2257587  75.56  0.001597348    2.163    0.538
        94 -10.2580     34.2046     97.3719   8.2224564558e+01   5.3080958389e+01    0.3029673    0.1566674 -38.44  0.001371715    1.823    0.452
        95 -11.3183     62.3396     98.9743   7.2826997366e+01   4.9428288666e+01    0.4177384    0.3010504 -22.30  0.001537898    1.487    0.327
        96  -9.3994    144.5118     99.4736   4.8359447146e+01   3.3429989664e+01    0.1558079    0.1518249  74.36 0.0008098201    1.028    0.027
        97 -11.0336     21.4335     98.3966   8.6901389665e+01   5.3950985391e+01    0.2288613    0.1800983 -52.72 0.0005059232    1.062    0.059
        98  -9.6185      9.5555     99.0334   9.1090151691e+01   5.4630423715e+01    0.1792328    0.1035035 -64.94 0.0003675413    1.468    0.319
        99 -10.3635     41.2125     96.8298   7.9634657079e+01   5.2496581811e+01    0.1933343     0.173082 -60.21 0.0005509541    1.188    0.158
       100  -9.7480    111.8250    105.8377   5.8927703994e+01   3.9295471436e+01    0.1974108    0.1768161  68.25            0    1.261    0.207
       101  -9.6948    104.7160     95.0170   5.7991192644e+01   4.3058246767e+01    0.2062342    0.1969146 -21.08  0.001115527    1.036    0.035
       102 -10.4910    227.1834     93.0628   3.0782044068e+01   1.5565346162e+01    0.2192691    0.1916405  80.12 0.0003843832    1.172    0.147
       103 -10.2487      1.4990     92.9416   9.2742045545e+01   5.6450678902e+01    0.1868497   0.09690934 -63.16 0.0005260357    1.534    0.348
       104 -11.1380    158.5095     90.1840   4.2549191954e+01   3.1944424632e+01    0.4816098    0.2868647  34.48  0.001830494    2.122    0.529
       105  -9.8562     38.8726     86.1935   7.7843553802e+01   5.5088434629e+01    0.3250678    0.1244732 -42.80   0.00119433    2.295    0.564
       106 -10.6747     83.6280     89.2518   6.2956343583e+01   4.8210899247e+01    0.3133371    0.2776275  46.22  0.001722682    1.262    0.208
       107  -9.7706     10.3206     90.6199   8.9228418360e+01   5.6468000744e+01    0.1494335    0.1078671 -15.15 0.0005735719    1.481    0.325
       108 -10.2925     65.5104     87.1658   6.8509931004e+01   5.1548193054e+01    0.2402033     0.220098  72.45  0.001136472    1.427    0.299
       109  -9.4471     47.5319     88.4048   7.5261833117e+01   5.3653316874e+01     0.134865    0.1177483 -28.22 0.0001022289    1.018    0.018
       110 -11.1607     22.1200     87.2752   8.4263362914e+01   5.6377844454e+01    0.2447993     0.165583 -58.50  0.001051092    1.333    0.250
       111 -10.0573    250.3056     87.3080   2.6456125395e+01   1.1846828975e+01    0.1171425    0.1039655  -6.50 0.0004887448    1.609    0.378
       112  -9.9418     56.6392     90.7153   7.2620903067e+01   5.2020871277e+01    0.1457202   0.09827939 -17.46  0.000300709    1.681    0.405
       113 -10.0487     54.1988     85.9846   7.2198490623e+01   5.3352401554e+01    0.1830686    0.1561231 -27.79            0    1.029    0.028
       114 -10.2773     10.0225     86.1975   8.8439787031e+01   5.7457055264e+01    0.2509586    0.1281002  45.00  0.001170085    2.915    0.657
       115 -10.2565    107.1792     84.7316   5.4236229634e+01   4.4637999441e+01    0.2066386    0.1957016  46.95 0.0003415162    1.116    0.104
       116 -10.7763    247.2055     84.4151   2.6252132613e+01   1.2934100141e+01    0.1726877    0.1186836  83.14 0.0005390336    1.620    0.383
       117 -11.4600     30.4949     81.6574   7.9800617986e+01   5.6877402647e+01     0.296721    0.2273782 -29.45 0.0005778508    1.141    0.124
       118 -10.2124     15.8692     83.2499   8.5658519315e+01   5.7712971417e+01    0.1726903    0.1595849 -60.83 0.0005576024    1.241    0.194
       119  -9.9658     74.8658     81.8744   6.3712632879e+01   5.1192277847e+01    0.2268212    0.1827013 -12.25  0.001223082    1.240    0.194
       120  -9.9576     68.5901     82.4600   6.6062638863e+01   5.2062700508e+01    0.1409755    0.1247692 -18.24 5.908757e-05    1.016    0.016
       121  -9.2449     62.4418     82.4472   6.8232548923e+01   5.2973181181e+01    0.1402761    0.1220693 -18.78 0.0001343646    1.026    0.025
       122 -10.1073     42.2059     82.1753   7.5549893803e+01   5.5587667048e+01     0.163955    0.1549826 -74.11 0.0004120142    1.338    0.253
       123 -10.8829      7.3103     81.0678   8.8361470901e+01   5.8725443110e+01    0.3154303    0.1523812 -36.11  0.001129753    1.836    0.455
       124 -11.7080    111.8206     78.3001   5.0940674755e+01   4.4887439254e+01    0.2585101    0.2350842  18.11 0.0003179059    1.071    0.066
       125 -10.3701     88.1386     77.4304   5.7912897908e+01   4.9762833918e+01    0.2337415    0.1911504 -36.16 9.149795e-05    1.222    0.182
       126 -10.6561     99.8823     76.5935   5.3949045861e+01   4.7668096187e+01    0.2576966    0.2085734 -43.17 0.0003482968    1.307    0.235
       127 -11.2120     44.8225     74.8959   7.2523042441e+01   5.6790579203e+01    0.2560523    0.2339017  87.70 0.0005021953    1.554    0.356
       128 -12.5404     12.4491     47.5971   7.7594803732e+01   6.5009034880e+01    0.5123371    0.2935932 -57.48  0.001451407    1.970    0.492
       129 -14.4577     16.6475     67.3074   8.1475276554e+01   6.0970955370e+01    0.6853375    0.4609083 -58.22  0.001281401    1.484    0.326
       130 -13.1941      4.5567     66.4476   8.6125963547e+01   6.1915108609e+01      1.20194    0.5029474 -65.41  0.005669725    2.562    0.610
       131 -10.5857    224.3374    248.8490   6.3135693776e+01  -1.1871720430e+01    0.2296518    0.1093174 -45.27  0.001096313    2.647    0.622
       132 -11.7171    167.7306     73.4360   3.6123276144e+01   3.2717789373e+01     0.258147     0.237598 -81.30   0.00027922    1.068    0.064
       133 -10.6207     54.0033     72.0128   6.8194500462e+01   5.6220517710e+01    0.2158164    0.1763131 -29.66  0.001279175    1.096    0.087
       134 -12.1488     50.3235     68.3248   6.8446173401e+01   5.7408978867e+01    0.4249557    0.2629714 -53.42 0.0005823949    1.819    0.450
       135  -9.5143     61.5694     73.4339   6.5836780471e+01   5.4898422219e+01    0.1376359    0.1183808 -13.56 5.247601e-05    1.024    0.023
       136  -9.7561     77.8034     69.5938   5.8874544196e+01   5.3058708028e+01    0.1744468    0.1292091  43.23 0.0002092105    1.457    0.314
       137 -10.8059    122.8539     67.3935   4.4579891287e+01   4.4380457321e+01    0.2599855    0.2095657 -37.30 0.0005999683    1.317    0.241
       138  -9.5539     42.6911     67.3416   7.1092798069e+01   5.8523221239e+01    0.1168223    0.1053165  82.06 0.0007044141    1.692    0.409
       139 -10.0686    139.7148     66.0964   4.0047383589e+01   4.0684373069e+01    0.2578219    0.1889595  61.85  0.001266896    1.356    0.262
       140 -11.2229     31.8460     63.7841   7.4328402904e+01   6.0362942366e+01    0.4362385    0.2491807   9.07  0.002026692    1.930    0.482
       141 -11.1616     28.2057     60.7182   7.4889658301e+01   6.1294776297e+01    0.5672501    0.2434557  15.76  0.002438754    2.715    0.632
       142 -11.6355    156.0238     63.3576   3.5726341968e+01   3.7204473470e+01    0.2596088    0.2383507  67.58 0.0003086393    1.008    0.008
       143  -9.6174    106.1822     63.8617   4.8047380879e+01   4.8608807476e+01     0.192599    0.1564959  15.15            0    1.279    0.218
       144 -10.9524    237.9963     63.2304   2.3023539637e+01   1.8192854841e+01    0.1653114    0.1016175  69.10 0.0005481858    1.649    0.394
       145 -10.5939    202.1101     62.3919   2.7506892792e+01   2.6276450935e+01    0.2097867    0.1835787 -40.43  0.001220226    1.274    0.215
       146  -9.7632    168.9600     62.6961   3.3037880532e+01   3.4163306285e+01    0.1966769    0.1674514  69.36 0.0001902417    1.090    0.082
       147 -11.0155     76.3384     62.1680   5.6936490562e+01   5.4625513602e+01    0.3533252     0.199357  38.46  0.001286722    1.726    0.421
       148 -10.2104    115.3402     59.7514   4.4186341898e+01   4.7294085104e+01    0.3593334    0.2208034  22.90  0.001101073    2.172    0.540
       149 -10.1863    115.7760     56.3373   4.2985882218e+01   4.7723900346e+01    0.2031838     0.180329  52.09 0.0003100579    1.116    0.104
       150 -10.8978     46.5039     60.2991   6.7366829610e+01   5.9382363031e+01    0.3278747    0.2070878 -24.58 0.0006864136    1.511    0.338
       151  -9.3815    138.0287     60.0034   3.8643489369e+01   4.2047732127e+01     0.167446    0.1592072  52.04 0.0003052346    1.031    0.030
       152  -9.6271    120.2009     60.5878   4.3166355700e+01   4.6080103340e+01    0.2183316     0.123107  41.31 0.0009560953    1.708    0.414
       153 -10.3678     98.3154     60.0839   4.9138613340e+01   5.0849463598e+01    0.2353089    0.1723339  34.41 0.0006670409    1.276    0.217
       154  -9.7967    127.1735     58.8021   4.0851912792e+01   4.4769888201e+01    0.1893466    0.1543525  29.65 0.0002530448    1.260    0.206
       155 -10.9033     58.6472     59.0103   6.2253877859e+01   5.7975890139e+01    0.3437339    0.1841789  28.12  0.001184888    1.867    0.464
       156 -10.1795     80.9016     55.7162   5.3197329928e+01   5.4891497409e+01    0.4280601    0.2418237   1.13  0.001623514    3.259    0.693
       157 -11.0905     74.6846     56.2798   5.5508858256e+01   5.5895537125e+01    0.2448382    0.1901796   5.89 0.0006451456    1.246    0.197
       158  -9.7347     46.4808     55.4325   6.5756665549e+01   6.0249842480e+01    0.1296702    0.1064661 -10.12 9.906333e-05    1.011    0.011
       159 -12.6772     37.9777     50.0780   6.7386514782e+01   6.2195296726e+01    0.6522785    0.4303504 -27.52  0.003877565    1.317    0.241
       160 -11.0117     27.7017     51.2278   7.2107410703e+01   6.3078268038e+01     0.695313     0.452615 -63.23  0.003748863    2.392    0.582
       161 -10.9480     18.3084     42.3611   7.3261793924e+01   6.5461261129e+01    0.6105724    0.1641999 -35.95  0.002356778    3.609    0.723
       162 -10.8236     24.3719     41.8737   7.0377970127e+01   6.4997908520e+01    0.2654371    0.2053601   7.07 0.0009264306    1.231    0.188
       163 -13.2212     27.0497     37.1640   6.7484122905e+01   6.5493404446e+01    0.3931818    0.3447353  36.82  0.001423841    1.695    0.410
       164 -10.9483    128.7413     50.4420   3.7909343691e+01   4.5638872410e+01    0.3521025    0.2672454  -7.88   0.00120646    1.620    0.383
       165 -11.1223    132.4762     49.4865   3.6757473896e+01   4.4901266741e+01    0.4258637    0.2680968 -63.42  0.001853153    2.362    0.577
       166  -9.8473     78.8091     50.8765   5.2218521312e+01   5.6025778757e+01    0.1709461    0.1607113 -47.31  0.001055147    1.375    0.273
       167 -11.2555     35.0962     42.2655   6.5836772711e+01   6.3814993567e+01    0.6250253    0.2860697 -15.01  0.002411951    3.805    0.737
       168 -11.3934     51.6890     46.6888   6.0625271861e+01   6.1012741427e+01    0.3970597    0.2073635 -43.86  0.001891479    2.066    0.516
       169 -10.4843     82.8255     47.5560   4.9718911989e+01   5.5787334213e+01    0.2368604     0.178197 -51.82  0.001281528    1.807    0.447
       170 -10.4788     69.0851     48.0425   5.4582214342e+01   5.8140912967e+01    0.1954246    0.1627467   7.72 0.0003522147    1.031    0.030
       171  -9.1448     78.3459     47.2895   5.1105848764e+01   5.6647760564e+01    0.1402079   0.09323841  12.92  0.000294153    1.657    0.397
       172  -9.7514    120.2097     45.8464   3.8516014370e+01   4.8232515179e+01    0.1915955     0.144499  31.48  0.001019236    1.337    0.252
       173 -10.3195    112.3761     45.4424   4.0361553630e+01   5.0038917245e+01    0.2222913     0.197645  10.79 0.0004103602    1.150    0.131
       174  -9.5114    155.0115     52.7523   3.2979813300e+01   3.9047215930e+01    0.1938994    0.1122789  59.54 0.0008818948    1.575    0.365
       175  -9.5083    143.4172     45.5540   3.3237052549e+01   4.2843830638e+01    0.1394492    0.1249432  55.50 0.0001609827    1.031    0.030
       176 -11.5561     44.5571     43.2742   6.2243910965e+01   6.2507471332e+01    0.2686485    0.2240423 -40.90   0.00105823    1.483    0.326
       177 -11.4256     44.8458     38.1240   6.0201035584e+01   6.3255575806e+01    0.2040958    0.1693766  -8.07  0.001367463    1.104    0.094
       178 -10.5042     96.3907     42.3404   4.3711202586e+01   5.3858850022e+01    0.2958879    0.1885648  22.12 0.0009109853    1.765    0.434
       179 -11.0456     72.3065     42.3381   5.1377897143e+01   5.8431915653e+01    0.3033757    0.2654118 -39.14 0.0006445136    1.426    0.299
       180 -10.4673     67.0122     42.0048   5.3124437358e+01   5.9378193545e+01    0.2558003    0.1653297 -29.36 0.0009222706    1.547    0.354
       181 -11.0876     89.2703     41.4326   4.5516228183e+01   5.5410237877e+01    0.2452682    0.2003984  23.50  0.001460048    1.085    0.078
       182  -9.9969    130.5199     40.9737   3.4600400106e+01   4.6496576292e+01    0.1951272    0.1398646 -25.85  0.001029562    1.598    0.374
       183  -9.9093    236.0529     39.7152   1.8486704264e+01   2.2006001060e+01     0.170669    0.1378193 -86.03 0.0003929854    1.087    0.080
       184  -9.7205    148.4501     38.9942   3.0365573352e+01   4.2487130258e+01    0.1846424    0.1052616 -58.36 0.0003447152    2.335    0.572
       185  -9.9339    159.5061     38.2073   2.8161583656e+01   3.9916864412e+01    0.2205755    0.1371717  58.81 0.0004541088    1.411    0.291
       186 -10.8751     83.0578     36.0393   4.5507663683e+01   5.7318570975e+01     0.386373    0.2240923   0.30  0.001761246    2.462    0.594
       187 -10.6291     54.0077     36.9713   5.6094294056e+01   6.2137417020e+01    0.2246493     0.201491 -45.26 0.0008204666    1.604    0.376
       188 -12.0338     57.6343     34.0340   5.3568804132e+01   6.1993146202e+01    0.2784241    0.2185008 -16.33 0.0004951809    1.211    0.174
       189  -9.9684      1.4791     37.0560   7.9279095374e+01   6.7569018765e+01    0.1656172   0.08662193 -45.64  0.001009102    1.531    0.347
       190 -10.1468    248.1190     36.1723   1.6667500959e+01   1.9992595479e+01    0.1682882    0.1449824 -80.27 0.0004342176    1.196    0.164
       191 -10.4824    193.4457     35.3929   2.2387239528e+01   3.2131571495e+01    0.3877372    0.1880841 -60.69  0.001082765    2.444    0.591
       192  -9.8233    128.4839     35.9352   3.3497088913e+01   4.7596126790e+01    0.1816803    0.1368376 -28.96 0.0001434124    1.508    0.337
       193  -9.6495     94.6374     36.2725   4.2101501654e+01   5.5000865562e+01    0.1243696    0.1044139  80.66 0.0003191898    1.658    0.397
       194 -11.9425     75.2280     34.7960   4.7589175994e+01   5.8931670768e+01    0.4418749    0.3025052   3.75 0.0009689588    1.557    0.358
       195  -9.7132    135.3855     35.1596   3.1807711124e+01   4.6072252924e+01    0.1811229    0.1216753 -46.23 0.0009340246    1.721    0.419
       196 -11.5561    111.3090     34.6770   3.7089617143e+01   5.1645527074e+01    0.2643986    0.2166498  56.44 0.0005867901    1.174    0.148
       197 -10.2081      8.9984     34.4980   7.4856067127e+01   6.7502208549e+01    0.1943938    0.1177842 -23.78   0.00125004    1.320    0.243
       198 -11.0379      7.7424     30.7109   7.4114783564e+01   6.8205319258e+01    0.2286912    0.2187627  -7.99  0.001155217    1.577    0.366
       199 -10.2502    177.7204     33.6030   2.4102563584e+01   3.6094547031e+01    0.2740482    0.1644488 -28.01  0.001372706    2.044    0.511
       200  -9.6425    140.1568     33.8464   3.0467356609e+01   4.5098445401e+01     0.178799    0.1389619  43.65            0    1.246    0.198
       201 -10.1438     13.8725     34.1854   7.2442250312e+01   6.7177389843e+01     0.178114    0.1338641 -19.21 0.0006386627    1.026    0.025
       202 -11.0217     18.0771     31.1461   6.9344267593e+01   6.7294164992e+01    0.3258382     0.212021  12.99  0.001596881    1.430    0.301
       203 -10.2517    206.8937     31.6318   1.9902151328e+01   2.9489508136e+01    0.2822531    0.1882705  -1.71  0.001305779    3.255    0.693
       204  -9.9827    122.4710     33.2836   3.3997252491e+01   4.9298224659e+01    0.3051502    0.1275958  46.71  0.001283829    2.108    0.526
       205 -12.5661    105.1346     52.4704   4.4634844383e+01   5.0611095332e+01     0.305033    0.2588287  31.50  0.000278624    1.067    0.063
       206 -10.7076    221.5999     31.7024   1.8325172158e+01   2.6181606042e+01    0.2069963    0.1653464 -72.51 0.0001600421    1.064    0.060
       207 -10.8731     49.4173     29.1589   5.4845415462e+01   6.3875653407e+01    0.3341872    0.1767643 -26.60  0.001230743    1.858    0.462
       208  -9.9630      1.4259     30.9421   7.7267173050e+01   6.8592994429e+01    0.1544227   0.08624437 -43.39 0.0003921601    1.473    0.321
       209 -10.7113    101.4980     28.7157   3.7577519223e+01   5.4460078499e+01    0.3042643    0.2302333 -77.63  0.001144049    2.106    0.525
       210 -11.1631    156.7952     28.2463   2.5919137785e+01   4.1761930502e+01    0.2211539     0.186359  64.51 0.0002685367    1.051    0.048
       211 -10.3215    238.1689     27.9192   1.5986597811e+01   2.3112696550e+01    0.1840954    0.1264587 -70.06 0.0002494727    1.200    0.167
       212 -10.8246    197.7286     28.0293   2.0165472524e+01   3.2046332750e+01     0.229914    0.1598859  76.16 0.0005869025    1.244    0.196
       213 -11.0203     79.4708     28.4785   4.3841534754e+01   5.8919709797e+01    0.3031209    0.2113697  -3.27 -0.0001209681    1.525    0.344
       214 -11.0270    112.3519     27.0263   3.4305480477e+01   5.2283753983e+01    0.3222439    0.2387119  -7.36  0.001564418    1.585    0.369
       215  -9.5485     61.0000     27.9543   4.9932414716e+01   6.2240508454e+01    0.1894656   0.06651266 -32.26 0.0008037039    2.951    0.661
       216 -10.6501    215.3904     25.3567   1.7643557790e+01   2.8350340434e+01    0.3002225    0.1662639  58.53  0.001241403    1.845    0.458
       217 -10.2788     10.9923     24.3496   7.0138364834e+01   6.8933151832e+01    0.1911942    0.1131273 -25.94 0.0006292289    1.337    0.252
       218  -9.5286    160.6613    249.6590   7.6252790305e+01  -2.1524402207e+00    0.1374037   0.09744325   3.62 0.0007050012    1.767    0.434
       219  -9.9778      6.9521     25.2153   7.2469089726e+01   6.9120206309e+01    0.2254409    0.1424783  21.35  0.001054008    1.680    0.405
       220 -10.5192      2.0098     25.7537   7.5134104052e+01   6.9384309196e+01    0.2094594    0.1526951 -23.98 0.0007518116    1.062    0.058
       221 -10.3063      2.4391     22.5188   7.3709300473e+01   6.9853204121e+01    0.1897216    0.1328838  15.74 0.0007418168    1.515    0.340
       222 -10.1542    226.3529     24.2184   1.6341126955e+01   2.6084214565e+01     0.266212    0.1224749 -47.03  0.001370832    1.965    0.491
       223 -10.5796     22.5316     24.1302   6.4494653667e+01   6.7896201941e+01    0.2061807    0.1336931   7.52 0.0005591507    1.334    0.250
       224 -10.1396     54.3898     23.1813   5.0484131025e+01   6.3873403726e+01    0.2030563    0.1336548  43.28 0.0006968247    1.631    0.387
       225 -10.9317     58.8729     21.0311   4.7931598492e+01   6.3404582428e+01     0.215013    0.1494219  28.83 0.0004572559    1.200    0.167
       226 -10.9514     28.2465    245.1612   1.0293138458e+02   1.8744903665e+01    0.3058612    0.1320012 -68.69  0.001604802    2.193    0.544
       227  -9.9543     93.9818     22.2747   3.7310813849e+01   5.6725552475e+01    0.1845526     0.136566  44.10 0.0002926537    1.137    0.121
       228 -10.1617     83.0309     22.0104   4.0321075575e+01   5.8951840794e+01    0.1999667    0.1645733  29.43 0.0009072599    1.012    0.012
       229 -10.4362     16.1712     22.0421   6.6682950728e+01   6.8813545254e+01    0.1824762    0.1188986 -14.16   0.00122456    1.219    0.180
       230  -9.8462    206.9763     20.7560   1.7538057792e+01   3.0788331878e+01    0.1743707    0.1351362  88.64  0.000220737    1.056    0.053
       231  -9.5278    155.7842     21.6159   2.4291786800e+01   4.2729117731e+01    0.1753772      0.11042  75.40 0.0002744134    1.471    0.320
       232  -9.4589     74.6377     21.2431   4.2618163219e+01   6.0627474252e+01    0.1682885    0.1378614  38.07 0.0006052252    1.172    0.147
       233 -10.5805     72.8547    244.8779   9.4191370462e+01   1.2919234214e+01    0.2499061    0.2030057  40.73   0.00156399    1.287    0.223
       234 -12.2841     75.7314    238.0550   9.2879667627e+01   1.3920617427e+01    0.6236513    0.4277614 -59.78  0.003536247    1.609    0.378
       235  -9.9062    195.3763    238.7518   6.7193589952e+01  -5.9643267044e+00    0.1795651    0.1167516 -27.25 0.0008002699    1.637    0.389
       236 -11.0613     65.7683     20.4665   4.5255619052e+01   6.2302589914e+01    0.3617191      0.20506  56.41  0.001135095    2.387    0.581
       237  -9.7911     34.6277     20.7761   5.7590505771e+01   6.6959476931e+01    0.2147167    0.1503781 -55.39 0.0006083876    3.123    0.680
       238 -10.0138    181.4988     19.8507   2.0243424780e+01   3.6793505196e+01    0.1644061    0.1250635 -41.17 0.0005062862    1.470    0.320
       239  -9.9888    161.5221     20.5260   2.3130579502e+01   4.1472574878e+01    0.1320496    0.1105016  72.95 0.0002719357    1.008    0.008
       240 -10.0940     87.1908     20.0733   3.8390788235e+01   5.8329721219e+01    0.1896872    0.1427346  28.68 0.0003424006    1.156    0.135
       241  -9.8679     24.4525     20.4545   6.2072170142e+01   6.8195788342e+01    0.1488918   0.09784044 -37.84 -1.392249e-06    1.686    0.407
       242 -10.8440     28.6130     19.6795   5.9820718837e+01   6.7828813332e+01    0.2993323     0.177638  -1.61  0.001040723    1.614    0.381
       243  -9.5745    134.6913    237.6479   8.0051897724e+01   4.4511651414e+00    0.1366539     0.106265  -3.45  0.000704365    1.717    0.418
       244 -11.3709     18.1349    236.4230   1.0420712327e+02   2.1708916803e+01    0.4496212    0.1595922  55.63  0.002082928    2.481    0.597
       245 -10.9666     41.6437     18.9483   5.3807468371e+01   6.6255317636e+01    0.2468413    0.1672778  25.39 0.0009682868    1.272    0.214
       246 -10.1598    108.3241     17.4481   3.2054565678e+01   5.4141443611e+01    0.2037569    0.1470554  -0.59  0.001185672    1.639    0.390
       247 -10.6566    194.3893     16.7341   1.8007528801e+01   3.4122993052e+01    0.2355616    0.1680662  78.13 0.0008251233    1.169    0.144
       248 -10.7256    165.2778     16.9622   2.1671540922e+01   4.0946989457e+01    0.1748783    0.1512346  71.99  0.000409698    1.073    0.068
       249 -10.5635    103.1440     16.9967   3.3118926759e+01   5.5309960805e+01    0.1847367    0.1545143  43.73 0.0003251631    1.022    0.021
       250 -10.6378    160.0025    235.6851   7.4201790351e+01   4.6936197115e-01    0.2026224    0.1639379  30.48 0.0005105959    1.095    0.087
       251 -11.3508     30.1437    234.0705   1.0175406687e+02   2.0845458326e+01    0.3819108    0.1622682  80.14  0.001659797    2.848    0.649
       252 -10.4589     15.0254     13.7195   6.3734686137e+01   7.0050775465e+01     0.154613    0.1203535  -1.27 0.0003500765    1.180    0.152
       253 -10.3814    233.2611     15.7101   1.4077295612e+01   2.5631557331e+01    0.2117696    0.1275689 -48.43  0.001288991    1.538    0.350
       254  -9.7189    159.2445     15.9041   2.2254448250e+01   4.2489126888e+01    0.1463915    0.1089684 -37.31 0.0008653583    1.550    0.355
       255 -10.5713     50.8413     15.1231   4.8486222362e+01   6.5334660946e+01    0.2197453    0.1698756  16.64  0.001079466    1.030    0.029
       256  -9.9499    185.3089     14.4056   1.8504656887e+01   3.6482607511e+01    0.1710511    0.1031293  82.12 0.0004816343    1.470    0.320
       257  -9.8845    166.6107    232.7672   7.2283381050e+01  -1.2648108174e-01    0.1764415    0.1356867 -56.62  0.000949152    1.591    0.372
       258  -9.7789     24.0158    232.0478   1.0278556007e+02   2.1983501845e+01    0.1642197    0.1344576 -55.53 0.0005340144    1.615    0.381
       259 -10.4781    183.9865    230.0406   6.8073289825e+01  -2.5951486650e+00    0.2488906    0.1395117 -20.29  0.001033193    2.616    0.618
       260  -9.9456     99.4891     12.9969   3.2613719957e+01   5.6456642738e+01    0.1739825    0.1226527 -22.89  0.001041419    1.642    0.391
       261  -9.4377     40.3991     13.1952   5.1842941500e+01   6.7088309046e+01    0.1474619   0.09963147 -31.40 0.0009496534    1.690    0.408
       262  -9.7978    151.5219    228.4959   7.4898689091e+01   3.3189278862e+00    0.1417905    0.1271296  34.93 0.0002581406    1.017    0.017
       263 -10.2045    191.1828    226.6484   6.5946657540e+01  -3.2004068279e+00    0.2296409    0.1918621 -47.22  0.001322021    1.414    0.293
       264 -10.2606      3.5551    226.2143   1.0625760427e+02   2.5379113817e+01    0.2137223    0.0921728 -83.57 0.0007796325    1.969    0.492
       265 -11.2837     15.1176    222.1768   1.0379066255e+02   2.5087995489e+01     0.310262    0.1369537  38.73   0.00137592    2.183    0.542
       266 -10.1165    211.9844    218.5715   6.0159949932e+01  -5.2075133501e+00    0.2152329    0.1689424 -27.73  0.001236079    1.227    0.185
       267  -9.3915    120.5579    219.4768   8.0494701351e+01   1.0653888008e+01    0.1420002    0.1320048  44.67 0.0002450449    1.052    0.050
       268  -9.4837    176.3533    218.7179   6.7709588225e+01   8.1874785631e-01    0.1390331    0.1103881  63.47 0.0007016186    1.658    0.397
       269 -10.3213     50.7019    217.9967   9.6104918896e+01   2.1848559819e+01    0.1917044    0.1554108  87.33  0.001178189    1.078    0.072
       270 -10.6207     29.2971    215.7727   1.0043334563e+02   2.4970205146e+01    0.2185676    0.1777145  26.58  0.001126578    1.612    0.380
       271 -10.9140     24.0945    216.0913   1.0153188493e+02   2.5478768248e+01     0.176902    0.1462957 -80.97 0.0004207651    1.194    0.163
       272 -12.0343     11.4893    209.6472   1.0359129950e+02   2.8239260604e+01    0.4875012    0.2177739  89.16  0.002369517    2.144    0.533
       273 -12.2407      5.6495    209.0192   1.0471894066e+02   2.8939754125e+01    0.4557663     0.205471 -76.97  0.002406846    1.821    0.451
       274 -10.9428      1.9089    206.0585   1.0525772389e+02   2.9945670571e+01    0.2217581     0.155157 -55.88    0.0011893    1.671    0.402
       275 -10.8591    236.9963    208.9836   5.3463748867e+01  -7.4756266795e+00    0.2105879    0.1382406  -9.01 0.0005906557    1.634    0.388
       276 -10.8915    175.3481    202.3878   6.4880839754e+01   4.2288960042e+00    0.2555817     0.240061  34.07 0.0004633489    1.096    0.087
       277 -11.0277     20.0388    200.6789   1.0107938932e+02   2.9436608710e+01    0.4673135    0.1287926 -62.98  0.001881355    2.963    0.663
       278 -10.5872    238.5953    200.7498   5.1576036392e+01  -6.3322513352e+00    0.1784187    0.1157998 -43.86 0.0005491187    1.589    0.371
       279  -9.7703    215.4860    194.0228   5.4688415203e+01  -1.3800877887e+00    0.2122717    0.1300301 -38.44   0.00069397    1.547    0.354
       280 -11.4105     15.5320    193.2246   1.0140373966e+02   3.1626855939e+01    0.2690797    0.2181026  32.33 0.0009793065    1.516    0.340
       281 -10.9174    244.6891    187.9813   4.7959598089e+01  -5.0749770638e+00    0.1931975    0.1546032 -27.73 0.0003956808    1.077    0.072
       282  -9.8762     61.9772    184.6930   8.9486836479e+01   2.8290796279e+01    0.1965839    0.1761509  82.44 0.0009614488    1.029    0.028
       283 -12.3510     19.2474    181.6071   9.9477702254e+01   3.4033105912e+01    0.5142721    0.3519858  -2.15  0.002689156    2.395    0.583
       284 -11.9818     15.5000    181.0085   1.0028679566e+02   3.4528905393e+01    0.4214708    0.2304939  79.65    0.0021403    1.863    0.463
       285 -11.1546    244.1697    178.8950   4.6237137664e+01  -3.4000208841e+00    0.3192994    0.1572448 -33.32  0.001012273    1.881    0.468
