#   1 NUMBER                 Running object number                                     
#   2 MAG_AUTO               Kron-like elliptical aperture magnitude                    [mag]
#   3 X_IMAGE                Object position along x                                    [pixel]
#   4 Y_IMAGE                Object position along y                                    [pixel]
#   5 X_WORLD                Barycenter position along world x axis                     [deg]
#   6 Y_WORLD                Barycenter position along world y axis                     [deg]
#   7 A_WORLD                Profile RMS along major axis (world units)                 [deg]
#   8 B_WORLD                Profile RMS along minor axis (world units)                 [deg]
#   9 THETA_WORLD            Position angle (CCW/world-x)                               [deg]
#  10 FWHM_WORLD             FWHM assuming a gaussian core                              [deg]
#  11 ELONGATION             A_IMAGE/B_IMAGE                                           
#  12 ELLIPTICITY            1 - B_IMAGE/A_IMAGE                                       
         1 -14.7993     67.8390    143.9665   1.1773513729e+02   3.8139254958e+01     5.205227     2.537118  65.02   0.01707423    3.476    0.712
         2 -14.6162    206.6785     19.1828   5.4031469639e+01   3.0841242881e+01     1.350561     1.089024  21.52  0.008341436    1.814    0.449
         3 -14.5524    195.5822     32.5636   5.8302116764e+01   3.1832961833e+01     1.832527     1.306784  30.57  0.008095016    2.068    0.516
         4 -10.5537     32.5257     20.5114   9.6704498867e+01   7.2319787124e+01     0.132771    0.1159864   4.58  0.000810008    1.008    0.008
         5 -10.1606     64.1807      9.1924   7.3745104647e+01   6.7589911736e+01    0.1834268     0.159534  88.48 0.0006516039    1.368    0.269
         6 -11.5482     47.6248      3.6166   7.7218934937e+01   7.1862684602e+01    0.2469044    0.2012185  79.64  0.001438331    1.606    0.377
         7 -10.8674     60.1649      2.8357   7.1471423968e+01   6.9156489163e+01    0.1992741    0.1395058  34.51  0.001091293    1.354    0.261
         8 -11.0090     26.9934     35.4133   1.0798497612e+02   7.0265321823e+01     0.379704    0.1105343  32.33  0.001372008    3.228    0.690
         9 -10.3270    174.1054    249.2210   1.0703689201e+02   2.0783243801e+00    0.2072634    0.1724017  49.83  0.001177797    1.847    0.459
        10 -15.8999    110.1164    247.8125   1.1991113112e+02   1.0358190885e+01     9.408466     2.297407  29.49   0.03453949    3.439    0.709
        11 -14.9011     48.7139    209.2885   1.3069361136e+02   2.5215756725e+01     1.724887     1.251905 -18.42  0.007532243    2.025    0.506
        12 -15.5056     57.9948    199.5073   1.2750184930e+02   2.6223489963e+01     3.812941     2.442209 -88.58   0.02023612    1.784    0.440
        13 -10.6865    144.5119    179.1442   1.0267216573e+02   1.7526805647e+01    0.2964502    0.1760119  19.61  0.001335115    1.930    0.482
        14 -10.1406    197.8776    176.4668   9.1043849749e+01   9.3507831798e+00    0.3030092    0.2017226  57.65  0.001255043    2.538    0.606
        15 -11.3588    129.0047    173.5237   1.0540930399e+02   2.1259102222e+01    0.3461928    0.2185507  32.09  0.001655129    1.463    0.317
        16 -12.5135     90.7819    158.4858   1.1310472343e+02   3.1022381383e+01     1.456324    0.8181295 -71.86  0.001696069    2.295    0.564
        17 -14.1742     25.1508    195.0864   1.3573188740e+02   3.0814481707e+01     1.641708    0.3432498  36.04  0.003895111    2.986    0.665
        18 -12.3586     84.5755    165.4111   1.1602195662e+02   3.0368112474e+01    0.7326951    0.4573063  58.47 0.0007542559    1.812    0.448
        19 -13.6771     72.8472    161.2460   1.1884778169e+02   3.3121470845e+01    0.7312896    0.5672692 -30.19  0.002059868    1.594    0.373
        20 -17.6207      5.8664    239.5824   1.4208558316e+02   2.3437813933e+01     13.36338      2.53176 -80.98   0.01523247    5.455    0.817
        21 -10.5824    196.0063    170.3963   9.0253776139e+01   1.0595488608e+01    0.3168201    0.2517999 -10.85  0.001143598    1.149    0.130
        22 -10.2267    193.4749    164.6176   8.9617345121e+01   1.1929262991e+01     0.302395    0.2466507 -58.02  0.001760049    1.680    0.405
        23  -9.8661    139.6134    167.7989   1.0176873448e+02   2.0582174275e+01    0.2007485    0.1920602 -23.06 0.0005216141    1.116    0.104
        24 -10.7083    137.4878    170.5072   1.0278407934e+02   2.0411088253e+01    0.2513989    0.1313318  36.31 0.0007837144    1.762    0.432
        25 -10.6005    145.9458    168.4778   1.0039047662e+02   1.9339424924e+01    0.2202896    0.1310039  36.29 0.0007816814    1.564    0.361
        26 -10.0940    139.9009    156.6298   9.9537745295e+01   2.2787838619e+01    0.2343884    0.2114694 -59.60 0.0004336062    1.263    0.208
        27 -10.4267    189.0068    154.4792   8.8449547278e+01   1.4353249869e+01    0.2030721    0.1275098  38.17  0.001038148    1.609    0.378
        28 -10.9917    133.6949    144.6795   9.8617589303e+01   2.6441820805e+01     1.032942    0.2628923 -53.45  0.002475806    6.158    0.838
        29 -10.3670    174.5168    148.7762   9.0135561003e+01   1.7913545844e+01    0.2282382     0.211379 -40.27 0.0005873559    1.175    0.149
        30 -12.0443     53.9227    147.2607   1.2276257050e+02   3.9210542079e+01    0.4347338    0.4046662  13.79  0.002480493    1.177    0.150
        31 -10.9564    104.1488    142.1414   1.0615686734e+02   3.2575774722e+01    0.5903381    0.3605974 -25.19  0.002259497    2.572    0.611
        32 -12.3335     91.6448    142.6862   1.0999845463e+02   3.4659827929e+01    0.2913907    0.2695277 -11.00  0.001287475    1.198    0.165
        33 -13.5035     44.6905    129.0073   1.2327632583e+02   4.5083953939e+01    0.7835268    0.5358443  86.74  0.003743045    1.599    0.374
        34 -10.6487    159.6930    128.1663   8.8730615644e+01   2.4619801019e+01    0.4149213     0.182393 -35.69  0.001541439    2.489    0.598
        35 -10.9141    118.1576    126.7877   9.8771829180e+01   3.3418706568e+01    0.6376059    0.2652111 -42.74  0.002211583    2.625    0.619
        36 -10.6253    135.5035    124.0082   9.3469956245e+01   3.0460313705e+01    0.4193793    0.1459513 -40.55  0.001323183    3.174    0.685
        37 -11.0670    100.0450    128.2857   1.0443471966e+02   3.6608517842e+01    0.3123981    0.2632419 -15.12  0.000949181    1.409    0.291
        38  -9.4112    125.6674    127.3287   9.6835206912e+01   3.1777002465e+01    0.1581228    0.1226109  79.92 0.0007051807    1.718    0.418
        39 -10.2100    105.8185    130.6780   1.0322608717e+02   3.4949065262e+01    0.3139144     0.270521  59.82  0.001240256    1.205    0.170
        40  -9.7938    108.7689    120.1837   9.9913387196e+01   3.6810909611e+01    0.2185754    0.2036906  64.86  0.000381077    1.097    0.089
        41 -10.3266    112.7374    131.7102   1.0143825729e+02   3.3375227355e+01    0.3331925    0.2511174   6.46 0.0009133168    1.734    0.423
        42  -9.6921    109.4448    115.0776   9.8454653172e+01   3.7846447751e+01    0.2384058    0.2076271  73.47 0.0004074089    1.267    0.210
        43 -15.0123     10.8924    206.4246   1.3986503802e+02   2.9633682552e+01    0.9623188    0.6745056   8.75  0.004192382    1.769    0.435
        44  -9.9802    167.5870    112.4233   8.3289712243e+01   2.5940657217e+01    0.3197942    0.2257735 -72.27  0.001434027    2.057    0.514
        45 -11.3228    119.4668    110.6283   9.4410239297e+01   3.6740441133e+01    0.4745016    0.3448145  69.67  0.002081934    1.744    0.426
        46 -10.6884    210.6678    181.6720   8.9700309101e+01   6.6782562548e+00    0.2491552    0.1370393 -31.61 0.0009650149    1.687    0.407
        47  -9.9879    205.6152    110.1116   7.5969130973e+01   1.8638102507e+01    0.2306362     0.193491  37.98 0.0005940625    1.310    0.237
        48 -11.6603     40.8178    108.0842   1.2129088509e+02   5.1047255647e+01    0.3201821    0.2391445 -70.20 0.0009865693    1.309    0.236
        49  -9.5486    134.4773    102.9457   8.8356707405e+01   3.5064290265e+01    0.3058472    0.1501138 -47.50  0.001155115    2.117    0.528
        50  -9.0952     67.4863    104.4670   1.1001875515e+02   4.8262610391e+01    0.1507824    0.1479774 -12.36 0.0001707388    1.058    0.055
        51  -9.1814     86.0632     99.1182   1.0184378665e+02   4.6258786970e+01    0.2110414    0.1776072  65.82 0.0004392294    1.295    0.228
        52  -9.1979     24.9361     82.4816   1.2339093797e+02   5.9356425859e+01    0.1893042     0.138177  18.32 0.0003139226    1.445    0.308
        53  -9.1701    156.4701     79.4832   7.6842685237e+01   3.4361830462e+01    0.1471641    0.1417623 -75.73 0.0003306641    1.001    0.001
        54  -9.4662    183.1912     77.5565   7.1590299227e+01   2.8470915041e+01    0.2928461    0.1250551  52.59  0.001175178    2.422    0.587
        55  -9.8794     62.4908     69.0599   1.0196295603e+02   5.7637488196e+01     0.269868    0.2028245  53.01 0.0005724574    1.462    0.316
        56  -9.5919    211.3179    178.6585   8.9041742132e+01   7.0255605394e+00    0.1959457    0.1456906 -36.54  0.001218605    1.409    0.290
        57 -10.8726    157.5194     59.6513   7.0894299023e+01   3.7337974453e+01    0.3608035    0.2470128 -80.93 0.0006595979    1.764    0.433
        58 -10.5768    159.6450     53.4474   6.8690658397e+01   3.7736277741e+01    0.3279606    0.2235608 -71.72 0.0008664132    1.666    0.400
        59 -12.0694     72.2201    181.0907   1.2169431698e+02   2.8512435651e+01    0.4270305    0.2939596 -30.32  0.002076662    1.982    0.495
        60 -12.3429    194.3722    194.3855   9.4894949193e+01   7.1281210280e+00    0.7912323    0.5857884 -58.91  0.004474502    2.269    0.559
        61  -9.4051     94.9524    199.9729   1.1803585004e+02   2.1164434799e+01    0.2227079    0.1404713  55.14 0.0006094311    1.710    0.415
        62 -12.2429     18.7516     33.5509   1.1285245450e+02   7.1568077300e+01    0.3648191     0.248818  25.27  0.002029128    1.475    0.322
        63 -10.2228     80.6917    194.8448   1.2107411251e+02   2.4269775385e+01    0.3603119     0.220369  35.50   0.00181998    1.392    0.282
        64 -12.4808    186.4912     39.3731   6.1030709314e+01   3.3114079296e+01    0.5854949    0.4495132  56.94   0.00102353    1.425    0.298
        65 -11.9865     76.2187    175.5529   1.1986427854e+02   2.9231784671e+01    0.3658465    0.2825732 -30.17 0.0007649999    1.624    0.384
        66  -9.2948    180.3411    192.6787   9.7317197866e+01   9.4490863886e+00    0.1178365    0.1027665  62.53 0.0007050325    1.721    0.419
        67  -9.9946     99.5558    180.6305   1.1417892455e+02   2.4581960185e+01    0.2494864    0.2008312  28.10 0.0006983375    1.157    0.135
        68 -11.0666    207.6563    183.7878   9.0608856745e+01   6.7990918286e+00     0.340171    0.2144866 -36.28  0.001329441    1.564    0.361
