#   1 NUMBER                 Running object number                                     
#   2 MAG_AUTO               Kron-like elliptical aperture magnitude                    [mag]
#   3 X_IMAGE                Object position along x                                    [pixel]
#   4 Y_IMAGE                Object position along y                                    [pixel]
#   5 X_WORLD                Barycenter position along world x axis                     [deg]
#   6 Y_WORLD                Barycenter position along world y axis                     [deg]
#   7 A_WORLD                Profile RMS along major axis (world units)                 [deg]
#   8 B_WORLD                Profile RMS along minor axis (world units)                 [deg]
#   9 THETA_WORLD            Position angle (CCW/world-x)                               [deg]
#  10 FWHM_WORLD             FWHM assuming a gaussian core                              [deg]
#  11 ELONGATION             A_IMAGE/B_IMAGE                                           
#  12 ELLIPTICITY            1 - B_IMAGE/A_IMAGE                                       
         1 -14.6769    165.9737     38.5960   7.7626650703e+01   3.9434777490e+01     1.298901     1.018411  -4.81  0.004255386    1.511    0.338
         2 -13.9225    180.7083      9.1734   6.6182406948e+01   3.9043025933e+01    0.9216282    0.4651266  65.91  0.003796537    1.782    0.439
         3 -13.5297    179.6142      3.4914   6.4596876484e+01   3.9870677679e+01     1.058363    0.3487686  66.31  0.003989435    2.562    0.610
         4  99.0000     16.1845    237.1535   1.4940975124e+02   2.4955616096e+01    0.2466426    0.1776255  27.83  0.001825993    2.222    0.550
         5 -19.6775     70.0398    177.7955   1.3473726477e+02   3.0195767869e+01     16.78198     6.350486 -68.73   0.07225496    2.605    0.616
         6 -11.3881     40.3194    194.5847   1.4254142949e+02   3.0400421014e+01    0.3567887     0.182902  40.52  0.001102985    1.921    0.479
         7 -10.6890    138.2673    198.5932   1.2318344328e+02   1.4974986856e+01    0.4956398    0.2140246  57.76  0.001879483    3.075    0.675
         8 -10.7906    110.1166    223.0801   1.3188937699e+02   1.5245762329e+01    0.1787531    0.1434385  61.65 0.0004009744    1.020    0.019
         9 -11.2230    156.4471    191.1950   1.1832726794e+02   1.3027043521e+01    0.1723251    0.1300767 -68.11 0.0005583558    1.612    0.380
        10 -13.9568    207.2464    180.5641   1.0645763294e+02   5.2319271305e+00    0.7834294    0.7073671   2.14  0.004267876    1.068    0.064
        11  -9.9829     32.4293    188.4095   1.4359862127e+02   3.2552464463e+01    0.1740042    0.1520065 -87.41 0.0004898796    1.297    0.229
        12 -12.7421     28.3881    183.9821   1.4405648149e+02   3.3904468392e+01    0.2678985    0.1965474  53.03 0.0008950719    1.331    0.248
        13 -11.4696    154.1974    185.6928   1.1785588629e+02   1.4455306468e+01    0.2261749    0.1622183  57.74  0.001168703    1.399    0.285
        14 -10.5497    108.7866    182.5877   1.2696585125e+02   2.3223900907e+01    0.1970942    0.1754112 -72.09  0.001213407    1.185    0.156
        15 -10.0996     25.6545    222.8222   1.4712980105e+02   2.6530883858e+01    0.1167612   0.07374178 -60.27 0.0007773257    2.076    0.518
        16 -11.2466    116.5971    180.0516   1.2489512873e+02   2.2413723302e+01     0.469954    0.2424303  68.05   0.00180077    3.060    0.673
        17 -11.8485    196.6866    175.3727   1.0744351040e+02   8.0959694079e+00    0.4023768    0.2882612  76.51  0.001001925    2.286    0.563
        18 -13.0529    196.5073    171.5083   1.0671237595e+02   8.7824880628e+00     0.557451    0.4156811 -48.85  0.001434624    1.519    0.342
        19  -7.6517     16.3207    217.1634   1.4840851350e+02   2.8556545183e+01    0.2166198    0.1773953  65.61  0.001768792    1.306    0.234
        20 -10.4911      7.7853    175.8096   1.4757815419e+02   3.7582896391e+01    0.1482014    0.0917478  65.94 0.0003507383    1.333    0.250
        21 -12.1144    177.5040    170.0061   1.1018046876e+02   1.2818329637e+01    0.3300085    0.2313934 -27.78  0.001639307    1.673    0.402
        22 -13.2137    138.3394    171.2115   1.1868295752e+02   2.0269616493e+01    0.6275793    0.4947593  84.10  0.003350158    1.446    0.308
        23 -11.5727    126.1117    172.2828   1.2155312466e+02   2.2325887130e+01    0.2654099    0.2012572 -68.85  0.001188264    1.393    0.282
        24 -12.2504    112.8923    169.1893   1.2398364868e+02   2.5341598657e+01    0.4699288    0.2811058  57.19  0.002241781    1.691    0.409
        25 -12.6771    144.7615    168.4935   1.1678924795e+02   1.9587638884e+01    0.4723319    0.3392647  82.76  0.002271574    1.844    0.458
        26 -11.0291     34.9434    168.3972   1.4135858461e+02   3.6554444487e+01    0.2319442    0.1374366  74.65  0.000925537    1.536    0.349
        27 -10.2331     20.4117    218.5367   1.4778461029e+02   2.7880730808e+01    0.1117483   0.07213873  71.73 0.0001731613    1.111    0.100
        28  -9.5071    115.5053    211.4204   1.2947823386e+02   1.6480768160e+01     0.129612    0.1018544  62.32 0.0001719005    1.092    0.084
        29 -11.2220    223.8453    163.8711   1.0006514421e+02   4.7150225698e+00      0.22698    0.1929183 -41.46 0.0004429055    1.300    0.231
        30 -11.1055    130.5372    161.6661   1.1868090561e+02   2.3727009885e+01    0.2446118    0.1607137  63.72 0.0007012374    1.704    0.413
        31 -12.2294    110.1517    208.5770   1.3017722520e+02   1.7873277009e+01    0.3516883    0.2681498  42.09  0.001209505    1.296    0.228
        32 -11.7820    164.3835    156.9551   1.1028069507e+02   1.7954110090e+01    0.2802771     0.213331  37.75 0.0008432768    1.311    0.237
        33 -10.4489     16.2677    156.4623   1.4437584602e+02   4.0998843160e+01    0.1707743    0.1184175  23.40 0.0008524514    2.008    0.502
        34 -13.9114    134.1005    145.7772   1.1474149193e+02   2.6435799743e+01     1.301028    0.3871588 -55.82  0.003621176    4.534    0.779
        35 -13.8478    144.6699    146.0230   1.1234679360e+02   2.4247113929e+01    0.8097092    0.5049429 -62.44  0.003533617    1.894    0.472
        36 -10.6732    150.8443    250.2444   1.2763602107e+02   4.5172224358e+00    0.1646684    0.1215562  50.39 0.0003770031    1.111    0.100
        37 -13.2083     28.4799    139.6215   1.3987460894e+02   4.3671432220e+01    0.3482738    0.2559074 -77.62  0.001534926    1.103    0.093
        38 -13.7932    136.0181    127.3878   1.1022201337e+02   3.0043431237e+01      1.75086    0.2905489 -50.31  0.003564143    7.621    0.869
        39 -10.1469    139.7365    249.5665   1.2948932300e+02   6.3503970011e+00    0.1798738     0.127546  77.35  0.001160825    1.742    0.426
        40 -11.4227    158.5649    204.5251   1.2005313651e+02   1.0302351269e+01    0.3351121    0.1893668  58.45  0.001593113    2.034    0.508
        41 -12.9098    163.3284    203.3531   1.1893892516e+02   9.6451504175e+00    0.4563722    0.2611737 -53.56  0.001219546    2.103    0.524
        42 -11.6856    160.7093    198.3285   1.1864748247e+02   1.0979108245e+01     0.227992    0.1885695 -85.51 0.0007692317    1.492    0.330
        43 -12.2774      2.4617    126.0471   1.4492187734e+02   4.8844957605e+01    0.3033928    0.1443603 -68.11  0.001632527    1.611    0.379
        44 -12.9628     18.9069    128.4477   1.4100914020e+02   4.7079640368e+01    0.4205532    0.2314286 -43.12  0.002261843    2.318    0.569
        45 -11.9762    161.1701    127.4403   1.0437632186e+02   2.4590297107e+01    0.3794373    0.2753477 -45.46  0.001783852    1.382    0.277
        46 -12.6743      4.1649    120.0562   1.4390689167e+02   5.0079350023e+01     0.349863    0.2651235  25.04  0.002468214    1.744    0.426
        47 -11.1364    151.7889    150.1653   1.1161496599e+02   2.1919295705e+01    0.2200741    0.1950427  81.96 0.0004209518    1.199    0.166
        48 -11.9087    169.7310    115.4735   9.9510163754e+01   2.5064012140e+01    0.5631794    0.3577005 -72.21  0.002105811    2.595    0.615
        49 -11.5023    174.2145    149.2524   1.0655595889e+02   1.7397646823e+01    0.3705626    0.1980208  44.49  0.001184769    1.822    0.451
        50 -11.9216    169.0108    202.5659   1.1770734682e+02   8.7506264953e+00    0.2155227    0.1836729 -79.95 0.0001587432    1.469    0.319
        51 -12.4373      3.8926    112.4355   1.4317754994e+02   5.1816850013e+01     0.345063    0.2220793 -25.79  0.002115467    2.272    0.560
        52 -11.7604     24.0085    231.0067   1.4784909064e+02   2.5219355209e+01    0.2874855     0.133355  55.43  0.001637276    1.600    0.375
        53 -11.4163    156.2864    198.2673   1.1951570025e+02   1.1795749530e+01    0.2512709    0.1601387 -75.60  0.001161775    2.544    0.607
        54 -14.0718    174.1928    194.1270   1.1528741999e+02   9.2147035500e+00    0.6513978    0.4572294  50.79   0.00356354    1.361    0.265
        55 -10.8127    205.6496    110.1231   9.0974212687e+01   1.7704280653e+01    0.2849955    0.2202766  43.82 0.0006794776    1.345    0.256
        56 -11.7462     18.6801    108.8213   1.3862202722e+02   5.1607515356e+01    0.1822553    0.1616348 -29.50   0.00104556    1.431    0.301
        57 -13.2222    167.4484    190.9796   1.1607930368e+02   1.1013719636e+01    0.4580029    0.3750077  45.50  0.001738696    1.100    0.091
        58 -12.8966    180.4231    192.7511   1.1383186633e+02   8.2867504316e+00    0.3765527    0.2915399 -70.94  0.001295561    1.786    0.440
        59 -13.1702    176.6109    188.2134   1.1377542654e+02   9.7690669495e+00    0.4872213     0.316637 -61.35  0.002383086    2.110    0.526
        60 -10.7307    219.9828    226.2708   1.1222640074e+02  -3.4064601843e+00    0.1898285    0.1464354 -42.96 0.0009628175    1.708    0.415
        61 -10.2004    145.3229     80.2928   9.5234132624e+01   3.7759714234e+01    0.1560644    0.1227559  14.39 0.0004256657    1.614    0.380
        62 -10.5799     13.5159     59.9187   1.3159761171e+02   6.2904487419e+01    0.1651486    0.1380329 -51.05 0.0004352737    1.085    0.079
        63 -14.2805    154.3361     54.0210   8.4890026997e+01   4.0149473535e+01     1.174202    0.8274783  44.47  0.001038521    1.452    0.311
        64 -10.4332     13.2986    244.8840   1.5019634298e+02   2.3923873960e+01    0.2306024   0.09302512 -68.66  0.001439083    2.607    0.616
        65 -12.6589    169.9291     31.0744   7.4540564423e+01   3.9391165787e+01    0.3904895     0.345844  10.59 0.0008457884    1.280    0.218
        66 -10.8714    140.2642     32.3116   8.0407661527e+01   4.6824646233e+01    0.3702014    0.2174708  80.46  0.001503887    2.357    0.576
        67 -10.2974     28.5970    239.2225   1.4753311117e+02   2.3270983606e+01    0.1243113   0.08109477 -77.56  0.000830311    1.561    0.359
