#   1 NUMBER                 Running object number                                     
#   2 MAG_AUTO               Kron-like elliptical aperture magnitude                    [mag]
#   3 X_IMAGE                Object position along x                                    [pixel]
#   4 Y_IMAGE                Object position along y                                    [pixel]
#   5 X_WORLD                Barycenter position along world x axis                     [deg]
#   6 Y_WORLD                Barycenter position along world y axis                     [deg]
#   7 A_WORLD                Profile RMS along major axis (world units)                 [deg]
#   8 B_WORLD                Profile RMS along minor axis (world units)                 [deg]
#   9 THETA_WORLD            Position angle (CCW/world-x)                               [deg]
#  10 FWHM_WORLD             FWHM assuming a gaussian core                              [deg]
#  11 ELONGATION             A_IMAGE/B_IMAGE                                           
#  12 ELLIPTICITY            1 - B_IMAGE/A_IMAGE                                       
         1 -15.3231     22.0929    133.1295   1.2173572749e+02   4.4842744748e+01     4.282456      3.43448  37.44   0.02968811    1.521    0.342
         2 -12.1653    176.1067     48.5389   5.9523336704e+01   3.4860389801e+01     1.263274     1.025083  59.84  0.004128183    1.226    0.184
         3 -11.7144    194.5024     28.4320   5.0483939034e+01   3.2732645236e+01    0.8443793    0.7576491 -13.15  0.002900771    1.205    0.170
         4 -12.0150    186.8688     37.4786   5.4302385361e+01   3.3582274448e+01     1.316555    0.9635586 -34.04  0.006229851    1.361    0.265
         5  -8.8878    212.1344      7.8599   4.2652198566e+01   3.0505811210e+01    0.2135008    0.1626589 -63.02 0.0006009283    1.267    0.211
         6  -7.5798    170.6617      6.7246   4.7065316007e+01   4.1204186907e+01    0.1466397   0.09375832  41.68 0.0002213814    1.611    0.379
         7  -7.2859    137.7466      5.9932   5.1879081499e+01   4.9658116411e+01     0.160453     0.118316 -14.25 0.0003088285    1.443    0.307
         8  -9.3079      5.5087      4.4799   9.6958752839e+01   7.3026425255e+01    0.1569576   0.08915266  -2.18 0.0009902399    1.855    0.461
         9  -9.8051    213.9574      2.6173   4.1095428513e+01   3.0568217604e+01     0.470203    0.2366452  84.55  0.002134696    2.048    0.512
        10 -11.6778     40.8020    201.7064   1.2428739106e+02   2.8227869052e+01    0.2727474    0.1350951 -63.88  0.001587019    2.003    0.501
        11 -12.9001    245.0470    235.3863   9.0902154250e+01  -8.5457469624e+00     2.553169     1.084353 -25.71   0.01351326    2.573    0.611
        12  -9.7963    238.1384    212.5545   8.8161725214e+01  -4.9066617793e+00    0.2288358    0.1823937  18.99 0.0003629898    1.071    0.066
        13 -13.2900    121.3631    228.9172   1.1202760817e+02   1.2128746392e+01     5.351638     3.257479  39.12   0.01726661    1.495    0.331
        14 -11.2712     57.9194    199.5605   1.2087515209e+02   2.6621272537e+01    0.1740173    0.1351934 -89.81 0.0004165925    1.125    0.111
        15 -14.1996     74.4950    246.8156   1.2193597985e+02   1.5933736243e+01    0.5394399    0.4509055 -66.76  0.004275074    1.560    0.359
        16  99.0000     20.6886    196.7426   1.2760708548e+02   3.1326033684e+01    0.2151572    0.1260759 -66.27 0.0002563815    1.705    0.414
        17 -11.1523     24.1908    197.6081   1.2703050516e+02   3.0807315522e+01    0.1640931    0.1391004  61.88 0.0002704703    1.303    0.232
        18 -11.9150     26.6198    194.8614   1.2639267254e+02   3.1106603297e+01    0.4535244    0.1803109  78.61  0.002029188    2.933    0.659
        19  -8.9226     90.0856    196.9226   1.1424782232e+02   2.2756374199e+01    0.1766908    0.1527166  72.28 0.0003035262    1.039    0.038
        20 -10.3944    237.0340    194.9793   8.5098669555e+01  -2.4941441223e+00    0.4158837    0.2420979  55.16  0.001973828    2.640    0.621
        21  -9.8047    249.7667    192.7784   8.2482725738e+01  -4.3138071101e+00    0.2594863      0.19714 -39.81  0.001572096    1.703    0.413
        22  -8.7804     57.8589    193.7442   1.2033156621e+02   2.7798039397e+01    0.1200878   0.09507326  82.42 0.0003147696    1.040    0.038
        23 -10.3686     12.0340    191.4347   1.2883287438e+02   3.3196851414e+01    0.2033163    0.1058796  80.69 0.0009045085    1.586    0.369
        24  -9.9639     15.8494    192.6811   1.2821905027e+02   3.2595715391e+01    0.1068531   0.05886635 -74.24 0.0003393563    1.557    0.358
        25 -11.1498     36.5355    189.4413   1.2410065050e+02   3.1160070118e+01    0.1843466    0.1434429  61.04 0.0001841593    1.201    0.167
        26 -13.6496      4.7222    202.6718   1.3075823671e+02   3.1665815140e+01    0.8774131    0.3814192 -73.02  0.005467256    1.957    0.489
        27 -11.9770     14.7320    185.3716   1.2794238443e+02   3.4168528998e+01    0.2473552    0.1352263  56.03   0.00159788    1.605    0.377
        28  -8.0645     96.4856    194.1097   1.1259752892e+02   2.2351881031e+01     0.180052    0.1194636 -65.65 0.0007259048    1.546    0.353
        29 -10.7923     46.5310    185.4391   1.2178224001e+02   3.0867525577e+01    0.1818012    0.1487198  73.97 8.953518e-05    1.084    0.078
        30 -10.4976     43.6363    183.4459   1.2217551628e+02   3.1614008886e+01    0.1738102    0.1405385  78.71 6.561357e-05    1.051    0.049
        31 -10.3116     10.0781    185.9583   1.2884628204e+02   3.4469258486e+01    0.1359344   0.09787196  80.36  0.001004994    1.024    0.023
        32  -7.9651    225.0295    185.4877   8.5388799552e+01   9.0034880959e-01    0.1969049    0.1183137  37.23 0.0004413413    1.533    0.348
        33 -10.2766     32.6235    183.1930   1.2434179757e+02   3.2863841972e+01     0.167965    0.1630349  79.78 0.0007490169    1.432    0.302
        34  -9.6211      1.1927    182.8224   1.3028960506e+02   3.5857448273e+01    0.1120589   0.06147238  88.43 0.0002490058    1.386    0.278
        35 -10.2419      9.8127    181.8514   1.2863131261e+02   3.5325046792e+01     0.185639   0.09805688 -76.06 0.0009157923    1.535    0.348
        36 -15.0409     65.4245    229.8815   1.2213355595e+02   1.9977649156e+01    0.9943769    0.5901389 -77.72  0.006519418    1.677    0.404
        37 -10.5870    146.2296    179.6795   9.9923421727e+01   1.6707620651e+01    0.4599173    0.4130496 -70.24  0.002451287    1.216    0.178
        38  -7.6397    225.6584    179.7255   8.4120983224e+01   1.6260284617e+00    0.1397885   0.09285931  13.26 0.0006998491    1.616    0.381
        39  -8.0294     79.7008    177.8753   1.1403040888e+02   2.8190640456e+01     0.283006    0.2520714  43.34  0.001841339    1.286    0.222
        40  -9.5249     83.2570    172.8611   1.1258408909e+02   2.8752898396e+01    0.3352183    0.2608303 -32.43  0.001253339    1.848    0.459
        41  -7.5753    194.2433    176.3988   8.9406730035e+01   8.0686601220e+00    0.1905513    0.1265769  50.64 0.0009306809    1.595    0.373
        42 -16.0169     17.2067    217.9537   1.2948623300e+02   2.7631234108e+01     1.539273    0.3241284  47.56  0.007518412    3.164    0.684
        43  -9.6249    175.4223    172.3681   9.2405210437e+01   1.2454112828e+01    0.3009288    0.2833723 -48.82 0.0008730663    1.181    0.153
        44 -16.2405     53.1745    246.9920   1.2540010384e+02   1.8587387278e+01     0.989204    0.4222709  43.45   0.00602777    1.941    0.485
        45  -7.7539    195.7361    169.7779   8.7761717276e+01   8.8929409712e+00    0.1764158    0.1667721  75.61 0.0004107589    1.312    0.238
        46  -9.6090    111.7698    168.8737   1.0560934514e+02   2.5089975643e+01    0.5333037     0.292899  64.77  0.002220224    2.501    0.600
        47  -8.0528     37.1982    170.6726   1.2228293235e+02   3.5034009096e+01    0.1167608   0.07122812  83.13 0.0002724093    1.489    0.329
        48  -9.1687     21.8021    169.8937   1.2539998193e+02   3.6735531549e+01    0.1519271    0.1170106 -83.55 0.0002656306    1.113    0.102
        49  -8.7678      7.1527    170.0679   1.2834918492e+02   3.7985005721e+01    0.1174367   0.08706204  88.92 0.0003369699    1.038    0.037
        50 -18.5236     26.4652    240.0067   1.2918551688e+02   2.2785742296e+01     2.842532     1.937588  54.22   0.02271001    1.278    0.218
        51  -7.6807    139.5175    169.4805   9.9528923736e+01   1.9972158365e+01    0.1406966    0.1317582  59.26 -2.10462e-05    1.020    0.020
        52  -8.0648     62.7345    166.5049   1.1629369351e+02   3.2959723194e+01    0.1321933    0.1240877  36.78 0.0002145459    1.351    0.260
        53  -8.7688     90.1679    163.5798   1.0967181282e+02   2.9743841115e+01    0.2876463    0.2008804 -41.71   0.00150778    1.767    0.434
        54  -8.8824     68.3543    238.7557   1.2233426139e+02   1.8068554331e+01    0.1060839   0.06987034  58.91 0.0001722367    1.162    0.140
        55  -8.0716    126.9160    147.7997   9.8190457354e+01   2.6907201241e+01    0.1983535    0.1908425   2.18 0.0002950439    1.152    0.132
        56  -8.8297    107.7180    140.7410   1.0142098187e+02   3.1982709603e+01    0.4315181    0.2566838 -33.69  0.001808666    2.324    0.570
        57 -12.4059     68.0025    144.2139   1.1192666436e+02   3.7312217122e+01     1.112597    0.6521683  66.03  0.004360751    2.068    0.516
        58  -7.2071    100.3229    140.2760   1.0317235394e+02   3.3356799193e+01    0.1352177     0.112753 -16.50 0.0006985387    1.581    0.367
        59  -9.0614    104.7795    133.2099   1.0061465555e+02   3.4207733610e+01    0.2345537    0.2115778 -64.97 0.0002739049    1.050    0.048
        60  -7.6164    213.9797    159.9937   8.2136616125e+01   6.9112161448e+00    0.1679443    0.1489053  15.32 0.0003231284    1.038    0.037
        61  -7.8143     67.8627    160.5112   1.1434928353e+02   3.3622640884e+01    0.1795622    0.1231376  42.02  0.001011913    1.529    0.346
        62  -8.7147    125.2525    127.5630   9.4165476671e+01   3.1679902629e+01    0.3682074     0.252178 -74.79 0.0007269141    1.987    0.497
        63  -7.9020    120.4438    128.2589   9.5538572334e+01   3.2458679624e+01    0.1968897    0.1408971 -62.00 0.0003511279    1.480    0.324
        64  -9.0000     94.7991    157.8363   1.0767621151e+02   3.0293766810e+01    0.2458013    0.2358641 -65.50 0.0007630922    1.157    0.135
        65  -9.5553     97.3813    153.4564   1.0632087418e+02   3.0858358550e+01    0.4297198    0.2812282 -66.07  0.001611613    1.520    0.342
        66  -7.8311    168.4246    114.1781   8.0481820785e+01   2.5198015669e+01    0.2184991    0.1452394 -50.27 0.0004207476    1.616    0.381
        67  -7.4974    162.2316    111.9802   8.1293554494e+01   2.7059120642e+01    0.1978085    0.1290458 -39.89   0.00021046    1.507    0.336
        68  -9.3256    106.1796    154.1537   1.0434954606e+02   2.9241913742e+01    0.2452696    0.2310124  67.66 0.0007626594    1.062    0.058
        69  -8.4644    158.0838    110.0942   8.1741771768e+01   2.8388842266e+01    0.2240722    0.2157964 -22.80  0.000302092    1.015    0.014
        70  -8.1716    136.2005    153.5014   9.7179887367e+01   2.3905501762e+01     0.282468    0.1921295  88.97  0.001031141    2.324    0.570
        71  -7.5608    179.3094    107.7269   7.6388621072e+01   2.3913615427e+01    0.2027053    0.1488059 -25.72 0.0002448471    1.414    0.293
        72  -7.8096    180.9936    104.9176   7.5271141189e+01   2.4047021581e+01    0.2367536    0.1840851   7.79 0.0004043146    1.555    0.357
        73  -8.4984    196.7616    106.8975   7.2616686503e+01   1.9953175436e+01     0.261574    0.2450277  17.88 0.0006215994    1.072    0.067
        74  -7.7997    120.4056    107.2728   9.0366477607e+01   3.7130543282e+01    0.1564813    0.1198786   3.28 0.0006976706    1.762    0.433
        75  -7.9415    215.5567    105.6947   6.8802695821e+01   1.5797514492e+01    0.2188773    0.1340675 -42.78 0.0009482412    1.618    0.382
        76  -7.9453    134.5953    105.8152   8.6287818563e+01   3.4500473729e+01     0.226751    0.1434904 -53.14 0.0009495965    1.682    0.405
        77  -8.5633     87.3700    153.8311   1.0877371432e+02   3.2347460908e+01    0.3437573    0.1971656  73.09  0.001458061    2.518    0.603
        78  -8.1210    123.0745     96.3496   8.6651018136e+01   3.8949418257e+01    0.2105636    0.1914581  46.43 0.0004591722    1.156    0.135
        79  -7.5954    112.5416     88.5146   8.7259606987e+01   4.2752415253e+01    0.1523243    0.1417974 -28.03 0.0001753432    1.026    0.026
        80  -8.5752    157.8966     83.3183   7.4113749024e+01   3.3673899228e+01    0.3218747    0.2340581 -74.12  0.001348553    1.978    0.494
        81  -8.3858    109.7642     83.9099   8.6663643733e+01   4.4268913485e+01    0.2200228    0.1891818 -23.49 0.0003094039    1.158    0.136
        82  -7.8641     80.7542     78.0201   9.3642350691e+01   5.0691794618e+01     0.364968    0.2012899 -28.19 0.0007980763    2.332    0.571
        83  -8.2459    132.6450    149.0719   9.7099821330e+01   2.5535765476e+01    0.2150552    0.1960882  79.79  0.001181397    1.134    0.118
        84  -9.2544    117.2446     66.9828   7.9108549385e+01   4.6087126883e+01     0.249325    0.2181862  39.97 0.0002131532    1.184    0.155
        85  -9.2941     92.4498    231.5345   1.1753806219e+02   1.6022001580e+01    0.2991838    0.2263019 -66.80  0.002092761    1.505    0.336
        86  -8.5315     86.2799    230.7872   1.1856218019e+02   1.7022008324e+01    0.1429333    0.1144181  70.46 0.0003115228    1.066    0.062
        87 -12.5372     46.8683    198.2050   1.2286342802e+02   2.8226040120e+01    0.5454575    0.2784987  42.86  0.002062543    1.846    0.458
        88  -8.1878     40.0085     26.0640   9.0078669899e+01   6.6260408879e+01    0.1836278    0.1446111 -22.95 0.0003063958    1.031    0.030
        89  -8.2450    133.5578    145.0494   9.6040811771e+01   2.6222461313e+01    0.3739326    0.1410044 -53.13  0.001018261    2.904    0.656
        90 -10.7015     74.4145    220.8193   1.1976609699e+02   2.0419657674e+01    0.1947155    0.1695611  26.15 0.0006340069    1.637    0.389
        91 -11.8559     68.5823    213.7957   1.2018761871e+02   2.2496221029e+01    0.1864103    0.1464178  67.74 0.0003060718    1.027    0.026
        92 -11.8289     60.4283    209.2894   1.2128839235e+02   2.4404664580e+01    0.1903407    0.1840163 -60.91 0.0009513168    1.504    0.335
        93 -11.6975     17.7608    201.4239   1.2843005360e+02   3.0695494538e+01    0.2651454    0.1119051  63.67  0.001496138    2.091    0.522
