#   1 NUMBER                 Running object number                                     
#   2 MAG_AUTO               Kron-like elliptical aperture magnitude                    [mag]
#   3 X_IMAGE                Object position along x                                    [pixel]
#   4 Y_IMAGE                Object position along y                                    [pixel]
#   5 X_WORLD                Barycenter position along world x axis                     [deg]
#   6 Y_WORLD                Barycenter position along world y axis                     [deg]
#   7 A_WORLD                Profile RMS along major axis (world units)                 [deg]
#   8 B_WORLD                Profile RMS along minor axis (world units)                 [deg]
#   9 THETA_WORLD            Position angle (CCW/world-x)                               [deg]
#  10 FWHM_WORLD             FWHM assuming a gaussian core                              [deg]
#  11 ELONGATION             A_IMAGE/B_IMAGE                                           
#  12 ELLIPTICITY            1 - B_IMAGE/A_IMAGE                                       
         1  -8.6393     55.5938     10.0766   7.0957906382e+01   6.6656906108e+01    0.1968946    0.1705154  45.97 0.0006068937    1.540    0.350
         2  -7.8650     47.5668      9.7915   7.4147707827e+01   6.7934627205e+01    0.1613128    0.1035256 -35.77 0.0009412473    1.693    0.409
         3  -8.3148     27.8110      9.8798   8.3449110971e+01   7.0511014913e+01    0.1477242    0.1220011 -25.25 0.0004539806    1.316    0.240
         4  -8.0996     90.9641      9.0205   5.8562394523e+01   6.0159666969e+01    0.1903486    0.1573878 -61.51 0.0007164241    1.721    0.419
         5  -7.6418    101.4791      8.4159   5.5534728212e+01   5.7954210389e+01    0.1293489    0.1163611  37.66 0.0001136137    1.079    0.074
         6  -8.3850      6.0110      8.4857   9.4574207604e+01   7.2746738622e+01    0.1466248   0.09717963  11.26 0.0006207351    1.545    0.353
         7  -8.8298     33.3783      5.0288   7.8179727595e+01   7.0496067887e+01     0.265659    0.1821266 -48.42  0.001556854    2.369    0.578
         8  -7.8112    124.6684      4.2915   4.8862905139e+01   5.2975845773e+01    0.1295406   0.09965099 -71.31 0.0002927851    1.630    0.386
         9  -8.3316     79.1100      4.0769   5.9790701868e+01   6.3046309642e+01    0.1768703    0.1488745 -46.80 0.0008076306    1.613    0.380
        10  -7.6772     44.6908      3.3526   7.2071201073e+01   6.9132096482e+01    0.1047836   0.09338038 -41.31 0.0005837267    1.720    0.418
        11  -8.3678     62.2018      1.5930   6.4192683103e+01   6.6456528542e+01    0.1656887    0.1410207  43.24 0.0004204515    1.365    0.267
        12  -8.0641     15.6741      2.7077   8.6204169101e+01   7.2798821014e+01    0.1173803   0.06756712 -11.44 0.0004549396    1.619    0.382
        13  -7.6023     39.4456      1.5197   7.3433401763e+01   7.0104459098e+01    0.1183082   0.09268317   0.33 0.0002952963    1.051    0.049
        14  -8.5439     67.5992    245.2773   1.1894190134e+02   1.5625659134e+01    0.1949179    0.1010835 -78.51  0.001130167    2.096    0.523
        15  -8.1914    191.5189    249.6907   9.6395569613e+01  -3.3810028194e+00    0.2032093    0.1235608  48.76 0.0007689889    1.832    0.454
        16  -7.8951    183.5060    250.4869   9.7980836320e+01  -2.2789838499e+00    0.1211445   0.09435262  25.67 0.0008100884    1.046    0.044
        17  -9.1545    109.9570    250.0522   1.1163796052e+02   8.9491078948e+00    0.1998087    0.1403889  40.16   0.00129894    1.235    0.190
        18  -8.2939    113.2895    248.8255   1.1089273592e+02   8.6615253799e+00     0.197226     0.105376 -71.22  0.001051656    2.546    0.607
        19  -8.7932     93.6478    249.0692   1.1454443658e+02   1.1450531992e+01    0.3209387    0.1811623  80.47  0.001667291    2.350    0.575
        20  -8.6378      9.6542    244.4620   1.2875127494e+02   2.2360150646e+01    0.1984719   0.06471504  83.95 0.0009490636    3.296    0.697
        21  -9.2839    248.5733    242.4545   8.5167805461e+01  -1.0611102928e+01    0.2700233     0.184371 -30.90  0.001196743    1.682    0.405
        22  -9.0781    248.0155    234.6178   8.3966809465e+01  -9.6384125137e+00      0.31394    0.1747655 -36.26  0.001858661    2.064    0.516
        23  -9.3095    246.4079    229.0413   8.3297501245e+01  -8.7553667238e+00    0.3284283    0.1801405 -32.78  0.001360467    1.889    0.471
        24  -8.3857    202.0039    243.5124   9.3562721360e+01  -4.1441696598e+00    0.1902147    0.1650076 -47.46 0.0008105297    1.634    0.388
        25  -8.6651    169.0079    243.4404   9.9708719041e+01   9.4242909254e-01    0.1904333    0.1709098  86.52 0.0006989097    1.525    0.344
        26  -8.7378    139.3405    243.9017   1.0541524476e+02   5.5089476493e+00    0.2060519    0.1154932 -64.75  0.001079412    2.555    0.609
        27  -9.6158     77.8444    242.5813   1.1686153833e+02   1.4752871819e+01    0.3352971     0.205231 -82.20  0.002076675    1.773    0.436
        28  -7.3517     34.3066    244.6442   1.2470346422e+02   1.9746927044e+01    0.1181766   0.05750695  65.61 0.0007041511    1.721    0.419
        29  -8.5532    213.0473    242.7306   9.1433403113e+01  -5.6835984979e+00    0.1784357    0.1275687  23.64 0.0008525421    1.114    0.102
        30  -8.2486    194.8611    243.1862   9.4828805958e+01  -3.0210143757e+00    0.1907994    0.1364183  19.46  0.000453876    1.236    0.191
        31  -8.4546    194.0171    239.5265   9.4435267872e+01  -2.3939784071e+00    0.1732957    0.1683137  14.89 0.0005523424    1.335    0.251
        32  -9.5862    160.2494    240.5804   1.0098351624e+02   2.7469384367e+00    0.3159358    0.2187345 -75.82  0.001385549    2.477    0.596
        33  -9.1466    183.1056    240.3394   9.6602528084e+01  -8.1458239474e-01    0.3445676    0.2482629  68.30  0.001738921    2.376    0.579
        34  -8.2074    153.3953    242.1723   1.0250914139e+02   3.5833448249e+00    0.1481312    0.1178781 -72.76 0.0006586146    1.716    0.417
        35  -8.9212    242.3188    237.0227   8.5343299822e+01  -9.1468223987e+00    0.3148462    0.1421026  -5.34  0.001098417    5.354    0.813
        36  -8.3753    146.0682    239.9760   1.0362929380e+02   5.0809623115e+00    0.1883426    0.1315913  61.38 0.0005586525    1.645    0.392
        37  -9.1763    135.7960    239.1119   1.0550336935e+02   6.8342230297e+00    0.2542329    0.1408758  49.95  0.001086915    1.641    0.390
        38  -8.5507    129.0504    239.0046   1.0679463654e+02   7.9028059280e+00    0.2026716    0.1296382  63.00  0.001129752    1.782    0.439
        39  -8.9831    231.0006    237.1939   8.7343936656e+01  -7.5893239585e+00    0.2179764    0.1925494 -66.55  0.001160943    2.190    0.543
        40  -7.6164    209.2637    238.6335   9.1480812559e+01  -4.5941966198e+00    0.1025709    0.0951694  62.98 0.0003200512    1.649    0.393
        41  -8.4891     25.7055    237.1171   1.2573864920e+02   2.2050577235e+01    0.2004853   0.06913221  64.70 0.0009579437    2.852    0.649
        42  -9.9238    214.9558    233.3112   8.9590051121e+01  -4.7489443449e+00    0.4598341    0.3571637 -88.87  0.002359488    3.472    0.712
        43  -8.9068    203.2723    234.8918   9.1995050151e+01  -3.1840300492e+00    0.2439955    0.1998616 -67.68  0.001082417    2.129    0.530
        44  -9.7101    175.6030    233.2372   9.6981988953e+01   1.4133577345e+00    0.4290077    0.2583415 -58.75  0.002214204    2.581    0.613
        45  -8.1991    170.1784    236.1240   9.8450669968e+01   1.8458525494e+00    0.1570096    0.1382934  59.05 0.0005328404    1.351    0.260
        46  -9.3868    109.1735    234.6864   1.1014919426e+02   1.1686705306e+01    0.4768716    0.1978542  52.80  0.001342673    2.399    0.583
        47  -7.8252     58.0117    237.0000   1.2003348950e+02   1.8340381679e+01    0.1797354   0.05505354  37.45 0.0007977223    2.910    0.656
        48  -8.7905     99.8061    234.6923   1.1196580119e+02   1.3076541630e+01    0.2259692    0.1361372  76.23  0.001001377    2.068    0.517
        49  -9.1533     78.7071    234.2744   1.1596276861e+02   1.6140665187e+01    0.2957819    0.1692031  75.89  0.001096994    1.955    0.489
        50  -9.0578      8.1294    234.8948   1.2857578272e+02   2.4236441564e+01    0.1317199    0.1074139  89.43  0.001079643    1.322    0.244
        51  -8.3919    122.8684    234.1367   1.0741102926e+02   9.6892941900e+00    0.1983418    0.1434183  62.01 0.0006940145    1.389    0.280
        52  -9.4598     68.3187    232.5300   1.1776745864e+02   1.7853888696e+01     0.423391    0.1755749  65.22  0.001857284    3.066    0.674
        53  -8.4072    194.3085    232.9146   9.3362060753e+01  -1.5150928949e+00    0.1649327    0.1436132   7.61 0.0004428699    1.117    0.105
        54  -9.3760    186.6259    230.9872   9.4521637858e+01  -1.8113987444e-02    0.3359361    0.2564549 -84.26  0.001274503    2.578    0.612
        55  -8.2871    145.0206    233.4946   1.0297968919e+02   6.2971788027e+00    0.2787148    0.1484542  59.97  0.001258321    2.672    0.626
        56  -8.4692    140.1961    230.1314   1.0348198637e+02   7.6343944550e+00    0.2753539    0.1622047  58.46  0.001132247    1.981    0.495
        57  -8.4927    132.7727    232.9156   1.0531342037e+02   8.3460532979e+00    0.1942885    0.1347004  77.40  0.001071734    1.964    0.491
        58  -8.1907     88.2411    242.3736   1.1492087404e+02   1.3363895909e+01     0.189429    0.1195832  78.42 0.0006947067    1.739    0.425
        59  -8.6696     92.1626    231.5979   1.1312405400e+02   1.4749262067e+01    0.2577268    0.1567858  73.16  0.001051896    1.851    0.460
        60  -8.7301    236.0202    230.8575   8.5409265343e+01  -7.5215635020e+00     0.191499    0.1474985 -14.80 0.0004538537    1.252    0.201
        61  -8.8439      1.7268    230.9293   1.2945692877e+02   2.5569527042e+01    0.1968145   0.09741773  75.50 0.0007060506    1.577    0.366
        62  -8.7694    206.1148    226.0314   9.0031817357e+01  -2.3959473989e+00    0.2666681    0.1669347 -51.74 0.0008203713    2.413    0.586
        63 -10.0512    149.7849    226.3293   1.0104714930e+02   6.7190529509e+00    0.5708487    0.3525437 -85.31  0.002390668    3.792    0.736
        64  -9.0594    221.7233    228.5388   8.7571178636e+01  -5.1348035126e+00     0.352689    0.1930086  13.83  0.001772887    2.152    0.535
        65  -8.7411    162.3256    228.1999   9.8826370252e+01   4.3540001650e+00    0.2980446    0.1543264  50.13  0.001309086    2.019    0.505
        66  -8.7643    127.7605    227.3231   1.0559325229e+02   1.0112886901e+01    0.2328455    0.1732607  71.84 0.0008270418    1.544    0.352
        67  -8.2081    120.0338    227.9669   1.0721974740e+02   1.1217948303e+01    0.2043557    0.1342665  65.98  0.001014494    1.721    0.419
        68  -8.8875      8.0000    227.9676   1.2827743997e+02   2.5537714734e+01    0.1639084   0.04877953 -79.23 0.0006779399    2.928    0.658
        69  -8.2701     49.3794    227.0903   1.2086934195e+02   2.1266223665e+01    0.2291619    0.1035818  64.60  0.001177883    2.180    0.541
        70  -8.1874    200.1154    226.1722   9.1184936822e+01  -1.4683397342e+00    0.1567443    0.1429538  39.07 0.0004806682    1.320    0.242
        71  -8.8261    180.5730    224.4068   9.4661058277e+01   1.9572982822e+00    0.2297454    0.1858512  48.39 0.0006074662    1.331    0.249
        72  -8.9212    104.7016    223.6923   1.0978122199e+02   1.4367697541e+01    0.3211814    0.2024104  84.91   0.00126806    2.068    0.516
        73  -8.9166     94.2484    224.4342   1.1195830823e+02   1.5785874182e+01    0.3370952    0.1822135  66.51  0.001661815    2.195    0.544
        74  -8.3675     38.3842    225.1292   1.2275716606e+02   2.2926326615e+01    0.1601939   0.08514699  84.98 0.0008760545    1.772    0.436
        75  -8.8293    216.3997    223.5327   8.7700564351e+01  -3.6494757019e+00    0.2145662    0.2138301 -35.52 0.0009122259    1.503    0.335
        76  -9.1179    173.1190    223.4991   9.5982931608e+01   3.3295578376e+00    0.2374151    0.1958821  82.86 0.0008125193    1.794    0.442
        77  -8.5261    113.9569    224.2967   1.0798859940e+02   1.2833407582e+01    0.1815007    0.1461133  50.89 0.0005352068    1.054    0.052
        78  -8.1780     59.9345    223.9661   1.1862913492e+02   2.0570207657e+01    0.2038269    0.1092673  65.38  0.001124551    1.773    0.436
        79  -9.4270    192.4740    221.3116   9.1847897055e+01   4.8075521716e-01    0.3142499    0.2571351 -68.03  0.001063662    1.911    0.477
        80  -9.0816    158.7415    220.3444   9.8368574660e+01   6.2445595955e+00    0.2597721    0.1999224  74.73  0.001056363    1.803    0.445
        81  -8.2725    140.4910    222.9729   1.0244418863e+02   8.8211682585e+00    0.1700283    0.1294515 -60.10   0.00100765    1.555    0.357
        82  -8.9233    238.9086    221.3838   8.3275014442e+01  -6.7380537764e+00    0.2271697    0.1551165 -34.97 0.0005877772    1.654    0.395
        83  -9.2612    225.5921    221.7478   8.5714298132e+01  -4.8118213374e+00     0.235048    0.2051367  40.86  0.001055487    1.490    0.329
        84  -8.5099     73.8389    221.6994   1.1572408916e+02   1.9191523104e+01    0.2492041    0.1320569  76.06  0.001234609    2.287    0.563
        85  -8.2303    202.6577    220.4629   8.9754164436e+01  -1.0449642230e+00      0.21929    0.1535814 -37.59 0.0007102162    1.604    0.377
        86  -9.1450    120.1142    219.1514   1.0608579065e+02   1.2817698222e+01    0.4106013    0.2241385  65.99   0.00158668    2.656    0.624
        87  -8.6857     82.6264    220.5959   1.1387089413e+02   1.8194020639e+01    0.3175008    0.1776112  71.06  0.001474943    2.052    0.513
        88  -8.2152     27.5211    221.0545   1.2447273632e+02   2.4909379036e+01    0.1644692   0.09206103 -80.37  0.001031325    1.592    0.372
        89  -8.1437      5.6754    220.3433   1.2831126607e+02   2.7208868718e+01    0.1186603   0.05499369  65.80 0.0007050738    1.735    0.424
        90  -8.2069    210.1385    219.1505   8.8117395599e+01  -2.0511966349e+00    0.1867929    0.1480471   7.01 0.0005044199    1.124    0.110
        91  -8.4735    249.1748    218.3118   8.0951870776e+01  -7.8152664379e+00    0.2457584    0.1378649  50.96  0.001190055    3.113    0.679
        92  -9.3755    132.9440    216.2737   1.0304945301e+02   1.1267269299e+01    0.4699529    0.2851087  78.29  0.002023084    3.041    0.671
        93  -8.4848     62.2166    217.4873   1.1762095167e+02   2.1557199043e+01    0.3427726    0.1350045  58.39  0.001521484    2.680    0.627
        94  -8.8270     51.5035    217.2107   1.1968918579e+02   2.2949739353e+01    0.2639906    0.1637366  87.70 0.0008792338    1.506    0.336
        95  -7.6619    179.2850    217.6552   9.3830484490e+01   3.2372576699e+00     0.121017    0.1016342  71.08 0.0007018332    1.645    0.392
        96  -8.8446    169.3283    216.2667   9.5597070097e+01   5.1450331859e+00    0.2610524     0.216988  89.02 0.0008252966    1.728    0.421
        97  -8.7957    142.9644    216.6608   1.0103610826e+02   9.5309516501e+00    0.2564066    0.2046939  79.36   0.00125126    1.559    0.359
        98  -8.4516    111.8247    217.2246   1.0754458566e+02   1.4493584649e+01     0.218121    0.1186864  69.07 0.0009382344    2.755    0.637
        99  -8.1138     55.9807    217.2063   1.1881850519e+02   2.2400977906e+01    0.1525016    0.1237479  62.40            0    1.091    0.084
       100  -8.2848     18.6245    216.7969   1.2582957044e+02   2.6660834054e+01    0.1552099   0.08087482  85.44  0.000720899    1.644    0.392
       101  -8.6168    154.4877    215.4874   9.8491953359e+01   7.7968108258e+00    0.2186728    0.1687179  71.35 0.0006110909    1.680    0.405
       102  -8.6491    232.2925    214.8304   8.3290425605e+01  -4.8905556163e+00    0.2002937    0.1848512 -37.71 0.0007353646    1.548    0.354
       103  -8.5047    185.5437    214.3250   9.2038936113e+01   2.7182576057e+00    0.2003893    0.1867003 -66.06 0.0005517479    1.422    0.297
       104  -8.7666     93.2614    213.9859   1.1098641371e+02   1.7959698778e+01    0.3358442    0.1562669  58.46  0.001488396    2.424    0.587
       105  -9.4458     73.3432    212.2885   1.1489231035e+02   2.1134003976e+01    0.6067456    0.2254736  60.51  0.002212376    3.889    0.743
       106  -9.5043    213.9149    212.0968   8.6176146348e+01  -1.6311579595e+00    0.3063352    0.2640009  52.61  0.001432691    1.566    0.361
       107  -8.3529    106.6470    213.0934   1.0809737025e+02   1.6101865828e+01    0.2018225    0.1464851  80.44  0.001142506    1.536    0.349
       108  -8.8751    161.6187    212.5965   9.6576977229e+01   7.0846658929e+00    0.2312122    0.1998255 -86.90 0.0007498008    1.511    0.338
       109  -8.9710    204.2639    211.0922   8.7830654862e+01   9.4106569729e-02    0.2332434    0.2135427 -57.70 0.0005471034    1.525    0.344
       110  -9.3302    175.3112    210.0551   9.3369016030e+01   5.1641120949e+00    0.3733978    0.2639374  68.58   0.00153885    2.243    0.554
       111  -9.9664      6.6381    208.9494   1.2756518249e+02   2.9362201620e+01    0.5905496    0.1737945  84.15  0.002252063    4.460    0.776
       112  -8.8184    147.9791    210.5209   9.9072242094e+01   9.7918882969e+00    0.2774787      0.20084  69.42  0.001149243    1.798    0.444
       113  -9.0140    116.3465    210.5135   1.0572383490e+02   1.5070082352e+01    0.3345832    0.2022855  67.34  0.001134065    2.103    0.525
       114  -8.4687     32.7315    211.1076   1.2283474309e+02   2.6337548280e+01    0.2155818   0.08165443  65.53 0.0009551002    2.918    0.657
       115  -8.3290     85.5254    209.5878   1.1208839305e+02   1.9975811713e+01    0.2946282    0.1557853  70.10  0.001245262    2.435    0.589
       116  -9.1013    236.3992    208.3523   8.1384369785e+01  -4.6278566526e+00    0.2905047    0.2148067 -42.56  0.001181056    1.743    0.426
       117  -9.9565    241.7497    202.1043   7.9279613348e+01  -4.5787101720e+00    0.4667181    0.2720844  10.46 0.0008271251    1.959    0.489
       118  -9.2196    237.0099    198.6239   7.9461050754e+01  -3.3551156332e+00    0.2833369    0.1702365 -39.04 0.0009627199    1.800    0.445
       119  -8.5490    126.6462    208.7062   1.0329263597e+02   1.3735548288e+01    0.2398572    0.1560271 -87.22  0.000825738    2.315    0.568
       120  -8.0613     46.3434    209.6610   1.2007633621e+02   2.5098040564e+01    0.1319041    0.0701131  66.35  0.000704894    1.774    0.436
       121  -9.2243    246.2991    207.5007   7.9490013447e+01  -5.9960681249e+00    0.2154628    0.1811957 -25.41 0.0006374338    1.363    0.266
       122  -8.1310    156.4837    208.0310   9.6905187093e+01   8.7769096343e+00    0.1836926    0.1349735 -51.86 0.0006224514    1.561    0.359
       123  -8.3629    139.2476    208.1103   1.0053629908e+02   1.1728651477e+01    0.2515802    0.1568535  61.49 0.0007944846    1.979    0.495
       124  -9.1727     99.4367    206.3194   1.0876184110e+02   1.8569462399e+01    0.3389726     0.213228  76.81  0.001312209    1.964    0.491
       125  -8.7047     56.5485    205.6185   1.1766967917e+02   2.4700820585e+01    0.3128415    0.1449985  61.23  0.001345683    2.218    0.549
       126  -8.5999    131.4404    204.3451   1.0162882628e+02   1.3775053838e+01    0.2961232    0.1850563  71.26  0.001008007    2.379    0.580
       127  -8.1061    109.1707    205.2372   1.0653882052e+02   1.7266156191e+01    0.1868839    0.1410213  73.23 0.0006154868    1.399    0.285
       128  -9.4297    250.1329    202.1976   7.7844079288e+01  -5.8490569977e+00    0.3643405    0.1614434 -33.22  0.001269134    2.129    0.530
       129  -9.4936    194.9768    203.2968   8.8249779517e+01   2.8888284970e+00    0.3878938    0.2710438 -28.53  0.001254414    1.505    0.336
       130  -9.2448    192.3613    197.4022   8.7695045727e+01   4.3187626599e+00    0.3226008    0.2320586 -53.66  0.001054329    1.799    0.444
       131  -8.8465    183.6881    203.8232   9.0600473132e+01   4.7606814851e+00    0.2690901    0.2178358  58.88  0.001028167    1.534    0.348
       132  -9.7044    163.6837    202.9833   9.4567928413e+01   8.4247588341e+00    0.3803574    0.3000222  68.64 0.0009365102    1.633    0.388
       133  -8.7135    211.1109    202.1391   8.4902498819e+01   3.2869538285e-01    0.2726398    0.2025818 -69.42   0.00102294    2.649    0.622
       134  -8.2759     48.3025    202.4796   1.1906812942e+02   2.6362811587e+01    0.2987029    0.1020752 -78.44  0.001193756    3.352    0.702
       135  -8.9307    140.5150    201.1538   9.9184635529e+01   1.2834542107e+01    0.3787885    0.2538529 -89.80  0.001258876    2.471    0.595
       136  -8.6741     80.0338    201.5091   1.1232386231e+02   2.2435702610e+01    0.2904926     0.159024  70.37   0.00136398    2.213    0.548
       137  -8.1630    192.2705    210.4606   9.0051316981e+01   2.1986430184e+00    0.1962538    0.1633795 -66.90 0.0005902447    1.775    0.437
       138  -7.9852    221.8303    201.5900   8.2782017030e+01  -1.3598940583e+00     0.168716    0.1159337  44.11 0.0003492793    1.615    0.381
       139  -9.4373    149.5047    198.6217   9.6839275720e+01   1.1741767058e+01    0.3928626     0.277616  87.09  0.001315494    2.273    0.560
       140  -8.9158    124.0378    199.4351   1.0249149094e+02   1.5997211983e+01    0.3181236    0.2180678  74.03  0.001279373    1.872    0.466
       141  -9.5187    112.8591    198.6399   1.0482138028e+02   1.8014638710e+01    0.4529575    0.2650311  70.33  0.001491217    2.441    0.590
       142  -9.0655     88.7717    198.6895   1.1009891546e+02   2.1763938050e+01    0.3447182    0.2060172  78.44  0.001443948    2.105    0.525
       143  -8.4278    177.0101    199.0205   9.1111079684e+01   6.7642269245e+00    0.2019216    0.1884564  29.00  0.000449563    1.091    0.083
       144  -8.3189    202.1669    197.8876   8.5842326097e+01   2.5250024514e+00    0.1886819    0.1825518  61.30 0.0005915389    1.355    0.262
       145  -9.1936     61.3918    196.7012   1.1578059178e+02   2.5981239114e+01    0.4495685    0.2305093  84.08  0.001928811    2.406    0.584
       146  -9.0713     13.0679    197.8797   1.2572577394e+02   3.1040193033e+01    0.2692105    0.1085962  64.74  0.001360156    2.351    0.575
       147  -9.6720    245.7439    193.9735   7.7037004813e+01  -4.0505015310e+00    0.3628017    0.2551039 -56.68  0.001872008    2.625    0.619
       148  -8.7381    215.9013    195.5217   8.2749727810e+01   5.5041784636e-01    0.2303054    0.1799223 -47.86 0.0008287937    1.630    0.387
       149  -8.2551    133.1678    196.1609   9.9985500902e+01   1.5091192818e+01     0.187463    0.1542217  73.75 0.0004368543    1.352    0.260
       150  -8.6898    224.2434    193.9033   8.0877329272e+01  -5.9720339602e-01    0.2747993    0.1699881 -46.79  0.001177492    2.048    0.512
       151  -7.6813    209.2902    195.6533   8.4038063684e+01   1.6560419968e+00    0.1206997     0.109751 -85.45 0.0004267681    1.660    0.398
       152  -8.9302    185.2793    194.8970   8.8664949482e+01   6.0058214578e+00    0.2393848    0.2204742  55.32 0.0007562304    1.281    0.219
       153  -9.2417    161.1142    194.4685   9.3639742933e+01   1.0447084972e+01     0.309527    0.2247655  70.41  0.001010618    1.952    0.488
       154  -9.1497     44.1447    193.6351   1.1913443344e+02   2.8739755561e+01    0.3975204    0.1765202  64.56   0.00182827    2.494    0.599
       155  -8.3223    231.0198    194.2834   7.9708388973e+01  -1.7663269352e+00    0.1841064    0.1531023   7.02 0.0006135261    1.032    0.031
       156  -8.8977     77.0027    193.8761   1.1208449600e+02   2.4495454599e+01    0.2547406    0.1845636  81.11 0.0007192268    1.354    0.262
       157  -8.2676     29.4153    197.2532   1.2246374162e+02   2.9570975983e+01    0.1660612    0.0912788  87.93 0.0009399225    1.630    0.387
       158  -7.9359    205.2281    191.9281   8.4116128575e+01   2.9638822711e+00     0.168097    0.1086803 -37.04 0.0005045648    1.594    0.372
       159  -8.3446    198.9492    191.7915   8.5326948119e+01   4.0948107706e+00    0.2190988     0.174692 -51.54 0.0006257603    1.566    0.361
       160  -8.5072    179.0014    191.5180   8.9332177542e+01   7.7368148973e+00     0.239974    0.1970423 -62.75 0.0006399965    1.569    0.363
       161  -8.6287    172.2827    191.8473   9.0799019010e+01   8.9023038537e+00    0.2441822    0.2131467  89.81   0.00096672    1.516    0.340
       162  -9.2871    139.5597    190.6869   9.7677558404e+01   1.5063060151e+01    0.3867341    0.2712552  87.81  0.001227014    2.150    0.535
       163  -8.5816      6.7651    191.3594   1.2654695946e+02   3.2971088200e+01    0.2645614   0.08242014  72.68 0.0009698385    4.441    0.775
       164 -10.4931     92.4094    188.8526   1.0800421999e+02   2.3331044761e+01    0.9775749    0.2847186  49.64  0.003181091    3.905    0.744
       165  -8.3422     21.0520    191.2983   1.2370640497e+02   3.1680480588e+01    0.2253983   0.08086041  69.08 0.0008994979    3.530    0.717
       166  -8.4716    237.1714    189.0159   7.7579420301e+01  -1.9794007589e+00    0.2804444    0.1523883 -38.35  0.001247292    1.869    0.465
       167  -8.7784    216.5533    188.1637   8.1203854329e+01   1.6017298445e+00    0.3239824    0.1874353 -34.94  0.001046028    1.715    0.417
       168  -8.5669    148.5298    189.2615   9.5452077944e+01   1.3732064140e+01    0.2407659     0.140632 -55.16 0.0006905553    1.951    0.487
       169  -8.9889    129.3196    188.7794   9.9644022015e+01   1.7263107943e+01    0.3086584    0.2181409  77.60 0.0009365967    1.884    0.469
       170  -9.4398    156.0899    187.7313   9.3522903159e+01   1.2650243951e+01     0.368648    0.2405351 -60.99 0.0009029394    1.931    0.482
       171  -9.8025    120.9255    186.7956   1.0121788582e+02   1.9134973667e+01    0.5358322    0.2963099 -75.73  0.002121819    2.902    0.655
       172  -8.9763     34.2427    188.0836   1.2072752656e+02   3.1042879166e+01    0.3615623    0.1627361  82.69  0.001519084    2.540    0.606
       173  -8.9423    191.1829    187.4224   8.6049381818e+01   6.2413389183e+00    0.2881241    0.2198754 -58.86  0.001158065    1.752    0.429
       174  -9.2217     54.6661    186.8451   1.1620587918e+02   2.8982916360e+01    0.3951014    0.2065125  76.71  0.001405061    2.250    0.555
       175  -8.1067    230.2219    187.2593   7.8484887679e+01  -5.7542637899e-01    0.1630414    0.1586639 -32.00  0.001051243    1.390    0.281
       176  -8.8085    164.8777    186.7151   9.1430437380e+01   1.1223050954e+01    0.2588065    0.2061489 -59.95 0.0007195367    1.495    0.331
       177  -9.2807    109.5682    185.9618   1.0367715367e+02   2.1228815401e+01    0.4049841    0.2492862  77.22  0.001167991    2.377    0.579
       178  -8.6398    249.2008    185.5107   7.4792195470e+01  -3.3770773787e+00    0.1930818    0.1612758 -34.60 0.0005979532    1.394    0.282
       179  -9.0441    210.3039    184.4103   8.1661230255e+01   3.3076889178e+00    0.2359369    0.2191815 -11.62 0.0005379702    1.148    0.129
       180  -8.8759    202.6709    184.6829   8.3209137130e+01   4.6288611472e+00    0.2508848    0.2098445 -55.45 0.0007661298    1.542    0.351
       181  -8.9123    182.9174    184.9356   8.7269781191e+01   8.2043777740e+00    0.2364822     0.194171 -47.33 0.0006359848    1.365    0.267
       182  -9.0030    174.4159    183.8781   8.8853950103e+01   9.9823217671e+00    0.3052031    0.2385195 -79.45 0.0009518531    1.920    0.479
       183  -9.4233     65.4919    184.7504   1.1356366128e+02   2.8074108264e+01    0.4058596    0.2087426  42.58  0.001576618    1.840    0.457
       184  -8.2933    224.1068    183.8124   7.8924878885e+01   9.9371793274e-01     0.185178    0.1756907  -1.61 0.0004237748    1.230    0.187
       185  -8.8510    241.3654    181.7091   7.5391008584e+01  -1.5687220552e+00    0.3598459    0.2224679 -59.94  0.001441746    3.953    0.747
       186  -9.0226     44.3957    182.4489   1.1801628446e+02   3.1177106635e+01    0.3396738    0.1813888  72.83  0.001193525    2.002    0.501
       187  -7.9890      1.7728    183.6363   1.2706544270e+02   3.5027704824e+01    0.1522202   0.08200706  48.70 0.0008625615    1.721    0.419
       188  -9.3084    147.5741    180.7517   9.4137915302e+01   1.5614539039e+01    0.3514234    0.2663642  89.09  0.001049518    1.845    0.458
       189  -7.7955     83.3380    182.6576   1.0923162736e+02   2.6059555424e+01    0.1460168   0.09258798  70.49  0.000704972    1.769    0.435
       190  -9.8025     25.6106    179.1855   1.2181069278e+02   3.3887097538e+01     0.621691    0.2361941  78.35   0.00234469    3.860    0.741
       191  -7.7375    235.2900    181.6583   7.6455777579e+01  -5.6089510487e-01    0.1196488    0.1058392 -58.56 0.0005235556    1.649    0.394
       192  -8.7962    137.4362    179.3658   9.6184003156e+01   1.7770025785e+01    0.2950417    0.2211956  74.93 0.0008376663    1.695    0.410
       193  -9.2732    191.6151    178.5219   8.4208528471e+01   7.7407602684e+00    0.3087663    0.2484657  63.11  0.000675599    1.623    0.384
       194  -8.1054    169.4670    178.5488   8.8884727687e+01   1.1927467063e+01    0.2293781    0.1389956 -56.26 0.0009274661    2.061    0.515
       195  -9.0186     35.8200    176.6506   1.1934912085e+02   3.3421544705e+01    0.4650381    0.1922958  77.90  0.001776595    3.591    0.722
       196  -8.8182    244.4558    169.5016   7.2368540380e+01  -2.2145885287e-01     0.273371    0.2143811 -85.75  0.001218951    2.683    0.627
       197  -8.4930    250.5065    172.8818   7.2035484619e+01  -1.7286900355e+00    0.1868085    0.1682441 -14.69  0.000584358    1.200    0.167
       198  -9.0938    248.8896    177.2158   7.3188913318e+01  -2.1140608583e+00    0.2530392    0.2056675 -34.33 0.0006528176    1.336    0.252
       199  -8.8349    247.3071    173.7079   7.2745731196e+01  -1.3334258774e+00    0.2204466    0.1809187 -32.23 0.0004919131    1.278    0.217
       200  -8.5271    217.8710    177.4043   7.8800672614e+01   3.1194518245e+00    0.2420569    0.1868242 -48.74 0.0008471577    1.583    0.368
       201  -8.8714    205.0237    177.4910   8.1302632427e+01   5.4315487938e+00    0.2520939    0.1905897 -49.41 0.0007113249    1.573    0.364
       202  -8.6849    129.1924    177.4705   9.7744967712e+01   1.9667536151e+01    0.3053219    0.2105567  80.54  0.001105358    2.080    0.519
       203  -8.0585     97.4323    177.7554   1.0523880070e+02   2.5006805764e+01    0.1854646    0.1251137 -49.97 0.0006731749    1.592    0.372
       204  -8.4860    230.9681    177.1326   7.6318016892e+01   8.7297453739e-01    0.1899185    0.1769811 -33.43 0.0005408381    1.312    0.238
       205  -9.5668    183.3434    175.2470   8.5265432153e+01   9.9067109551e+00    0.5495968    0.2421008 -37.36  0.001558684    2.423    0.587
       206  -9.3024    158.9401    175.2477   9.0552699811e+01   1.4585276522e+01    0.4527014    0.2979624  73.90  0.001497805    2.681    0.627
       207  -8.8762     89.0480    176.7743   1.0707058270e+02   2.6532600508e+01    0.2789062    0.2005144  83.83  0.000824502    1.513    0.339
       208 -10.1141     57.2511    173.2946   1.1409577074e+02   3.1732489718e+01    0.8248357    0.3662184  81.07  0.002752525    4.412    0.773
       209  -9.1980     12.8828    176.2532   1.2429589107e+02   3.5706868554e+01    0.3565578    0.1452149  83.24  0.001642571    2.585    0.613
       210  -9.5372    104.1672    174.7841   1.0317722611e+02   2.4584738871e+01    0.4939652     0.301037  70.60  0.001594219    2.230    0.552
       211 -10.6138     76.0438    169.5810   1.0913899403e+02   3.0097963009e+01      1.38336    0.5012938 -70.16  0.004867454    3.351    0.702
       212  -9.4061     81.8325    155.1112   1.0547881633e+02   3.2670512395e+01    0.4821441     0.293133  67.44  0.001548838    2.072    0.517
       213  -7.6023    241.3381    174.2979   7.3895079566e+01  -4.3886711096e-01     0.138329   0.09219963   3.55 0.0002619273    1.658    0.397
       214  -8.1876    224.3793    174.2297   7.6929779931e+01   2.4849661593e+00    0.1879736    0.1208468 -42.77 0.0007036332    1.676    0.403
       215  -9.2510    175.7658    172.3823   8.6296227652e+01   1.1907631794e+01    0.3105897    0.2448629 -44.46 0.0008207838    1.335    0.251
       216  -8.5174    142.9153    172.5522   9.3666091739e+01   1.8185049122e+01     0.278911    0.1956442 -73.53 0.0008852692    1.916    0.478
       217  -8.5742    134.8038    171.5896   9.5368885845e+01   1.9905943338e+01    0.3197969    0.2006759 -73.67 0.0009880296    2.337    0.572
       218  -9.4681    121.3915    170.6274   9.8361749889e+01   2.2556443286e+01    0.3780544    0.2709945 -87.19   0.00114503    1.814    0.449
       219  -9.2176     44.9185    170.9624   1.1669995902e+02   3.3729840271e+01    0.3691724     0.195773  79.61  0.001382785    2.152    0.535
       220  -8.2299    205.8674    170.5537   7.9704825691e+01   6.4814124290e+00     0.261686    0.1794923 -52.79 0.0008260469    1.839    0.456
       221  -8.0989    237.4666    169.9529   7.3677629413e+01   8.9145352987e-01    0.1989905    0.1202987 -33.20 0.0005319379    1.528    0.345
       222  -8.7952    230.3345    170.0383   7.4969464449e+01   2.1154787047e+00    0.1998576    0.1529984 -23.38 0.0007716407    1.191    0.160
       223  -8.3507    198.5728    170.2895   8.1104944613e+01   7.9071710312e+00    0.2016491    0.1725258 -75.81 0.0006623115    1.651    0.394
       224  -9.1702    167.2334    168.7153   8.7408591652e+01   1.4288165482e+01    0.3449081    0.2526728  71.72 0.0009099355    1.966    0.491
       225  -8.4662    149.8215    169.7444   9.1535247459e+01   1.7460209266e+01    0.2578948    0.1912353 -83.47 0.0006891801    1.935    0.483
       226  -8.5083     88.7197    168.8723   1.0595912390e+02   2.8393678151e+01    0.2635065    0.1795986 -87.02  0.001085683    1.661    0.398
       227  -8.3190    218.8569    168.2181   7.6708462906e+01   4.4748273367e+00    0.1978161    0.1841134 -31.04 0.0005900746    1.212    0.175
       228  -7.9518    211.4073    168.2426   7.8136896102e+01   5.8475550525e+00    0.1934319    0.1285832 -45.63 0.0006207544    1.655    0.396
       229  -8.5642    111.6708    167.4457   1.0013530489e+02   2.4975614393e+01    0.3707411    0.2347541  79.41  0.001200749    2.409    0.585
       230  -8.9791     12.7694    167.5823   1.2365886726e+02   3.7650383773e+01    0.2163322    0.1157038  77.11  0.001195597    1.738    0.425
       231  -8.8145    191.9487    166.6201   8.1685680293e+01   9.8526638567e+00    0.2696406    0.2040042 -46.96 0.0005991882    1.437    0.304
       232  -8.7705    185.0528    166.7736   8.3156767046e+01   1.1170420611e+01    0.2763519    0.2386225 -67.23 0.0008109396    1.458    0.314
       233  -9.2491     20.5136    166.2696   1.2182452270e+02   3.7275457008e+01    0.3263334    0.1451004  63.13  0.001186546    2.419    0.587
       234  -8.6528    140.6529    166.3145   9.2987864505e+01   1.9941925928e+01    0.3235917    0.1900266  57.91   0.00131359    2.104    0.525
       235  -9.6839    135.6758    164.0489   9.3719949706e+01   2.1378414071e+01    0.3939494    0.2793882  65.19 0.0009957722    1.720    0.418
       236 -10.0210     94.9717    162.4074   1.0337524923e+02   2.8917667726e+01    0.9170284    0.5373773 -89.55  0.003539704    2.654    0.623
       237  -8.0989    233.8725    165.0863   7.3294643617e+01   2.2926551762e+00    0.1983547    0.1746953 -39.06 0.0006244629    1.297    0.229
       238  -8.7847    159.6486    164.3777   8.8213054455e+01   1.6658553318e+01    0.2970956    0.2371396  87.11 0.0009041172    1.712    0.416
       239  -9.6652     33.8279    163.6856   1.1851090230e+02   3.6600040823e+01    0.5400825    0.2016347  53.41  0.002258379    2.939    0.660
       240  -8.4433     56.9819    163.9887   1.1300405711e+02   3.3934207788e+01    0.3417715    0.1842245  14.53  0.001409741    3.411    0.707
       241  -9.1139    246.0187    162.9900   7.0743862799e+01   5.2438189428e-01    0.2286642    0.1721912 -28.06  0.000527362    1.189    0.159
       242  -8.6648    245.2478    158.9821   7.0027302406e+01   1.2842732177e+00    0.1938515    0.1528887 -23.34 0.0004284196    1.109    0.098
       243  -9.8241    250.1712    157.8072   6.8955826066e+01   6.2736076936e-01    0.3488193    0.1846282 -35.28 0.0007778429    1.685    0.406
       244  -8.6331    246.5856    155.5167   6.9063986915e+01   1.6004349565e+00    0.2403646    0.1510393 -22.12 0.0006378175    1.512    0.339
       245  -8.3399    204.8557    163.0565   7.8314277853e+01   8.0029977222e+00    0.2060204    0.1926412 -55.46 0.0004562394    1.287    0.223
       246  -9.5532      3.4583    162.4772   1.2531814630e+02   3.9535402701e+01    0.3671111    0.1606876  55.18  0.001714973    2.231    0.552
       247  -9.2070    151.5456    161.0619   8.9384118534e+01   1.8950370017e+01    0.3440309    0.2545246 -81.57 0.0009873501    1.943    0.485
       248  -8.9576    177.3931    160.7270   8.3507386608e+01   1.3857850136e+01    0.2820888    0.2375029 -89.37 0.0008020981    1.606    0.377
       249  -8.7283     60.6081    160.4907   1.1164995305e+02   3.4307546214e+01    0.3471267    0.1731029  64.84  0.001220885    2.665    0.625
       250  -8.8195    237.1351    159.2512   7.1478204517e+01   2.6594830149e+00    0.2459547    0.1665431 -53.82 0.0009004832    2.025    0.506
       251  -8.6661    227.3933    159.0912   7.3179020685e+01   4.4443508955e+00    0.2830583     0.195848 -50.85  0.000980498    1.780    0.438
       252  -9.7324    105.8866    158.0598   9.9879122753e+01   2.8125151214e+01     0.496777    0.3166532  72.01  0.001261354    2.180    0.541
       253  -8.3493    128.0206    158.9796   9.4566291704e+01   2.3942482493e+01    0.2327478    0.1785262  81.89 0.0005679454    1.642    0.391
       254  -8.3755    196.7646    158.0741   7.8856636208e+01   1.0494441903e+01    0.2146535    0.1965746 -55.95 0.0006397221    1.274    0.215
       255  -8.3269    188.1573    157.7689   8.0568859538e+01   1.2270753485e+01    0.2530088    0.1918574 -48.60 0.0005627822    1.426    0.299
       256  -9.2940    167.5933    157.3497   8.4936547547e+01   1.6510360475e+01    0.3336894    0.2738103 -84.06  0.001122689    1.630    0.387
       257  -8.4230    218.0378    156.6042   7.4367023518e+01   6.6171244003e+00     0.271326    0.1828527 -49.40 0.0008660468    1.727    0.421
       258  -9.0288    157.6750    156.3416   8.6970571453e+01   1.8723693825e+01    0.2943513    0.2624401 -63.64  0.000986606    1.232    0.188
       259  -9.2842    119.5035    155.1635   9.5914843151e+01   2.6384254057e+01    0.4213754    0.2844701 -80.47   0.00141198    2.023    0.506
       260  -9.3257     49.9903    155.6094   1.1364445443e+02   3.6754440537e+01    0.4561911    0.2223121  63.57   0.00165207    2.632    0.620
       261  -8.5826    212.9654    163.5255   7.6832596039e+01   6.3742715012e+00    0.2591425    0.1866957 -49.01 0.0007090644    1.610    0.379
       262  -9.1976    241.4151    154.1463   6.9642026621e+01   2.7251837245e+00    0.3460174    0.2617917 -86.08  0.001651168    2.663    0.624
       263  -9.2929    144.6596    153.9746   8.9516514520e+01   2.1836535268e+01    0.4834735    0.2650638 -44.17  0.001227412    1.861    0.463
       264  -9.8598     67.8994    153.5672   1.0881030458e+02   3.5009638409e+01    0.4929141    0.2971606  85.85  0.001817844    2.072    0.517
       265  -9.7659    132.7404    153.0115   9.2199738789e+01   2.4383592038e+01    0.4646305    0.3623748  85.15  0.001252218    1.633    0.388
       266  -9.5820    133.3309    148.3482   9.1069044502e+01   2.5316239191e+01    0.3193158      0.27202   2.15  0.001358473    1.403    0.287
       267  -8.8454    151.6688    152.5202   8.7542620496e+01   2.0747199199e+01    0.2942177    0.1478041 -50.73 0.0008945402    2.102    0.524
       268 -10.3870    149.1870    145.0932   8.6488535113e+01   2.2857756533e+01    0.6836621    0.4550687 -81.02  0.002050143    2.658    0.624
       269  -8.5429      9.0227    153.4777   1.2335228243e+02   4.1157935401e+01    0.1515042    0.1153531  36.58 0.0006162279    1.554    0.357
       270  -9.7172     29.2931    150.6892   1.1820761945e+02   4.0089156655e+01    0.4861542    0.2161819  71.45  0.001871959    3.142    0.682
       271  -8.4213     19.8433    152.6190   1.2071397445e+02   4.0482809507e+01    0.1580879   0.09991335  48.94 0.0008327816    1.630    0.386
       272  -8.9070      2.6352    151.1329   1.2464257488e+02   4.2161277272e+01     0.282562    0.1230685 -79.43  0.001472518    1.813    0.448
       273  -9.6475    248.7997    149.4637   6.7396544457e+01   2.1742600844e+00    0.3621303    0.1901173 -33.56 0.0008837043    1.679    0.404
       274  -8.9270    189.4133    150.3912   7.8663879702e+01   1.3433251712e+01    0.3210835     0.241312 -57.01 0.0007991979    1.595    0.373
       275  -8.1763    182.2272    151.2067   8.0369806326e+01   1.4751209323e+01    0.2041241    0.1774347 -68.73 0.0006317289    1.400    0.286
       276  -8.3719    162.8172    150.7712   8.4572575041e+01   1.8843138198e+01    0.2749627    0.2011624 -74.84 0.0008605511    1.972    0.493
       277  -8.5792     98.2081    150.6824   1.0047497834e+02   3.1151480996e+01    0.3037468    0.2136114  87.07  0.001317152    1.791    0.442
       278  -9.5177    242.6435    149.6973   6.8469299682e+01   3.2252238414e+00    0.3561895    0.2459377  38.48  0.001581617    1.553    0.356
       279  -8.1139    212.9511    149.9619   7.3858540405e+01   8.7715006253e+00    0.2051898     0.175331 -67.58 0.0003326265    1.544    0.352
       280  -8.5316    198.8432    149.0845   7.6430595672e+01   1.1755641734e+01    0.2180624    0.2001455 -67.74 0.0005759635    1.316    0.240
       281 -10.0206     88.9956    146.0239   1.0202437765e+02   3.3752586786e+01    0.6942478    0.3832574 -85.18  0.002502003    3.147    0.682
       282  -9.2703     56.9939    135.5109   1.0886239925e+02   4.0782443804e+01    0.3706658    0.2110175   5.63  0.001487797    3.399    0.706
       283 -10.2034     54.6411    144.7284   1.1093535285e+02   3.8824070468e+01     0.777019    0.3739987  69.42  0.002667389    3.545    0.718
       284  -8.4580     51.5000    138.4828   1.1083663604e+02   4.0708788242e+01    0.2685582    0.1877894 -51.41  0.001076095    1.408    0.290
       285 -10.3012     39.8346    146.5378   1.1505037672e+02   4.0037604234e+01    0.7624366    0.4016642 -72.74  0.002832156    1.657    0.396
       286  -9.4526    233.4501    147.3335   6.9525936265e+01   5.2936853937e+00    0.3161549     0.150955 -34.15  0.001114536    1.922    0.480
       287  -8.9884     78.2386    147.2475   1.0509023686e+02   3.5086809915e+01    0.2838608      0.18153  74.66  0.000881828    2.015    0.504
       288  -8.4100    223.3119    146.9706   7.1253697967e+01   7.2785472540e+00    0.2030534     0.168501 -26.38 0.0003561788    1.104    0.094
       289 -10.0699    139.0807    145.0443   8.8929825835e+01   2.4918552873e+01    0.4706271    0.3200003 -73.78  0.001204596    2.078    0.519
       290  -9.4597     13.4506    146.3002   1.2164944377e+02   4.2478160592e+01    0.3677488    0.1645783  57.78  0.001307502    2.466    0.594
       291  -7.9429    206.5202    146.5070   7.4319741106e+01   1.0678266801e+01    0.1468379    0.1363296 -12.85 0.0002644228    1.023    0.022
       292  -8.3390    175.5010    146.1668   8.0686077342e+01   1.7154172316e+01    0.2348033    0.2102223  82.54 0.0006253792    1.351    0.260
       293 -10.0576      2.8145    142.4726   1.2388556280e+02   4.4135274350e+01    0.4891536    0.1883802  89.04   0.00203085    2.676    0.626
       294  -9.0721    240.4226    145.4754   6.7918488481e+01   4.3148843062e+00    0.2416469    0.1986918 -39.89  0.000660192    1.247    0.198
       295 -10.3375    242.6608    143.3094   6.7065635369e+01   4.2610509683e+00    0.6825086    0.2214017 -38.00  0.002509718    2.737    0.635
       296  -8.9048    165.6204    144.2208   8.2450239737e+01   1.9627001419e+01    0.3194257    0.2400583  61.44 0.0008033285    1.574    0.365
       297  -9.8709    125.2192    142.9024   9.1931553443e+01   2.8127212036e+01    0.5434911    0.3692794 -87.11  0.001358444    2.299    0.565
       298 -10.8781     68.9683    140.1963   1.0636544738e+02   3.8100500126e+01    0.9993166    0.4126875 -62.03  0.003355018    2.210    0.547
       299  -8.8686    246.9740    143.6545   6.6430886794e+01   3.4258838286e+00    0.2681088    0.1791045 -32.61 0.0005493046    1.316    0.240
       300  -7.7235    194.2968    143.7154   7.6125433103e+01   1.3706624581e+01    0.1412031    0.1208116 -80.76 0.0002635218    1.546    0.353
       301 -10.3587    106.7531    144.0827   9.6961302918e+01   3.1255320482e+01    0.8172514    0.5362888 -85.98  0.002328659    2.220    0.550
       302  -8.3792    181.9764    141.9190   7.8294029532e+01   1.6643064422e+01     0.232517    0.1895637 -80.50  0.000539268    1.668    0.401
       303  -8.4758    250.4778    140.9884   6.5281009075e+01   3.2283378928e+00    0.2061236    0.1181305 -33.40 0.0004318357    1.521    0.343
       304  -9.9452     23.5041    138.2712   1.1826584078e+02   4.3554590894e+01    0.4990708     0.234417  66.63  0.002139447    2.750    0.636
       305  -8.6191    172.0361    138.2704   7.9612292183e+01   1.9497241623e+01     0.267274    0.2125846 -67.41 0.0006512869    1.556    0.357
       306  -9.4032    139.0378    137.9675   8.7340841741e+01   2.6507400406e+01     0.504006    0.3149526  -4.69  0.001625545    3.724    0.731
       307  -7.6634    218.5332    138.5435   7.0211988860e+01   9.6972246283e+00    0.1449297    0.1329674 -20.62 0.0001282177    1.035    0.034
       308  -8.3013    207.3681    138.0274   7.2197587029e+01   1.2063397765e+01    0.2129017    0.1770295 -37.02  0.000796945    1.162    0.140
       309  -8.7976    197.5432    137.6416   7.4045680752e+01   1.4185117071e+01    0.2805201    0.2326595 -56.70   0.00079021    1.377    0.274
       310  -8.4214    162.6578    136.3470   8.1284975748e+01   2.1906356988e+01    0.2741106    0.1827996 -54.16 0.0006788817    1.652    0.395
       311  -9.2900     39.0698    136.2645   1.1387918557e+02   4.2591324868e+01    0.2838935    0.1792043  81.50 0.0008638872    1.735    0.424
       312  -9.0342    250.7224    130.2330   6.2865438013e+01   4.9108105502e+00     0.474248    0.1138784 -36.36  0.001515038    3.563    0.719
       313  -9.0514    248.3713    135.2206   6.4344549278e+01   4.5350510948e+00      0.30664    0.2029741 -39.45 0.0006996628    1.389    0.280
       314  -8.5504    246.8841    130.1797   6.3454717740e+01   5.6277857808e+00    0.2635975    0.1793397 -38.64 0.0005721939    1.329    0.248
       315  -7.5819    192.3014    136.6507   7.4878602240e+01   1.5484547567e+01    0.1516253    0.1211992 -73.48 0.0007038722    1.692    0.409
       316  -8.1646    188.0430    136.0212   7.5612907545e+01   1.6515925163e+01    0.2360609    0.1895319 -75.41 0.0005522017    1.682    0.405
       317  -8.9183    151.9929    135.6367   8.3627502328e+01   2.4328606688e+01    0.3520105    0.1471464  43.65  0.001229026    2.409    0.585
       318 -10.3407     83.4059    132.9103   1.0103583402e+02   3.7790541655e+01    0.5271607    0.3344644 -75.63  0.001208702    1.831    0.454
       319  -8.1838    237.5118    133.9297   6.5824795785e+01   6.7745994612e+00    0.2157029    0.1249016 -36.58   0.00101271    1.548    0.354
       320  -8.5972    179.3838    133.9046   7.6950342167e+01   1.8801411405e+01     0.281174    0.2241053 -65.37 0.0007110648    1.535    0.348
       321  -9.1944    112.7583    133.2846   9.3068081306e+01   3.2718312144e+01    0.3771172    0.2746687 -74.16  0.001200778    1.636    0.389
       322 -10.0010    132.2022    131.3334   8.7516528603e+01   2.9391303767e+01    0.5592863    0.3811415 -78.99 0.0009814192    2.244    0.554
       323 -10.4109     98.1044    130.2075   9.6383241322e+01   3.6060544816e+01    0.7051553     0.295469 -55.92  0.001740325    2.329    0.571
       324  -9.3989    143.0321    131.7346   8.4880840986e+01   2.7069494580e+01    0.3082782    0.2476382 -72.93 0.0007192338    1.492    0.330
       325 -10.2851     12.8350    129.1501   1.2003386589e+02   4.6555318798e+01    0.4900061    0.2397657  78.65  0.001989786    2.412    0.585
       326  -8.8726      1.7943    130.4971   1.2305938063e+02   4.6975026880e+01     0.226811    0.1131773  70.42  0.001165033    2.202    0.546
       327  -7.9166    220.7425    130.0521   6.7833197225e+01   1.0756029651e+01    0.1900735    0.1170328 -36.89 0.0008691694    1.498    0.333
       328  -8.2403    211.8122    129.4814   6.9334544813e+01   1.2704303971e+01    0.3000912    0.1785629 -51.70 0.0008790049    1.961    0.490
       329  -7.9831    204.4223    130.2654   7.0929333127e+01   1.4117993149e+01    0.2095269    0.1351969 -46.79 0.0008847481    1.595    0.373
       330  -7.8915    192.8321    130.5499   7.3305285207e+01   1.6548998150e+01     0.196047    0.1491708  61.49 0.0004396264    1.561    0.359
       331  -9.0470    168.2605    129.4567   7.8331724052e+01   2.2133899201e+01    0.3092253    0.2510655 -73.05 0.0007510125    1.542    0.352
       332  -9.3110    153.0113    129.0872   8.1800680651e+01   2.5528451675e+01    0.4119401    0.2423284 -57.28 0.0009203985    2.045    0.511
       333  -9.7600     72.9852    129.3008   1.0326595333e+02   4.0202583783e+01    0.3686456    0.2493116  89.59  0.001070269    1.850    0.459
       334 -10.8696     44.8789    123.6186   1.1033233229e+02   4.5062882556e+01     1.088627     0.547856  78.83  0.003952074    3.735    0.732
       335  -9.9573    118.0153    125.2816   8.9805809880e+01   3.3593026615e+01    0.6198219    0.4266053  83.63  0.001426644    2.321    0.569
       336 -10.4638     59.7301    124.8784   1.0624349712e+02   4.3043654085e+01    0.7550746    0.4201681  88.19  0.002563569    2.880    0.653
       337  -8.5838     58.9787    115.5756   1.0469062956e+02   4.5404584275e+01    0.3739135    0.2176583 -23.12  0.001537199    2.846    0.649
       338  -8.1547    228.4024    125.1864   6.5348571450e+01   1.0052375874e+01    0.2110796    0.1222828 -44.65 0.0006474582    1.701    0.412
       339  -8.9495    179.1618    124.8566   7.4776270485e+01   2.0667110859e+01    0.2725981    0.2388502 -63.36 0.0005302143    1.278    0.217
       340 -10.3379     28.5721    122.6603   1.1487260214e+02   4.6864022079e+01    0.6590714    0.3226894  76.60  0.002688912    3.148    0.682
       341  -8.8130    234.1892    123.9467   6.4085139849e+01   9.1064073376e+00    0.2504104    0.1620754  -6.87  0.001104933    2.110    0.526
       342  -7.6957    188.5352    124.4288   7.2687062936e+01   1.8675770507e+01    0.1519647      0.14618 -18.09 0.0001129992    1.012    0.012
       343  -8.6454    146.0204    123.2459   8.2051918879e+01   2.8302988184e+01    0.2531915    0.2094609 -33.24 0.0002063683    1.229    0.186
       344 -10.0858    141.6157    118.6572   8.1984529948e+01   3.0255592828e+01    0.5774665    0.3817992 -67.30  0.001797824    2.088    0.521
       345  -9.9054    130.8352    118.6126   8.4746273677e+01   3.2545233601e+01    0.4151163    0.3020868 -80.06    0.0010876    1.959    0.490
       346  -9.1499    158.6738    121.5568   7.8567544345e+01   2.5900403799e+01    0.4416372    0.3120036 -74.64  0.001202414    2.112    0.526
       347  -8.6316     85.5130    122.4112   9.8252750159e+01   4.0006148994e+01    0.3892306    0.2309507  14.36  0.001529517    2.767    0.639
       348  -8.3630    202.8460    121.7993   6.9176652805e+01   1.6035489545e+01    0.2782457    0.1840385 -59.47 0.0007481233    1.967    0.492
       349  -8.1047    195.0299    122.0767   7.0780385883e+01   1.7696265620e+01    0.2396983    0.1824035 -65.97 0.0005632198    1.680    0.405
       350  -8.6492    172.0128    121.7623   7.5564675705e+01   2.2885887763e+01    0.2678263    0.2182279 -41.83 0.0005423397    1.204    0.169
       351  -8.9333    100.2462    120.1158   9.3501614979e+01   3.8095158978e+01    0.5278519    0.3045156  13.96   0.00182236    3.389    0.705
       352  -9.6602     71.3219    120.1713   1.0192866778e+02   4.2660285332e+01    0.3887524    0.2679462  76.95  0.001085392    1.931    0.482
       353  -9.8622      3.0129    117.2321   1.2138045785e+02   4.9997428159e+01    0.5161324    0.2381593  76.11  0.002389391    2.721    0.632
       354  -7.7712    231.4684    117.5017   6.3024795424e+01   1.0751342247e+01    0.1444167    0.1289978 -36.09 0.0002771526    1.061    0.057
       355 -10.0454    109.3556    114.6244   8.9583604104e+01   3.7722346511e+01    0.5751997    0.3873215 -67.75  0.002316811    1.817    0.450
       356  -8.1838    185.5339    116.0030   7.1185252377e+01   2.0989862584e+01    0.2362076    0.1478041 -40.07 0.0004707814    1.540    0.351
       357 -11.0274    248.4002    108.7750   5.8354734719e+01   8.8231228171e+00    0.6890681    0.3017717 -32.91  0.002882813    2.060    0.515
       358  -7.6544    153.3043    115.6485   7.8320430839e+01   2.8344223417e+01    0.1618529    0.1264048 -79.55   0.00070409    1.705    0.413
       359 -10.1594     92.7740    112.4903   9.3844547584e+01   4.1192725712e+01    0.6072185    0.3511568 -68.04  0.001328747    2.223    0.550
       360  -8.6506     93.9619    104.5067   9.1490068864e+01   4.2860804284e+01    0.3667286    0.2258678  12.20  0.001394382    2.701    0.630
       361  -9.9785     78.8222    112.4708   9.8010719355e+01   4.3431611908e+01    0.5793999    0.3802043  84.75  0.001936825    2.430    0.589
       362  -9.0897     78.6993    105.1373   9.6318266914e+01   4.5197617793e+01    0.3399151    0.2424275  -5.62  0.001088855    1.978    0.494
       363  -7.9213    167.4856    114.5221   7.4714495996e+01   2.5384735523e+01    0.1561516    0.1522311 -48.19 0.0008096718    1.046    0.044
       364 -10.4280    122.1010    112.1615   8.5416348714e+01   3.5790982973e+01    0.5986162    0.3274034 -41.98  0.001973734    1.812    0.448
       365  -9.0438     27.0510    113.8233   1.1401002362e+02   4.9119347370e+01    0.1963085    0.1793524 -16.69 0.0008308853    1.334    0.250
       366  -9.9891     14.0737    111.2367   1.1748414287e+02   5.0714546074e+01    0.4018569      0.21632  77.19   0.00135009    2.326    0.570
       367  -8.4600    174.7576    111.7135   7.2364605853e+01   2.4290960120e+01    0.3102715    0.2010282 -49.54 0.0006380667    1.613    0.380
       368  -8.7300    159.1815    111.8803   7.5929525518e+01   2.7814269024e+01     0.288614     0.244998 -59.46 0.0006813531    1.271    0.213
       369 -10.2796     66.2263    110.5449   1.0142872219e+02   4.5689010100e+01    0.4143894    0.2969167 -82.13  0.001352984    1.638    0.390
       370  -7.7845    199.5304    111.5184   6.7244194045e+01   1.8685788465e+01      0.15289    0.1427705 -49.73 8.520683e-05    1.093    0.085
       371  -9.9589    133.3828    109.4377   8.1678754777e+01   3.4045553323e+01    0.4927615    0.2981724 -47.21  0.001470128    1.630    0.387
       372  -7.8628    149.5725    110.0229   7.7734714713e+01   3.0369899406e+01    0.2436423    0.1520024 -42.84 0.0004201776    1.571    0.364
       373  -9.3364     43.1707    109.5008   1.0836801628e+02   4.8666795389e+01     0.304741    0.1963956   5.46  0.001538098    2.183    0.542
       374  -7.9586    182.8553    109.5820   7.0080323620e+01   2.2849982957e+01    0.2046753    0.1510769  66.52 0.0003926317    1.625    0.385
       375  -8.4148      4.3616    109.3970   1.2009189241e+02   5.1753346118e+01    0.1985317   0.09987742 -14.21 0.0009557604    3.242    0.692
       376  -8.0483    189.2063    108.1184   6.8397853657e+01   2.1671608764e+01    0.2170383    0.1746558 -58.13 0.0005231469    1.365    0.267
       377  -9.2675    109.8566    107.2429   8.7540770211e+01   3.9325890103e+01    0.3876662    0.2744304   5.39   0.00164395    2.085    0.520
       378  -9.0736    108.5420     92.2731   8.3776799028e+01   4.2921946017e+01    0.6113572    0.2726009  30.35  0.001997864    3.255    0.693
       379 -10.1153    119.0434    106.3062   8.4702867411e+01   3.7726563305e+01    0.4595113    0.2717089 -48.78   0.00192544    1.656    0.396
       380 -10.6879    108.9409     98.9737   8.5563719677e+01   4.1368226497e+01    0.9297059    0.5103323  64.24  0.001267501    3.539    0.717
       381  -9.6295    150.7870    103.3088   7.5608737742e+01   3.1501787648e+01     0.556351    0.3420467 -66.41  0.001533396    2.586    0.613
       382  -9.3674    139.8027    104.7635   7.8745935264e+01   3.3661478611e+01     0.384629    0.2960091 -84.91 0.0008882889    1.807    0.447
       383 -10.5306     45.7057    102.5159   1.0620584460e+02   5.0081075972e+01    0.7697167    0.4351333  72.25  0.003110219    3.199    0.687
       384  -8.8687     46.3178     92.7645   1.0391381298e+02   5.2326763626e+01    0.4151175    0.2393979   6.47  0.001908935    2.545    0.607
       385 -10.6238     22.9615    102.7691   1.1350964818e+02   5.2085713582e+01    0.6921271     0.367323  74.36  0.003057309    2.914    0.657
       386  -8.5378    166.6580    104.0819   7.2115253559e+01   2.7685371833e+01    0.2511207    0.1848462 -53.86 0.0006338872    1.463    0.316
       387  -9.3306      6.7750    103.1874   1.1858145384e+02   5.3068240515e+01    0.2736183    0.1574204  84.60  0.000998461    1.897    0.473
       388  -8.0673    193.0154    115.2930   6.9479427179e+01   1.9439373057e+01    0.2057127    0.1985833 -49.10 0.0004168555    1.073    0.068
       389  -9.8043    128.3780    102.0466   8.0985230623e+01   3.6726355153e+01    0.3602462    0.2742372 -60.76 0.0008014574    1.477    0.323
       390  -7.8194    175.5117    102.0285   6.9618799655e+01   2.6022470570e+01    0.2172173    0.1296427 -59.98 0.0005217929    2.305    0.566
       391  -8.3464    159.8523    101.1548   7.2863280051e+01   2.9854741490e+01    0.2425198    0.2099967 -68.33    0.0005097    1.300    0.231
       392  -9.4850     81.9167     99.3973   9.3874570837e+01   4.6044643843e+01    0.5124711    0.2833995 -59.16  0.001475069    1.870    0.465
       393 -10.3920     63.6750     95.6966   9.8813044143e+01   4.9560414742e+01    0.5712531    0.3705587 -88.07  0.001819467    2.489    0.598
       394 -10.2925    123.6037     91.3486   7.9219626279e+01   4.0031167939e+01    0.6077633    0.4601721  24.80  0.001443862    1.505    0.335
       395  -8.5958    150.5394     95.9754   7.3610124964e+01   3.3059588806e+01    0.3341883    0.1967289  16.61   0.00104313    3.578    0.720
       396  -8.3088    176.4043     93.2780   6.7033847084e+01   2.7485348136e+01    0.2822251    0.1841514 -46.68  0.000807694    1.546    0.353
       397  -9.5283    247.2800     92.9771   5.4856870184e+01   1.1580785318e+01    0.3313063    0.1599916  44.36  0.001425946    2.514    0.602
       398  -7.6432    188.4064     93.7237   6.4735996420e+01   2.4549701549e+01    0.1593895    0.1200079 -80.46 0.0006979152    1.774    0.436
       399  -9.2189    139.0107     92.3869   7.5437572136e+01   3.6426596491e+01    0.3688148    0.2782411 -83.50 0.0009580951    1.912    0.477
       400  -9.7147      5.7202     92.4025   1.1738602328e+02   5.5637014714e+01    0.3030502    0.1871724  60.37  0.001239365    2.053    0.513
       401  -7.9917    157.8043     91.8151   7.0704419475e+01   3.2188342342e+01    0.2152334    0.1833318 -65.92 0.0003987725    1.319    0.242
       402  -9.6700     34.8373     89.7970   1.0717195556e+02   5.4157612369e+01    0.4872525    0.2611744 -79.33  0.001978899    2.429    0.588
       403  -9.1175     23.0773     90.1616   1.1125407589e+02   5.5045549324e+01    0.2980009    0.2104923  23.60  0.001564396    1.718    0.418
       404  -8.0567    150.9967     89.2390   7.1556549520e+01   3.4294889482e+01    0.2302469    0.1666765 -58.95 0.0004897869    1.615    0.381
       405  -8.3159    164.8502     94.1168   6.9760434567e+01   3.0073178335e+01     0.243704    0.2082062 -66.07 0.0005357975    1.308    0.235
       406 -10.0358     86.4174     86.5578   8.8924536545e+01   4.8221971923e+01    0.4725184    0.3611121 -87.97  0.001211899    1.938    0.484
       407  -9.6156     94.2251     97.1105   8.9443363226e+01   4.4513031821e+01     0.411772    0.3661349   9.49  0.002217307    1.222    0.182
       408  -7.6362    163.7123     87.3088   6.8072876027e+01   3.1648610971e+01    0.1561022     0.122687 -71.98 0.0002404754    1.575    0.365
       409 -10.0629     48.3313     83.9699   1.0113098876e+02   5.4144630117e+01      0.55322    0.3513827 -77.50  0.002265187    2.090    0.522
       410  -7.3653    179.3136     85.6570   6.4314417992e+01   2.8195464526e+01     0.161721    0.1194465 -69.46  0.000704713    1.707    0.414
       411  -8.9442    126.3528     84.3010   7.6355643047e+01   4.0890085747e+01    0.5217182    0.2698867  32.42  0.001893069    2.489    0.598
       412  -9.8441    104.9278     83.4176   8.2215218925e+01   4.5524337820e+01    0.4357007    0.3331703 -80.65 0.0009856137    1.918    0.479
       413  -8.2189    158.0237     84.0502   6.8398804291e+01   3.3626778450e+01    0.2399688    0.1873257 -70.01 0.0004419556    1.583    0.368
       414  -8.2423    185.4747     82.4868   6.2222807644e+01   2.7273286407e+01    0.1526033    0.1464673 -53.49 3.095229e-05    1.025    0.025
       415  -8.0419     35.4895     82.4909   1.0532927374e+02   5.5787985176e+01     0.132678    0.1091118 -50.14 0.0001435272    1.008    0.008
       416  -9.6749     24.6185     80.5032   1.0877995157e+02   5.7158787649e+01    0.4415609     0.255351 -86.00  0.001360927    2.395    0.582
       417  -9.7634      9.4844     80.6455   1.1419066855e+02   5.8129642733e+01    0.3154183    0.1932417  68.78  0.001229251    2.301    0.565
       418  -8.4571    150.3135     80.7005   6.9185662154e+01   3.6097906396e+01     0.287738    0.1789932 -47.54 0.0007120392    1.681    0.405
       419  -8.9837    119.2239     80.3564   7.7106653894e+01   4.3226721174e+01    0.2897744    0.2396413 -57.21 0.0007103723    1.338    0.253
       420  -8.9314     74.4963     80.3263   9.1044024425e+01   5.1508590094e+01    0.3263022    0.2215151 -66.40    0.0010708    1.853    0.460
       421  -8.4265    248.4637     81.0000   5.1910296657e+01   1.3213319825e+01    0.2710777   0.07898352  58.96 0.0009313116    3.907    0.744
       422  -8.3750    166.8364     79.6829   6.5181261456e+01   3.2304281442e+01    0.2579418    0.2059543 -25.91 0.0005446224    1.303    0.232
       423  -9.8694     63.5291     74.1171   9.3022650106e+01   5.4451658082e+01    0.6126837    0.3070301 -63.47  0.002380866    2.832    0.647
       424  -9.0408     63.9759     64.5571   8.9883601863e+01   5.6401172023e+01    0.5661927    0.2634285 -26.77  0.002006498    3.394    0.705
       425  -9.3208    127.9501     75.4739   7.3179622341e+01   4.2272736232e+01    0.3618377    0.2626822 -58.70 0.0006760416    1.662    0.398
       426  -9.3730    105.9444     71.8050   7.8234139422e+01   4.7682635819e+01    0.3892949    0.2104873 -49.92  0.000843359    2.041    0.510
       427  -9.1308    140.8226     82.7579   7.2113765176e+01   3.7932235472e+01    0.4345904    0.2056573 -46.49 0.0009796311    2.219    0.549
       428  -8.6312    140.4364     75.6006   7.0009989573e+01   3.9384751902e+01    0.2758773     0.208464 -55.27 0.0006918281    1.485    0.327
       429  -9.7806     82.3619     72.0397   8.5834372335e+01   5.2008245388e+01    0.7196801    0.3043747 -49.39  0.001952791    2.365    0.577
       430  -8.4351    204.0840     73.9272   5.6590382831e+01   2.4249986964e+01    0.2179802    0.2098787 -23.81   0.00039995    1.084    0.078
       431  -8.1005    175.5713     72.7057   6.1363543609e+01   3.1391858861e+01    0.2064479    0.1403845 -45.33  0.000383694    1.473    0.321
       432  -8.2395    163.4705     73.1103   6.3954011415e+01   3.4296615189e+01    0.2332051    0.1487085 -38.09 0.0009823749    1.547    0.354
       433  -7.9745    151.4802     73.5018   6.6724214322e+01   3.7143610329e+01    0.1521059    0.1509396 -30.89 -3.00527e-05    1.020    0.020
       434  -8.6385    115.5746     72.8665   7.5757850445e+01   4.5480057147e+01    0.2700266    0.1792005 -44.89 0.0007532578    1.522    0.343
       435  -8.3644     42.4376     72.7779   1.0036439070e+02   5.7293821199e+01    0.2538542    0.1184077 -60.12 0.0007478537    2.068    0.517
       436  -9.5455     95.1243     69.8697   8.0945912001e+01   5.0172758321e+01    0.7484834    0.2481655 -43.92    0.0020528    2.903    0.656
       437  -9.2253     28.9363     70.8028   1.0494889397e+02   5.8996796644e+01    0.4339553    0.1949092 -22.15  0.001677403    3.736    0.732
       438  -9.7151     51.4443     69.5312   9.6079447605e+01   5.6994407664e+01    0.4509955    0.2510163 -67.36  0.001531528    2.507    0.601
       439  -9.0265     16.6575     70.2042   1.0948056601e+02   6.0043830419e+01    0.2509626     0.181442  89.74 0.0008549383    1.730    0.422
       440  -7.6825    157.2986     69.6999   6.4253282922e+01   3.6402397162e+01     0.153522    0.1201459 -72.22 0.0003099353    1.579    0.367
       441  -8.8608    147.0531     68.1871   6.6096484163e+01   3.9153384667e+01    0.3196631    0.2115668 -40.24 0.0005052676    1.512    0.339
       442  -8.7302    138.7469     66.3227   6.7485554430e+01   4.1462331914e+01    0.3486787    0.1855568 -49.54 0.0008772766    2.193    0.544
       443  -8.9006    121.6240     66.1350   7.1854586645e+01   4.5427006933e+01    0.3200269    0.2383467 -61.12 0.0007807861    1.706    0.414
       444  -8.9070     37.3181     64.3619   9.9991232684e+01   5.9640238721e+01    0.2738478    0.2065111 -73.06 0.0008861686    1.620    0.383
       445  -8.8552    105.2496     76.9158   8.0092125391e+01   4.6803194432e+01    0.3082919    0.1979414  23.20 0.0007352945    1.962    0.490
       446  -8.9631    110.0994     63.8189   7.4331875669e+01   4.8341343192e+01    0.2788426    0.2330808 -56.41 0.0005852777    1.388    0.279
       447  -7.4543    187.5007     63.4634   5.6509069323e+01   2.9968596691e+01    0.1472525    0.1427719 -68.79 6.408599e-05    1.003    0.003
       448  -9.6991     73.4184     59.5343   8.4767060082e+01   5.5978082813e+01     0.399677    0.2503594 -51.49  0.001126835    1.732    0.423
       449  -8.1749     89.0011     59.5427   7.9409537848e+01   5.3297314087e+01    0.2235463    0.1805653 -34.22 0.0006094538    1.177    0.150
       450  -9.1792     97.6825     60.6728   7.7009829197e+01   5.1440403451e+01    0.3109619    0.2603807  63.18 0.0007957505    1.497    0.332
       451  -8.3855    147.1536     59.1507   6.3196528725e+01   4.0659091750e+01    0.2092256    0.1724402 -54.13 0.0005543916    1.322    0.244
       452  -9.9257     23.4225     56.5323   1.0337841672e+02   6.2521183228e+01    0.4214869    0.2768004 -88.67  0.002137845    2.621    0.618
       453  -8.6225    130.7226     57.9035   6.6704771907e+01   4.4788851801e+01    0.2786724    0.1776529 -39.40 0.0006934566    1.588    0.370
       454  -9.5067      7.4602     57.2594   1.1015530762e+02   6.3409564034e+01    0.2672811    0.1906497 -83.92 0.0009443634    1.694    0.410
       455  -9.4331    119.1923     55.4259   6.8870882898e+01   4.7838132219e+01    0.4159034    0.2334643 -47.27  0.001475081    2.034    0.508
       456  -8.0812    158.1250     62.1087   6.1736445491e+01   3.7481365168e+01    0.2054198    0.1775408 -71.37 0.0003995303    1.293    0.227
       457  -8.3222    140.0368     56.0247   6.3812939923e+01   4.2889345628e+01    0.2342086    0.1808767 -67.65 0.0005737275    1.642    0.391
       458  -9.3614     54.0807     55.1201   9.0485423629e+01   5.9640344124e+01    0.3142352    0.2308327 -66.90 0.0009995798    1.902    0.474
       459  -8.9688     44.0506     54.9151   9.4409194648e+01   6.0895678558e+01    0.4043267    0.1615679 -53.80  0.001702968    2.438    0.590
       460  -8.3271    105.8261     53.1888   7.1865309280e+01   5.1111418016e+01    0.2115774    0.1974347 -55.95 0.0005853792    1.253    0.202
       461  -9.5094     92.4040     50.6793   7.5094074703e+01   5.4241316828e+01    0.3808127    0.2425742 -47.51  0.001112918    1.778    0.438
       462  -8.8813    144.9604     49.0266   6.0381920365e+01   4.2782447724e+01    0.2330107    0.1746677 -64.61 0.0005314574    1.660    0.398
       463  -8.0439    129.6525     48.8859   6.3890343697e+01   4.6484917276e+01    0.2112196    0.1293834 -42.20 0.0004196192    1.729    0.422
       464  -8.7569    120.8994     47.4143   6.5592120116e+01   4.8739837877e+01    0.2300679    0.1950562 -39.58 0.0004210984    1.246    0.197
       465  -8.4177    112.1626     46.7856   6.7721603541e+01   5.0793120561e+01    0.2442025    0.1857035 -41.93 0.0006090122    1.408    0.290
       466  -9.1714     82.0762     46.5653   7.6982352232e+01   5.6867658366e+01    0.2857898    0.2268124 -53.95 0.0007126072    1.592    0.372
       467  -8.3182     45.0965     44.8489   9.0482363939e+01   6.2731136175e+01    0.1787899    0.1642616 -40.24 0.0004710499    1.279    0.218
       468  -9.0568     16.7094     44.8472   1.0285035267e+02   6.5415813736e+01    0.2025477    0.1680971 -80.56 0.0007676813    1.628    0.386
       469  -8.9136    132.9808     43.5783   6.1250519052e+01   4.6487327204e+01    0.2663738    0.1968673 -51.14 0.0007761941    1.559    0.358
       470  -8.7868     92.9820     42.6798   7.1881875114e+01   5.5443146922e+01    0.3010833    0.1905372 -14.58  0.001016803    1.821    0.451
       471  -8.9763     58.2627     42.8135   8.4340965978e+01   6.1372907100e+01    0.2785081    0.1953817 -56.88 0.0009880686    1.935    0.483
       472  -9.2552     69.7083     41.8048   7.9550268337e+01   5.9793133210e+01    0.3411465    0.2417942 -54.75  0.001085553    1.915    0.478
       473  -9.6424      5.0286     41.7084   1.0720558474e+02   6.6762249039e+01    0.3654265    0.2084831 -77.29  0.001806128    2.454    0.592
       474  -8.6624    105.9752     41.5003   6.7507540566e+01   5.2944521872e+01    0.2485801    0.1930338 -48.15 0.0005782589    1.510    0.338
       475  -7.8683    140.2926     41.6672   5.8938909285e+01   4.4992465242e+01    0.1469381    0.1124089 -66.14 0.0003236012    1.635    0.388
       476  -8.5721     36.7437     40.5284   9.2469961856e+01   6.4481419019e+01    0.2816299    0.1590097 -54.93  0.001309083    1.975    0.494
       477  -8.4611     95.2215     37.7601   6.9264002025e+01   5.5746239535e+01    0.2409163    0.1763169 -39.02  0.001146029    1.463    0.316
       478  -8.0088     80.5994     36.7875   7.3639216469e+01   5.8715823234e+01    0.1852378    0.1208482 -41.93  0.000527956    1.669    0.401
       479  -7.6927    133.4871     36.4352   5.8642073011e+01   4.7359566441e+01    0.1437163    0.1338076  37.96 0.0001388052    1.009    0.009
       480  -9.4274     26.1768     35.0201   9.5196094299e+01   6.6546535474e+01    0.3602533    0.1754807 -49.57  0.001059801    1.806    0.446
       481  -8.0181    125.9495     35.5261   6.0060526502e+01   4.9278330154e+01      0.20707    0.1350785  54.58 0.0002949282    1.469    0.319
       482  -8.6976    111.9948     34.8372   6.3318611246e+01   5.2579100198e+01    0.2372808    0.1990491 -25.89 0.0005781641    1.221    0.181
       483  -8.9232     48.4052     33.3754   8.4607521454e+01   6.4354080158e+01    0.2537072    0.1950254 -46.92 0.0008250974    1.520    0.342
       484  -8.4245    119.0815     32.9084   6.0771174788e+01   5.1227057296e+01    0.2478271    0.1711034 -43.74 0.0006513757    1.639    0.390
       485  -8.8028     60.7407     32.6001   7.9224837074e+01   6.2716033637e+01    0.2335508    0.1920054 -35.99 0.0006502745    1.316    0.240
       486  -9.1158     72.0920     31.2982   7.4371855379e+01   6.1059133737e+01    0.2637577    0.1694737 -40.53 0.0006132597    1.679    0.404
       487  -7.6429    139.2715     31.6676   5.5734011633e+01   4.6570256734e+01    0.1412136    0.1081042 -62.82 0.0003535337    1.591    0.372
       488  -9.2389     12.8161     30.1015   9.9790833525e+01   6.8532275494e+01    0.3137008    0.1541007 -59.17  0.001441046    2.189    0.543
       489  -7.9047     42.0077     30.0028   8.5977147177e+01   6.5732673276e+01    0.1533337     0.121719 -18.72   0.00041112    1.021    0.020
       490  -8.4102    101.2709     29.2841   6.4109702985e+01   5.5665206920e+01    0.1748991    0.1620048 -59.01  0.001032726    1.354    0.261
       491  -8.7764     81.4562     27.5800   6.9525030760e+01   5.9892134851e+01    0.2566583    0.1997309 -58.37 0.0008468982    1.937    0.484
       492  -8.9587      3.4992     27.7114   1.0360582120e+02   6.9560434704e+01    0.2081039    0.1684665 -85.55 0.0009632239    1.898    0.473
       493  -8.7992     91.8679     26.3983   6.5703124974e+01   5.8002917747e+01     0.273991    0.1779239 -42.33 0.0009270948    1.813    0.448
       494  -8.0959    145.6980     26.3215   5.2637400865e+01   4.5631238067e+01    0.1425166    0.1062251 -66.47 0.0003681296    1.630    0.387
       495  -8.4599    104.3048     22.9703   6.0746568842e+01   5.5793108853e+01    0.1875281    0.1699155   6.28 0.0005727614    1.072    0.067
       496  -7.8692     34.6135     23.2986   8.6457608684e+01   6.7705366664e+01    0.1041593   0.09899424  72.15 0.0007016489    1.781    0.438
       497  -8.9611     63.6232     21.2489   7.3118801426e+01   6.3921449351e+01    0.2666394    0.1959733 -41.60  0.000956347    1.652    0.395
       498  -8.9462     48.3230     21.9143   7.9648778264e+01   6.6172644238e+01     0.210459    0.1835183 -10.99 0.0006227763    1.187    0.158
       499  -8.3185     19.5198     21.5383   9.3079131967e+01   6.9522235777e+01    0.1850153    0.1032372 -54.10 4.468742e-05    2.103    0.525
       500  -8.5961    165.2691     21.0862   4.7608671512e+01   4.1315671531e+01    0.1874074    0.1712946 -36.77 0.0005625344    1.166    0.143
       501  -8.2070    120.6306     21.2248   5.6030549541e+01   5.2282344294e+01     0.182081    0.1294296  -7.74 0.0009378219    1.552    0.356
       502  -8.8928     74.2062     19.5250   6.8479122646e+01   6.2296116065e+01    0.2721895    0.2038201 -49.30 0.0009320939    1.878    0.467
       503  -8.0718     38.8860     18.7801   8.2410144045e+01   6.7892111113e+01    0.1506008     0.135601 -19.74 0.0004924185    1.348    0.258
       504  -8.1453     87.7954     17.7753   6.3290097860e+01   5.9882714648e+01    0.1637676    0.1558337 -43.40 0.0004467427    1.340    0.254
       505  -7.6949    112.9504     16.9937   5.6196883657e+01   5.4521642439e+01    0.1624105    0.1440177  33.82 0.0003852404    1.001    0.001
       506  -8.1297     30.0631     16.1255   8.5366940150e+01   6.9339512946e+01    0.1550607    0.1457983 -50.36 0.0007230035    1.694    0.410
       507  -7.9954     97.1910     15.1842   5.9479012235e+01   5.8210806422e+01    0.1690216    0.1532145 -41.43 0.0004360078    1.339    0.253
       508  -8.3098      7.4262     15.2423   9.6783036578e+01   7.1537385328e+01    0.1495841   0.09483112 -52.59 0.0009485644    1.659    0.397
       509  -8.7424     16.9591     14.1546   9.1152716901e+01   7.0960472028e+01    0.1606883    0.1395623 -18.58  0.000619175    1.292    0.226
       510  -7.7663     83.5035     11.4950   6.1834048401e+01   6.1437407283e+01    0.1286906     0.113294  18.96 0.0008096548    1.071    0.067
       511  -9.0219    175.6413    247.7775   9.9062391368e+01  -7.0709393393e-01    0.2748336    0.2233634  85.88  0.001238459    2.001    0.500
       512  -9.3782    103.6956    246.7687   1.1246841460e+02   1.0406179314e+01    0.4044488    0.2165652 -82.52  0.001678887    2.821    0.646
       513  -8.9285    242.9206    246.7030   8.6812919953e+01  -1.0339773806e+01    0.3775712    0.1639774 -17.05  0.001787401    3.127    0.680
       514  -8.6647    232.6067    247.4057   8.8699015058e+01  -9.0277773447e+00    0.1770753    0.1711465 -14.24 0.0006847999    1.664    0.399
       515  -8.2281    218.5050    248.0388   9.1274906909e+01  -7.1299216901e+00    0.1529371    0.1093593 -30.11 0.0008375451    1.597    0.374
       516  -9.0876    211.0259    246.7167   9.2410442079e+01  -5.8891460418e+00    0.2133496    0.1693494 -52.05  0.001004979    1.990    0.498
       517  -9.0153    156.0559    247.8203   1.0274064471e+02   2.3130479807e+00    0.1790946    0.1750981 -59.06 0.0005844219    1.286    0.222
       518  -8.8011    132.1307    248.0305   1.0727523850e+02   5.9628772183e+00    0.2130723    0.1451594  51.43 0.0005463528    1.291    0.226
       519  -9.9749    224.0487    244.3681   8.9722164465e+01  -7.4749671054e+00    0.3837393    0.2219612 -42.44  0.002237733    2.320    0.569
       520  -9.4782    146.9556    246.0757   1.0423763256e+02   3.9876499431e+00    0.3088225    0.2010847  65.03  0.001726373    2.045    0.511
       521  -9.0070    120.1713    245.3724   1.0922947311e+02   8.2040572605e+00    0.2927818    0.1916021  84.59  0.001452211    2.142    0.533
       522  -7.8769     13.4944    247.5014   1.2827113961e+02   2.1442210804e+01     0.105297   0.07178927  68.64 0.0008106178    1.016    0.016
