#   1 NUMBER                 Running object number                                     
#   2 MAG_AUTO               Kron-like elliptical aperture magnitude                    [mag]
#   3 X_IMAGE                Object position along x                                    [pixel]
#   4 Y_IMAGE                Object position along y                                    [pixel]
#   5 X_WORLD                Barycenter position along world x axis                     [deg]
#   6 Y_WORLD                Barycenter position along world y axis                     [deg]
#   7 A_WORLD                Profile RMS along major axis (world units)                 [deg]
#   8 B_WORLD                Profile RMS along minor axis (world units)                 [deg]
#   9 THETA_WORLD            Position angle (CCW/world-x)                               [deg]
#  10 FWHM_WORLD             FWHM assuming a gaussian core                              [deg]
#  11 ELONGATION             A_IMAGE/B_IMAGE                                           
#  12 ELLIPTICITY            1 - B_IMAGE/A_IMAGE                                       
         1 -11.4766    199.5559     22.3477   6.4043433571e+01   3.2860720078e+01    0.8570352    0.6032084 -72.25  0.004843075    1.386    0.278
         2 -11.3464    204.7828     14.0138   6.1495676531e+01   3.2565708598e+01    0.5867212    0.4052171  36.56  0.001688899    2.062    0.515
         3  -8.1721     83.0000      5.9793   8.0307546893e+01   6.0895830545e+01    0.1790886   0.06535812 -22.93 0.0008056049    2.964    0.663
         4 -11.0461    215.1128      2.8074   5.7983356240e+01   3.1360887391e+01    0.6579664    0.2835409  73.27  0.003227139    1.970    0.492
         5  -8.3436     29.3031      2.3402   9.7415240853e+01   6.9599957779e+01    0.1137834   0.06553197   1.81 0.0003749042    1.675    0.403
         6  -8.9125     98.8570    236.3951   1.3224606599e+02   1.2422041621e+01    0.2375649     0.162885  75.25 0.0006529059    1.463    0.317
         7 -11.3267    177.4570    248.3909   1.1838888579e+02  -3.0346608902e+00    0.4934132    0.3244957  34.94  0.002813081    1.316    0.240
         8 -10.8615    169.6742    248.9109   1.1997364283e+02  -1.7988283441e+00    0.3328145    0.3069837 -47.06  0.002246702    1.295    0.228
         9 -11.2705    163.7040    241.9812   1.2011741420e+02   3.6639717881e-01    0.3428232    0.2755844  21.93  0.001367369    1.314    0.239
        10 -14.4883    131.9079    239.4397   1.2607499821e+02   6.3321703233e+00       2.6785     1.696818  43.15   0.01026146    1.368    0.269
        11  -9.3131     49.7936    234.6030   1.4141812216e+02   1.9937364354e+01    0.2230583    0.1445115  81.14 0.0007282716    1.318    0.241
        12  -9.7435     69.9245    190.7908   1.3266247475e+02   2.6702300725e+01    0.3958806    0.2384628 -43.20  0.001881025    2.274    0.560
        13  -9.9245     74.5831    184.1803   1.3070610428e+02   2.7559975924e+01    0.3096679    0.2362105 -48.28 0.0009339862    1.523    0.343
        14  -9.4958     83.2801    172.6593   1.2691863996e+02   2.8961954814e+01    0.3068545    0.2120971 -65.34 0.0004921554    1.354    0.262
        15 -11.3177     71.0162    169.6489   1.2941209040e+02   3.1523958266e+01     0.515462    0.2850784 -43.73  0.001384381    2.252    0.556
        16 -10.2321     89.2122    165.0172   1.2418850106e+02   2.9845709302e+01    0.4885543    0.4009807 -26.00  0.001244407    1.621    0.383
        17  -9.5831     83.3777    163.3801   1.2535792349e+02   3.1171299708e+01    0.3946951     0.204749 -72.78  0.001480871    2.236    0.553
        18 -10.3070     72.3529    153.6927   1.2648672147e+02   3.5173854057e+01    0.5375252    0.2986123  88.88   0.00207366    2.859    0.650
        19 -11.6827     68.0241    144.4401   1.2598877380e+02   3.8024792668e+01    0.7303582    0.5495494  67.42  0.002822508    1.465    0.317
        20  -9.0888    101.6124    148.2511   1.1786367121e+02   3.1772862172e+01    0.2753141    0.1796605 -48.68  0.001262205    1.515    0.340
        21 -10.2118     90.6476    147.8061   1.2064008933e+02   3.3760116530e+01    0.2800654     0.246641 -40.49  0.000592738    1.241    0.194
        22  -8.7084    134.0000    144.5485   1.0879112339e+02   2.6391946333e+01    0.3495625   0.08779443 -49.03 0.0008964381    3.942    0.746
        23  -7.9886    104.6396    144.6651   1.1633005045e+02   3.2089328363e+01    0.1547955    0.1194816 -16.92 7.236089e-05    1.812    0.448
        24 -11.0227     58.0000    131.5013   1.2634068109e+02   4.2460843746e+01    0.7709572    0.1979169 -59.87  0.002533257    3.381    0.704
        25  -9.0774    112.4911    134.4278   1.1201093658e+02   3.3056026810e+01    0.4831092    0.3096023  -3.05  0.001610027    3.717    0.731
        26  -9.1910     99.4948    132.1121   1.1497602684e+02   3.6000662681e+01    0.3050898    0.2465892 -17.47 0.0009033417    1.572    0.364
        27  -9.6716     74.0000    130.0573   1.2158526536e+02   4.0624159570e+01    0.6501062   0.06255177 -55.77  0.001363555    7.617    0.869
        28 -10.5440     21.8626    125.8760   1.3538771538e+02   4.7547484867e+01    0.4031331    0.1757081 -66.96  0.001674982    1.856    0.461
        29 -11.2422     22.0812    118.9182   1.3424808810e+02   4.9127522476e+01    0.5434431    0.1938881 -71.34  0.002204882    2.784    0.641
        30 -11.9828     48.6099    222.5768   1.4057860862e+02   2.2570383494e+01     1.576687    0.6486828  37.96  0.003640692    2.490    0.598
        31  -8.0274    108.4807    122.5044   1.1028182109e+02   3.6596819238e+01    0.1508501    0.1447571 -51.13 -2.212096e-05    1.026    0.025
        32  -9.3160     73.7605    120.0436   1.1951752531e+02   4.3022378160e+01    0.1970668    0.1105534 -56.51 0.0008868558    1.631    0.387
        33  -8.7401    168.3657    112.9672   9.2897340067e+01   2.5703540661e+01    0.2867962    0.2203542  73.49 0.0006647081    1.501    0.334
        34  -8.5950     83.0000    110.0450   1.1448171888e+02   4.3910862721e+01    0.2435654   0.07684869 -52.11 0.0008020944    2.940    0.660
        35 -15.2135      3.5277    236.7888   1.4957850898e+02   2.4825041798e+01     22.35114          nan -74.80    0.0456685   16.641    0.940
        36  -8.4339     59.3164    109.6532   1.2148927849e+02   4.7399299151e+01    0.1365979    0.1035395  83.30 0.0007048105    1.723    0.420
        37 -11.8963     54.5830    210.6486   1.3824578375e+02   2.4349509434e+01     3.250425     1.173888 -65.19    0.0144282    2.511    0.602
        38  -8.3896     83.0000     64.0067   1.0140511798e+02   5.3276722583e+01    0.2229574   0.07327573 -41.69 0.0008041488    2.954    0.662
        39 -12.7689     10.2764    206.9260   1.4652228992e+02   3.0234455135e+01    0.9742052    0.8220725  62.49   0.00432463    1.316    0.240
        40  -8.8411     49.5070    231.4707   1.4120141097e+02   2.0610855792e+01    0.2113776    0.1374679  73.04 0.0008544647    1.286    0.222
        41 -10.7337    191.2041     27.5405   6.6362931515e+01   3.4254779530e+01    0.6070376    0.2814472  52.58  0.002081042    2.147    0.534
        42 -11.6073    117.1730    240.6853   1.2915776369e+02   8.5972351197e+00    0.6781891    0.5018405  37.38  0.003243984    1.374    0.272
        43 -10.3162     59.1258    246.6797   1.4075707542e+02   1.6305257902e+01    0.5597042    0.2984879 -75.73   0.00322449    1.830    0.454
        44 -14.4161     32.4662    115.9743   1.3076980699e+02   4.8896154065e+01     24.25451     2.804027 -64.20   0.04715585   11.171    0.910
        45  -8.2832     79.5293    220.5253   1.3426840449e+02   1.8681084229e+01    0.2483034    0.1197338 -67.53 0.0007859181    2.083    0.520
