#   1 NUMBER                 Running object number                                     
#   2 MAG_AUTO               Kron-like elliptical aperture magnitude                    [mag]
#   3 X_IMAGE                Object position along x                                    [pixel]
#   4 Y_IMAGE                Object position along y                                    [pixel]
#   5 X_WORLD                Barycenter position along world x axis                     [deg]
#   6 Y_WORLD                Barycenter position along world y axis                     [deg]
#   7 A_WORLD                Profile RMS along major axis (world units)                 [deg]
#   8 B_WORLD                Profile RMS along minor axis (world units)                 [deg]
#   9 THETA_WORLD            Position angle (CCW/world-x)                               [deg]
#  10 FWHM_WORLD             FWHM assuming a gaussian core                              [deg]
#  11 ELONGATION             A_IMAGE/B_IMAGE                                           
#  12 ELLIPTICITY            1 - B_IMAGE/A_IMAGE                                       
         1 -14.4432    166.0586     46.9276   7.6387475242e+01   3.7843990304e+01     1.836294     1.293351  24.28  0.006401296    1.901    0.474
         2 -14.3142    179.7710     31.6529   6.9900948760e+01   3.6462878318e+01    0.9364804    0.8507836 -54.95  0.003673216    1.160    0.138
         3 -13.7418    183.8663     25.3223   6.7639206661e+01   3.6214064482e+01    0.6265221    0.5369749 -85.22  0.001164871    1.091    0.084
         4 -13.4613    188.9971     13.9389   6.4061979415e+01   3.6226538723e+01      1.47393    0.6745555 -74.98  0.005442219    3.586    0.721
         5 -14.0768    198.4216      4.1419   6.0624634023e+01   3.4971734766e+01     1.274179    0.6579753  70.95  0.005282005    1.639    0.390
         6 -11.5192     61.8641      7.1554   8.7879073327e+01   6.4434738688e+01    0.1649393    0.1470235  14.20 0.0005031747    1.248    0.199
         7 -10.6623    157.4002    219.1709   1.1919034022e+02   5.7120328871e+00    0.1857938    0.1312483 -66.09 0.0009494932    1.755    0.430
         8  -9.7185    159.2980    250.3340   1.2353417316e+02  -5.4521129619e-02    0.1216152   0.09416531  11.04 0.0007031242    1.649    0.394
         9 -19.6944     43.5387    160.8315   1.3568849904e+02   3.7110859183e+01     20.14782     5.545933 -69.14   0.06915354    3.561    0.719
        10 -12.0295    210.9765    181.0472   1.0107301654e+02   2.5857073662e+00     0.475103    0.2998956 -31.78  0.002108773    1.634    0.388
        11 -12.2148    115.9093    211.5575   1.2666719584e+02   1.4738324116e+01    0.6128445    0.3194862  72.51  0.001650306    3.499    0.714
        12 -12.2142     99.0277    180.8504   1.2564122152e+02   2.4448870435e+01     0.319751    0.3110654  55.14 0.0009797188    1.193    0.162
        13 -11.8877    197.8765    175.5174   1.0253678837e+02   6.2316230811e+00     0.429641     0.321759 -50.95  0.001139927    1.432    0.302
        14 -10.2687    145.5151    178.4708   1.1448843069e+02   1.6322408391e+01    0.1479913    0.1433808  59.10 1.105094e-05    1.039    0.038
        15 -12.6818    116.5156    206.5304   1.2579009965e+02   1.5692027002e+01    0.5262064    0.3127428  45.04  0.001618997    1.562    0.360
        16 -12.3735    117.5811    201.4970   1.2478535434e+02   1.6581548204e+01    0.5088286    0.2523203  49.30  0.002212849    1.911    0.477
        17 -12.7577    108.3634    211.3937   1.2823328335e+02   1.6073003347e+01      0.68189    0.3253364  44.23  0.003069468    1.921    0.479
        18 -12.2526    137.4492    170.7146   1.1481391118e+02   1.9660588399e+01    0.3949917    0.3258674  89.17  0.001454496    1.345    0.257
        19 -12.9797    107.6384    205.4707   1.2753494065e+02   1.7460647703e+01    0.6824439    0.4835707  30.69  0.002699734    1.697    0.411
        20 -11.7442    203.6845    167.8843   9.9731137714e+01   6.5305841049e+00    0.4817167    0.4438118  39.67  0.001965109    1.105    0.095
        21 -11.7319    139.5250    199.0856   1.1960464859e+02   1.3056172735e+01     0.596124     0.257176  54.41  0.002162813    2.744    0.636
        22  -9.4081    163.6947    169.3156   1.0852945980e+02   1.4585742819e+01    0.1535449    0.1206129  86.79 0.0003111307    1.624    0.384
        23 -10.9626    145.9294    168.4832   1.1239333700e+02   1.8448597431e+01     0.239062    0.2055934 -55.45 0.0006215476    1.173    0.148
        24 -13.4612    112.4232    196.3981   1.2511417624e+02   1.8608475284e+01     1.527387    0.8551168  15.08  0.003958737    7.555    0.868
        25 -10.5510    225.4914    166.4839   9.5212016135e+01   2.4381271762e+00    0.1413592    0.1332401 -26.31 5.336302e-05    1.058    0.055
        26 -10.1974    121.3914    164.8069   1.1744650699e+02   2.4154929968e+01    0.2410528    0.1947475  62.41 0.0004864008    1.257    0.205
        27 -13.7485     11.4627    206.5206   1.4700592077e+02   3.0236818421e+01    0.4636611    0.3282894  47.21  0.003267168    1.529    0.346
        28 -10.1941      3.9941    162.0128   1.4479447790e+02   4.0620602236e+01    0.1714596    0.1293713 -71.23 0.0005720494    1.167    0.143
        29 -12.4275      6.3037    206.6741   1.4794812930e+02   3.0702978623e+01    0.1904327    0.1189901  84.15  0.000751612    1.215    0.177
        30 -12.0962    101.0120    157.4701   1.2101139694e+02   2.9617674403e+01    0.3752386    0.3356766 -59.38 0.0005185951    1.106    0.096
        31 -12.7536    102.7888    153.5890   1.1980906904e+02   3.0230738200e+01     0.542128    0.3822441  47.63  0.001789256    1.453    0.312
        32  -9.8025    119.9757    156.4826   1.1611377571e+02   2.6371309947e+01    0.2359542    0.1482619  43.75  0.001039375    1.612    0.380
        33  -9.7386    165.5615    207.5020   1.1551280903e+02   6.3978605191e+00      0.22039    0.1733149  77.76  0.001140196    1.603    0.376
        34 -12.4466    133.9258    145.2001   1.1023719457e+02   2.6217371378e+01     1.237524    0.3151658 -54.19  0.002937095    5.362    0.814
        35  -9.9457    164.6857    204.3451   1.1513465065e+02   7.1763741500e+00    0.1932975    0.1484057 -71.03 0.0007646488    1.617    0.382
        36 -11.0150    174.6369    148.6884   1.0153936171e+02   1.6658967382e+01    0.3170551    0.2455799 -55.23  0.001099496    1.340    0.254
        37 -12.1868    144.9204    146.1834   1.0779260976e+02   2.3686656420e+01    0.4459572    0.3324591 -86.15  0.001963243    1.763    0.433
        38 -11.1858     10.0872    213.9166   1.4777585204e+02   2.8832041072e+01    0.1566491    0.1084256  14.25 0.0009591912    2.790    0.642
        39 -12.7510    112.2745    140.0816   1.1454965973e+02   3.1702484154e+01    0.6896788    0.5278505   3.12   0.00293995    1.920    0.479
        40 -12.4715    100.4371    140.7564   1.1777524922e+02   3.3705607669e+01    0.2919029    0.2868516  78.30 0.0003983867    1.085    0.079
        41 -13.2058    193.9756    193.8110   1.0706175520e+02   3.5184323121e+00     1.114796    0.7579713 -66.85  0.005054297    2.223    0.550
        42 -11.7594     13.5324    136.6445   1.3979983064e+02   4.5634657788e+01    0.2205683    0.1832613 -67.92 0.0002903496    1.112    0.101
        43 -11.9755    117.8728    130.3564   1.1086229019e+02   3.2895725678e+01    0.4094572    0.3658682 -23.10  0.001065677    1.252    0.202
        44 -12.1038    105.7936    128.7682   1.1368105041e+02   3.5568832089e+01    0.6638343    0.2993208 -54.38  0.002496463    2.188    0.543
        45  -9.9280    211.1654    202.9111   1.0541141786e+02  -1.3436435702e+00    0.1895367    0.1863713 -79.83 0.0004720264    1.246    0.198
        46 -11.4712    142.8314    127.6787   1.0388867848e+02   2.8304510596e+01    0.3661668    0.2761695  79.35  0.001146669    1.706    0.414
        47 -10.8663    160.4763    127.4356   9.9632402414e+01   2.4417497631e+01    0.3577027    0.2564543 -67.85   0.00126026    1.705    0.413
        48 -11.6491    125.3714    127.3525   1.0819520258e+02   3.2079974026e+01    0.3870614    0.2782842  77.02  0.001148153    1.892    0.471
        49 -10.0703    177.6235    196.3664   1.1093758744e+02   6.2189791856e+00    0.2136689    0.1723209  80.61 0.0009333895    1.613    0.380
        50 -13.0961    110.2555    183.7248   1.2353108782e+02   2.1837966567e+01     0.994602    0.3976958  29.43  0.002888524    4.862    0.794
        51 -12.1672    135.1731    122.6493   1.0453053399e+02   3.1084790550e+01    0.7152167    0.2236826 -50.46  0.002072675    3.457    0.711
        52 -10.7129    112.0822    119.4510   1.0974256771e+02   3.6530153765e+01    0.2702436    0.2136532 -56.94 0.0003665047    1.248    0.198
        53 -12.3101    103.7250    194.5461   1.2675036507e+02   2.0529649556e+01    0.4262453     0.341919  41.71  0.001932497    1.306    0.234
        54 -10.9823    168.6532    113.4761   9.4232821829e+01   2.5477365343e+01     0.378216    0.2870296 -83.91 0.0008329338    1.704    0.413
        55 -10.5054    163.1603    110.4012   9.4656658079e+01   2.7400418053e+01    0.4000465    0.2513036  84.47  0.001380071    2.977    0.664
        56 -12.4452    109.6299    189.1472   1.2457410771e+02   2.0718197993e+01    0.5458903    0.3672263 -16.28  0.002149897    3.303    0.697
        57 -10.5397    205.4418    110.1632   8.5947750397e+01   1.7480271849e+01    0.3227863    0.2204823  44.66 0.0009515021    1.584    0.369
        58 -10.6238    179.8973    192.8726   1.0978863048e+02   6.4509615571e+00    0.3468044    0.2292186 -78.73  0.001387818    2.820    0.645
        59 -10.1501    157.4394    191.9790   1.1442069563e+02   1.1071116399e+01    0.2095101    0.1442544 -50.52 0.0003391485    1.531    0.347
        60 -10.7806    134.7207    103.4668   9.9596853651e+01   3.5341031566e+01    0.4997615    0.1804017 -42.44  0.001631998    2.748    0.636
        61  -9.5368    152.6322    102.8519   9.5061431854e+01   3.1408216384e+01    0.2089062     0.142943 -52.55 0.0002031645    1.528    0.345
        62 -10.0850     83.0815     76.3383   1.0626528118e+02   5.0904295000e+01    0.1835494    0.1712966  -0.13 0.0004146762    1.066    0.062
        63 -10.1842     13.5477     59.9444   1.2559395632e+02   6.2151747894e+01    0.1621354    0.1300283 -36.36 0.0004018059    1.061    0.057
        64 -10.4103      1.4534    249.0869   1.5125201408e+02   2.2830044815e+01    0.1276598   0.07696671 -82.39 0.0004886569    1.393    0.282
        65 -11.9598    207.6920    183.9651   1.0232284261e+02   2.6850707196e+00    0.3787851    0.3378583 -42.60 0.0009863453    1.178    0.151
        66 -10.0971    176.5819    243.4873   1.1922025315e+02  -1.9212917382e+00     0.127505    0.1095224  34.97 0.0001435781    1.016    0.016
        67 -10.1895    182.3164    234.3329   1.1666751638e+02  -1.4436910522e+00    0.1323682   0.09670761   8.47 0.0007047256    1.689    0.408
        68 -11.6095    184.6294    227.8119   1.1513878757e+02  -7.7502132516e-01    0.3537962     0.160446  35.59  0.001532211    2.122    0.529
