#   1 NUMBER                 Running object number                                     
#   2 MAG_AUTO               Kron-like elliptical aperture magnitude                    [mag]
#   3 X_IMAGE                Object position along x                                    [pixel]
#   4 Y_IMAGE                Object position along y                                    [pixel]
#   5 X_WORLD                Barycenter position along world x axis                     [deg]
#   6 Y_WORLD                Barycenter position along world y axis                     [deg]
#   7 A_WORLD                Profile RMS along major axis (world units)                 [deg]
#   8 B_WORLD                Profile RMS along minor axis (world units)                 [deg]
#   9 THETA_WORLD            Position angle (CCW/world-x)                               [deg]
#  10 FWHM_WORLD             FWHM assuming a gaussian core                              [deg]
#  11 ELONGATION             A_IMAGE/B_IMAGE                                           
#  12 ELLIPTICITY            1 - B_IMAGE/A_IMAGE                                       
         1 -11.4784    142.5344     26.0794   5.7558631414e+01   4.6474990374e+01    0.2805792    0.2243727 -20.81 0.0007519145    1.303    0.232
         2 -16.1697    243.2948    227.9905   8.8774482318e+01  -8.0002639601e+00     3.585329      1.17587 -32.36   0.01420409    3.258    0.693
         3 -21.2048    128.4168    171.4514   1.0135666719e+02   2.1338024130e+01     10.90425     8.243301  44.67   0.04849417    1.259    0.206
         4  -7.3324     76.2724    234.1781   1.1982691524e+02   1.7407567187e+01   0.09309109   0.07423885  42.87  0.000196305    1.392    0.282
         5 -10.9908     65.7391    234.0475   1.2165524595e+02   1.8830151236e+01    0.1534567    0.1075249  71.36  0.000411374    1.148    0.129
         6 -10.7195     92.8971    232.4557   1.1670712490e+02   1.5375408805e+01    0.1734377    0.1229108  74.02 0.0003614185    1.313    0.238
         7 -12.3215    207.5111    231.1500   9.5507915238e+01  -2.8246066964e+00     0.351787    0.2390956  59.26   0.00166298    2.209    0.547
         8 -12.1365    103.2473    231.3426   1.1471424872e+02   1.4042362581e+01    0.2108706     0.152751  74.05   0.00107384    1.337    0.252
         9 -11.0984     55.9309    232.2835   1.2321339979e+02   2.0390967179e+01    0.1536167     0.104724  61.80 0.0002601723    1.116    0.104
        10 -11.4308     85.2147    230.3783   1.1789595562e+02   1.6836878824e+01    0.1725059    0.1527508 -76.29   0.00125705    1.358    0.264
        11 -11.5515     79.4795    230.4833   1.1893585435e+02   1.7619028449e+01    0.1865747    0.1545917  53.08  0.001039893    1.227    0.185
        12 -11.6443    113.8170    246.4350   1.1436623043e+02   9.9815604498e+00    0.2631222    0.1779274  66.35  0.001726463    1.424    0.298
        13 -10.7625    214.0930    227.0181   9.3676705481e+01  -3.3586009428e+00    0.1719736    0.1366033  22.65  0.001145743    1.002    0.002
        14 -10.1007    208.8827    226.6354   9.4545105873e+01  -2.4670610584e+00    0.1859752    0.1413423  -2.71 0.0006109113    1.368    0.269
        15 -11.8240    181.2902    246.4090   1.0240519920e+02  -5.8535518004e-01    0.3279553    0.2109374  63.55  0.001820981    2.366    0.577
        16 -10.4209     76.7505    227.1225   1.1912604193e+02   1.8595269946e+01    0.1269934    0.1070046  60.76 0.0002600932    1.175    0.149
        17 -11.7177     64.7779    226.8698   1.2124935247e+02   2.0239956508e+01    0.1612557    0.1596504  73.18 0.0008448324    1.545    0.353
        18 -10.1920     35.9665    227.2029   1.2626644090e+02   2.3675535240e+01    0.1762664    0.1002899  63.02  0.001181444    1.355    0.262
        19 -10.8321     35.3612    221.1850   1.2598558793e+02   2.4851371501e+01    0.3423775    0.1636888 -71.59  0.001777359    1.972    0.493
        20  -9.9209    209.7917    250.6566   9.8039567819e+01  -5.5259255091e+00    0.1355053   0.08947203  41.25 0.0005336532    1.343    0.256
        21  -9.5426    155.4018    248.5785   1.0726492888e+02   3.2289341253e+00    0.1159941   0.09117898  40.01 0.0001190956    1.049    0.047
        22 -10.1896    223.6585    210.9252   8.9239242822e+01  -2.8332099920e+00    0.1646756    0.1410868   4.39 0.0003896995    1.110    0.099
        23 -10.9002    145.5103    246.8573   1.0881157653e+02   5.0333776911e+00    0.1826862   0.09838022 -80.47 0.0006523225    6.240    0.840
        24 -10.5506    141.5808    244.5260   1.0923714099e+02   5.9938633950e+00    0.1175173   0.09359002  46.67 0.0001534732    1.017    0.017
        25  99.0000    137.9918    244.8321   1.0991361693e+02   6.5131914557e+00    0.2663074     0.169084  56.57  0.001639613    1.463    0.316
        26 -11.7047    130.3236    245.7045   1.1137657500e+02   7.5779247404e+00    0.3145637    0.1255949  37.84  0.001512341    2.269    0.559
        27 -10.9908    127.5343    242.4782   1.1151613728e+02   8.5048112624e+00    0.2024483    0.1471002  71.06 0.0002303486    1.470    0.320
        28 -10.6456    124.2374    240.1747   1.1185251041e+02   9.3771076692e+00    0.3469789    0.1509421  37.61  0.001556351    2.128    0.530
        29  -8.1533    207.5242    248.5312   9.8122924516e+01  -4.9376933585e+00    0.1158756   0.08966569  30.72 0.0008082566    1.075    0.069
        30 -10.9669    124.3363    245.8740   1.1245559630e+02   8.4745525140e+00    0.1466844    0.1039659 -44.39 0.0009497379    1.939    0.484
        31 -11.7768     13.7715    143.2092   1.2419705155e+02   4.3243108002e+01    0.2286633    0.1843629   4.09 0.0009538296    1.872    0.466
        32 -12.0829     17.5138    141.9966   1.2320605582e+02   4.3212102705e+01    0.2588072    0.1374786 -56.23 0.0008394547    1.816    0.449
        33 -11.4321    135.5682    249.5573   1.1087711210e+02   6.1922329236e+00    0.1227719    0.1028107  73.49 0.0008832571    1.291    0.226
        34 -12.1547    217.1364    140.3108   7.5987771855e+01   9.2687690292e+00    0.3024494     0.281477   8.69 0.0007855949    1.045    0.043
        35  -9.3864    102.1915    245.7098   1.1632625487e+02   1.1814041075e+01    0.1018082   0.06977077  72.42 0.0002601329    1.423    0.297
        36 -12.7190    216.8488    134.0768   7.4575191095e+01   1.0403937734e+01    0.4020197    0.3181413 -58.33  0.001604573    1.568    0.362
        37 -11.2206     84.7736    244.5128   1.1922823611e+02   1.4483741883e+01    0.1293612   0.08786197  51.23  0.000240877    1.176    0.149
        38 -10.6462     76.3584    244.3734   1.2065151481e+02   1.5653893065e+01    0.1058018   0.08243873  62.76 0.0002313315    1.076    0.071
        39 -10.3501     56.6427    244.4486   1.2395087284e+02   1.8189599612e+01    0.1050127    0.0781678  69.35 9.860737e-05    1.053    0.051
        40 -10.8887    190.2851    243.1777   1.0036710612e+02  -1.5990396169e+00    0.1395359    0.1165024  36.20 0.0002288819    1.128    0.113
        41  99.0000    117.9166    242.2624   1.1321096998e+02   1.0019151767e+01    0.2721318    0.1776704  69.46  0.001683426    1.639    0.390
        42 -10.8383     92.7546    243.1952   1.1773547317e+02   1.3581623758e+01    0.1040756   0.06381932  59.80 0.0002613185    1.350    0.260
        43 -11.5196     46.1264    242.4372   1.2553902292e+02   1.9808396279e+01    0.1453577    0.1111273  76.25 0.0003701251    1.135    0.119
        44 -12.3055    195.6631    240.3707   9.9011232182e+01  -2.0981882863e+00    0.2016584    0.1608143  32.98 0.0004556346    1.062    0.058
        45 -11.2682    144.2066    241.3127   1.0838204086e+02   6.0550393636e+00    0.2253254    0.1072426  40.65  0.001187354    1.708    0.414
        46 -10.6907     23.1198    111.7709   1.1813933526e+02   4.9726484017e+01    0.1812121    0.1417186  87.80 0.0004087753    1.220    0.180
        47 -11.7146     39.8922    105.0183   1.1220578006e+02   4.9810732360e+01    0.1973565    0.1621095 -68.90 0.0003884011    1.030    0.029
        48 -11.7163     27.5575    105.2817   1.1588636241e+02   5.0875256637e+01    0.3147976    0.1467916  41.23 0.0007816066    2.481    0.597
        49  99.0000    131.5471    240.0599   1.1052088725e+02   8.2527849047e+00     0.157774      0.10992 -80.72 0.0006771493    1.895    0.472
        50 -12.2741    186.0566    102.7962   7.2631816801e+01   2.3088614484e+01    0.3694758    0.2612523 -33.87 0.0008252119    1.389    0.280
        51 -11.2231     95.5396    239.1525   1.1687451852e+02   1.3853405817e+01    0.2513469    0.1367414  67.18  0.001412897    1.939    0.484
        52 -12.6056    182.4972     97.4784   7.1905554312e+01   2.4942704017e+01    0.5634317    0.2763083  56.20  0.002082121    2.214    0.548
        53 -10.8252     76.1885    239.1219   1.2025528439e+02   1.6564045537e+01    0.2732812    0.1515287  30.68     0.001512    2.459    0.593
        54 -10.4831     85.0579    239.4753   1.1874525970e+02   1.5286934237e+01    0.1514524   0.07527998  57.38 0.0008540024    1.714    0.416
        55 -11.5929     70.0321    238.4259   1.2125929644e+02   1.7504948111e+01    0.1495618    0.1148985  60.42 0.0003625401    1.093    0.085
        56 -11.2356    189.7500    237.8418   9.9696437682e+01  -8.2390376478e-01    0.1623032    0.1336404  18.69  0.000406123    1.147    0.128
        57 -12.2650    156.2084     87.8799   7.4901561913e+01   3.3143288415e+01    0.3381378     0.301353   1.42 0.0002605878    1.217    0.178
        58 -10.5682     88.9682    238.2230   1.1794806826e+02   1.4949680893e+01    0.2144156    0.1077931  54.04  0.001231188    1.621    0.383
        59 -12.4906    139.4704     80.7790   7.6790934389e+01   3.8483797518e+01    0.4531197    0.3533137  56.83  0.001259612    1.370    0.270
        60 -11.6960     60.7237     81.3523   1.0035389371e+02   5.2928281878e+01    0.2491715    0.2105085 -47.78  0.000284405    1.019    0.019
        61  99.0000    107.1609    240.1832   1.1491269862e+02   1.1976447134e+01     0.281592    0.1658139  38.28  0.001680888    1.605    0.377
        62 -11.0201    214.5815    234.4370   9.4773627044e+01  -4.3573901428e+00     0.205553    0.1919629  -2.76  0.001170598    1.332    0.249
        63 -10.2781    203.0424    236.3084   9.7098429054e+01  -2.7615432926e+00    0.1488787    0.1237038  21.60 0.0006796692    1.075    0.069
        64 -11.4320    111.8919    250.5246   1.1510558714e+02   9.6333480112e+00    0.1615759    0.1352315  39.74 0.0007997396    1.306    0.234
        65 -10.6155    106.1438    234.8653   1.1455251304e+02   1.3009675021e+01    0.1271745    0.1119393  58.81  0.000263142    1.161    0.139
        66 -11.7442    130.5665     38.2739   6.4597296666e+01   4.7827815614e+01    0.2775273     0.239948  16.30 0.0007230334    1.158    0.137
        67 -12.0909    142.0254     32.4793   5.9944077603e+01   4.5804724423e+01    0.5152172    0.2143227 -26.69  0.001855296    2.504    0.601
