#   1 NUMBER                 Running object number                                     
#   2 MAG_AUTO               Kron-like elliptical aperture magnitude                    [mag]
#   3 X_IMAGE                Object position along x                                    [pixel]
#   4 Y_IMAGE                Object position along y                                    [pixel]
#   5 X_WORLD                Barycenter position along world x axis                     [deg]
#   6 Y_WORLD                Barycenter position along world y axis                     [deg]
#   7 A_WORLD                Profile RMS along major axis (world units)                 [deg]
#   8 B_WORLD                Profile RMS along minor axis (world units)                 [deg]
#   9 THETA_WORLD            Position angle (CCW/world-x)                               [deg]
#  10 FWHM_WORLD             FWHM assuming a gaussian core                              [deg]
#  11 ELONGATION             A_IMAGE/B_IMAGE                                           
#  12 ELLIPTICITY            1 - B_IMAGE/A_IMAGE                                       
         1 -12.6727    211.7307     44.4376   3.9704378774e+01   2.7743656940e+01    0.9780822    0.4539141 -54.79  0.004625812    2.137    0.532
         2 -14.0794    225.0879     32.7803   3.5865612135e+01   2.6464730940e+01     1.395302    0.9945267  38.07  0.008356087    2.130    0.530
         3 -13.1596    248.4870     12.5996   3.0155357792e+01   2.4270336425e+01    0.9362901    0.3450471 -31.76  0.003811441    2.609    0.617
         4 -11.7059      2.3603     21.2015   9.5240774862e+01   7.3018849062e+01     0.450821    0.1828849 -58.35  0.002129618    2.641    0.621
         5 -12.2143      3.1466      4.0978   8.6290387673e+01   7.5877441693e+01    0.5730015    0.4153158 -18.44  0.003965604    1.102    0.093
         6 -10.3724    189.5915     15.2227   3.4977357131e+01   3.5964133441e+01    0.2287331    0.1823118  67.12 0.0007455476    1.290    0.225
         7 -14.6576     65.2381    244.6937   1.1076627474e+02   1.4791361598e+01     7.638368     1.886448  23.93   0.01912134    8.261    0.879
         8 -12.6261      2.6950    244.4009   1.2370715211e+02   2.1285388420e+01     2.760659    0.3644947 -77.85  0.009268032    6.527    0.847
         9 -14.1510     98.7165    226.2686   1.0140759983e+02   1.4134065011e+01      7.01209     0.391519  39.99   0.01605413    7.761    0.871
        10 -13.9845     13.5518    206.3942   1.1964699751e+02   2.8237113606e+01     1.212609    0.6009272  13.32  0.004980091    2.716    0.632
        11 -14.2111     33.8002    191.1452   1.1362557268e+02   2.9842605935e+01     3.206741     1.244698  67.32    0.0111361    3.896    0.743
        12 -10.0221     43.3870    218.8392   1.1357596514e+02   2.2555666244e+01    0.3111936    0.1593695  75.40  0.001475165    2.314    0.568
        13 -10.4475     16.9769    218.5635   1.1955965621e+02   2.5267967558e+01    0.2426735    0.1945049 -17.46  0.001355347    1.778    0.438
        14  -9.5324    191.8233    192.6558   7.5432261246e+01   6.6801835058e+00    0.2610529    0.1542131 -61.01  0.001070083    3.376    0.704
        15  -9.5947     51.1150    185.2711   1.0852245939e+02   2.9368552210e+01    0.2646359    0.1508132 -84.24  0.001225502    1.947    0.486
        16  -8.7608    110.7911    167.7856   8.9673161999e+01   2.5081041095e+01    0.1978255    0.1718636  72.92 0.0004696252    1.325    0.245
        17 -11.1947     67.8067    163.1623   1.0098616553e+02   3.2744035110e+01    0.3013244    0.2787672 -11.98 0.0004014332    1.198    0.165
        18 -12.6834     53.0464    115.6032   9.7407529802e+01   4.6863745110e+01     2.220831    0.6300267 -68.93   0.00494226    7.078    0.859
        19 -13.3705     68.0653    144.1647   9.7801108667e+01   3.7534338549e+01      1.42983    0.8007514  66.34   0.00248745    2.782    0.640
        20 -11.4925     33.4720    157.5737   1.1037721302e+02   3.8162966371e+01    0.4209576    0.2706742 -86.91  0.002107569    1.564    0.360
        21 -13.9796     25.6364    198.2091   1.1623376937e+02   2.8992332737e+01     1.204855    0.7547014  58.51  0.003480738    1.464    0.317
        22  -9.5158     95.7564    139.8271   8.8444730727e+01   3.4337193180e+01     0.313196    0.2364882 -23.88  0.001338738    1.568    0.362
        23  -8.6496    143.4169    143.5504   7.6219207666e+01   2.4704609043e+01    0.1473931    0.1454691 -48.33 0.0007299582    1.086    0.079
        24 -11.9981     79.8147    141.2886   9.3602106918e+01   3.6549652369e+01     0.319332    0.2724571 -43.94 0.0004846516    1.179    0.152
        25 -13.4753     53.5624    159.4231   1.0463849091e+02   3.5503315515e+01    0.5573304    0.3901803 -35.58  0.001857896    1.680    0.405
        26 -10.3584     92.1775    143.1308   9.0197365150e+01   3.4121503243e+01    0.3647496    0.2863115 -36.99 0.0008887266    1.342    0.255
        27  -8.4193    171.2209    134.0248   6.7651697340e+01   2.1280332100e+01    0.1912652    0.1149919 -40.87 0.0003903242    1.583    0.368
        28 -10.6373    106.0044    131.1215   8.3487926729e+01   3.4639983333e+01    0.3762022    0.3294273 -10.54 0.0009710364    1.244    0.196
        29  -9.0836    158.6840    130.6972   6.9636931439e+01   2.4430126039e+01     0.151979     0.116692  -1.98 0.0005706517    1.620    0.383
        30 -11.2587     67.3396    127.6692   9.4917440395e+01   4.1859138342e+01    0.5911954    0.2960023 -73.25  0.002127249    2.714    0.632
        31  -9.7158     37.9791    162.7911   1.0965218699e+02   3.6383436317e+01    0.2356634    0.1273569  52.10 0.0006540229    1.931    0.482
        32 -10.4330     92.6239    127.7163   8.6757568186e+01   3.7846577298e+01    0.2943591     0.256219 -12.90  0.000662438    1.257    0.204
        33  -9.2539    113.9079    125.2177   7.9803035073e+01   3.4548179955e+01    0.2645467    0.1836331   4.39   0.00107804    2.096    0.523
        34  -9.5452    104.0472    119.8724   8.1398803491e+01   3.7674101566e+01    0.2195992    0.2164969 -19.07 0.0002980577    1.012    0.012
        35 -10.2709     23.5716    117.0044   1.0831875554e+02   4.9542299681e+01     0.195688    0.1884656 -12.95 0.0004804037    1.137    0.120
        36  -9.8414    204.8807    110.7815   5.5961689417e+01   1.9020432052e+01    0.3404675    0.2399523  30.80  0.001764732    1.762    0.432
        37  -9.8399    244.3298    109.6670   5.0031693713e+01   1.2168408771e+01    0.1266371   0.08529282 -60.00 0.0007052002    1.722    0.419
        38  -8.3139    119.5924    103.2947   7.2544156493e+01   3.8334191517e+01    0.1612482    0.1230359  80.43 0.0002389297    1.829    0.453
        39 -12.8317     75.8857    156.5338   9.7551531783e+01   3.3286459855e+01     1.564856    0.8078222  57.97  0.001301476    2.704    0.630
        40 -10.8575    163.1814     84.1593   5.6879058707e+01   3.2447280509e+01    0.3468407    0.2539531  26.44  0.001586798    1.761    0.432
        41  -8.8885    184.5014     77.4871   5.1311391397e+01   2.8819450029e+01    0.1365472    0.1306914 -48.18 -3.218764e-05    1.066    0.062
        42 -11.0221     13.1862     60.5651   1.0169845555e+02   6.4162607731e+01    0.3208409    0.1966983 -46.53 0.0008256959    1.364    0.267
        43 -11.9813    166.2937    223.2493   8.5900250798e+01   5.1403184144e+00    0.4933416    0.3469714  10.53  0.002835591    1.349    0.259
        44 -12.6028    204.9984     49.6315   4.1647183566e+01   2.8479401345e+01    0.9502843    0.5782198 -59.39  0.005058453    1.620    0.383
        45 -11.3151     14.9212    248.4865   1.2146712732e+02   1.9402645822e+01    0.3722084    0.2613602  74.87   0.00106866    1.272    0.214
        46  -9.5557     22.6801    243.9767   1.1969474408e+02   1.9530808911e+01    0.2345456    0.1344125  34.48  0.001061116    1.509    0.337
        47 -15.2651      4.5971    177.0441   1.2006995188e+02   3.5769669544e+01     8.717172     1.347025 -77.35   0.02541479    5.452    0.817
        48 -11.0320     16.3561     46.0208   9.5754541011e+01   6.7086679398e+01    0.3250824    0.2329992  36.17 0.0006714619    1.677    0.404
        49  -8.4087     94.7119     46.6771   6.1786252423e+01   5.4429328034e+01    0.1442893    0.1064822  15.62 0.0002359144    1.604    0.377
        50 -10.2168     22.4828    223.2983   1.1861170822e+02   2.3744011641e+01    0.2589494     0.155336  54.45  0.001349817    1.412    0.292
        51 -11.1613    123.7885     31.7303   4.9037606715e+01   4.9728626079e+01    0.5446401    0.3241666 -75.17  0.001075065    2.660    0.624
        52 -10.1634    117.6912     26.2937   4.8424267056e+01   5.1836710181e+01    0.2485004    0.2160501 -87.98 0.0004915831    1.221    0.181
        53  -9.8865    115.2729     23.6708   4.8001743919e+01   5.2711578944e+01    0.2305689    0.2048879 -77.25 0.0004373396    1.223    0.182
        54 -12.1952     48.9391    179.0263   1.0841440720e+02   3.1137487038e+01    0.9172252     0.526922 -19.57   0.00133224    3.115    0.679
        55 -11.7221     55.9715    172.9686   1.0573905440e+02   3.1804360578e+01    0.3183814     0.267647 -33.50 0.0004703093    1.369    0.270
        56  -9.7843     58.8702    230.3055   1.1097081157e+02   1.8387738295e+01     0.302462    0.1671833 -72.46  0.001450586    1.994    0.498
