#   1 NUMBER                 Running object number                                     
#   2 MAG_AUTO               Kron-like elliptical aperture magnitude                    [mag]
#   3 X_IMAGE                Object position along x                                    [pixel]
#   4 Y_IMAGE                Object position along y                                    [pixel]
#   5 X_WORLD                Barycenter position along world x axis                     [deg]
#   6 Y_WORLD                Barycenter position along world y axis                     [deg]
#   7 A_WORLD                Profile RMS along major axis (world units)                 [deg]
#   8 B_WORLD                Profile RMS along minor axis (world units)                 [deg]
#   9 THETA_WORLD            Position angle (CCW/world-x)                               [deg]
#  10 FWHM_WORLD             FWHM assuming a gaussian core                              [deg]
#  11 ELONGATION             A_IMAGE/B_IMAGE                                           
#  12 ELLIPTICITY            1 - B_IMAGE/A_IMAGE                                       
         1 -11.2451     78.8933     34.7680   3.0340488950e+01   6.0084249627e+01    0.7573983    0.5489225 -39.17  0.003930075    1.478    0.323
         2 -11.9802    104.3839     13.5918   1.5514327020e+01   5.6387690383e+01    0.4946254     0.367376  -7.73  0.002731562    1.759    0.431
         3 -12.3945    105.7902     20.3021   1.7880185034e+01   5.5322902499e+01    0.3629103    0.3166146 -39.38 0.0003834083    1.245    0.197
         4 -10.3951     59.9959     22.5054   3.1054030904e+01   6.6280690238e+01    0.4047739    0.1919457 -33.13  0.001748596    2.336    0.572
         5 -11.8068     26.7278     28.4851   5.2192397979e+01   7.2034556048e+01    0.6201085    0.4649923 -29.15  0.003350435    1.427    0.299
         6 -11.8447     20.3870     22.0379   5.3288137032e+01   7.4235230852e+01    0.5677048    0.4220659 -26.63  0.001765126    1.429    0.300
         7 -11.9452     35.4447     18.8219   4.0799682414e+01   7.2124987612e+01    0.6566731    0.4232716 -20.07  0.002670018    1.978    0.494
         8 -11.5183      6.8252     10.1639   5.8118188964e+01   7.8292718969e+01    0.6046654    0.4208949  37.03   0.00296262    1.460    0.315
         9 -10.9404      9.3978     19.6603   6.1510196785e+01   7.6174774296e+01    0.4782879    0.2574931   5.05  0.001118479    2.371    0.578
        10 -10.7858     12.8509      8.1657   5.0517054304e+01   7.7803508051e+01    0.3778813    0.2620772 -58.31  0.001505327    2.010    0.502
        11 -12.1424     16.9526     12.1565   4.9725726589e+01   7.6506242857e+01    0.8093337    0.3959808 -28.80   0.00243654    2.772    0.639
        12 -12.0633     23.0609     10.8945   4.3835472454e+01   7.5671549413e+01    0.5423496    0.4082039  10.67  0.002797109    1.450    0.310
        13 -10.9614     68.2292     19.0838   2.6384231076e+01   6.4773507583e+01    0.3643478    0.2937146 -67.34  0.001317251    1.401    0.286
        14 -11.8916    165.2065     17.7191   9.7467421040e+00   4.1528179747e+01    0.4448093    0.2792762  48.64  0.001743458    2.093    0.522
        15 -11.4182     85.9531     14.0431   1.9223889386e+01   6.0967924559e+01    0.6930038    0.3936586  24.84  0.002942622    2.855    0.650
        16 -10.4977     89.4997      8.4489   1.6002066750e+01   6.0629239496e+01    0.3021344    0.2281858 -29.44 0.0009956838    1.484    0.326
        17 -10.6335    137.0825     14.5089   1.1474527518e+01   4.8284812254e+01    0.3365356    0.1948301  86.72  0.001117339    1.628    0.386
        18 -11.0354    126.9855     16.7030   1.3375114365e+01   5.0484053979e+01    0.5042357    0.2357927 -25.37  0.002244531    2.400    0.583
        19 -11.9851    131.8806     15.7779   1.2469261085e+01   4.9397713018e+01    0.5358263    0.3700223 -81.85  0.002958181    1.335    0.251
        20 -10.4054    225.6860     13.6879   5.1048288547e+00   3.0155123156e+01    0.1909913     0.132512 -54.74 0.0005104772    1.046    0.044
        21 -12.2118     48.9889     13.0007   3.0208038423e+01   7.0033406133e+01    0.6724824    0.2789366  56.90  0.002819071    2.145    0.534
        22 -11.1392    192.1628      9.3192   5.7999704657e+00   3.6765994780e+01    0.4756086    0.2631499  -9.72  0.002408068    3.102    0.678
        23 -11.8347    212.2628      9.2651   4.7850831460e+00   3.2959527537e+01    0.4710068    0.2748959 -19.95  0.002507308    2.139    0.532
        24  -9.8338    120.1282     11.8289   1.2571891110e+01   5.2651917079e+01    0.1743401    0.1427822  57.55 0.0005042078    1.310    0.236
        25 -10.3008    164.7985      4.5941   6.2372058029e+00   4.2912268699e+01    0.2840949    0.1971612  18.98  0.001585888    2.423    0.587
        26 -10.8742    169.0253      9.5717   7.2811681565e+00   4.1523223975e+01    0.3616228    0.1823464  62.82   0.00146082    2.127    0.530
        27 -10.1708    163.5965      9.8032   7.7284290706e+00   4.2682146125e+01    0.2559424    0.1426335 -43.90  0.001010493    1.526    0.345
        28 -11.3022    152.8988      8.8833   8.2934405006e+00   4.5161374871e+01    0.3261188    0.2961932 -14.81  0.001975498    1.409    0.290
        29 -10.1178    145.3605      8.5507   8.8289906432e+00   4.6924506574e+01    0.3380275    0.1930068  -1.66  0.001517046    3.067    0.674
        30  -9.9968     64.4920     10.2720   2.2949104796e+01   6.6679260876e+01    0.2462107    0.1634504  63.03 0.0006091373    1.317    0.241
        31 -10.6249     62.0697      6.3916   2.1545997002e+01   6.7659682834e+01     0.418388    0.2179849  69.41   0.00193413    1.779    0.438
        32  -9.9368      1.1777      8.3244   6.3263344208e+01   7.9275019912e+01    0.3261242   0.07975753 -53.46  0.001184619    3.835    0.739
        33 -10.4823      2.0584      2.1271   5.7495591972e+01   8.0301933654e+01    0.2783542    0.1790453 -24.96   0.00135751    1.655    0.396
        34  -9.7077     78.0279      7.6752   1.8027531619e+01   6.3585683230e+01    0.1959048    0.1511987  72.76 0.0005406859    1.136    0.120
        35 -11.4425    185.1779      6.8171   5.5860648035e+00   3.8407220167e+01    0.2568915    0.1680425 -78.58  0.001666078    1.347    0.257
        36  -9.9756    231.7734      6.3924   3.3961207225e+00   2.9838095166e+01    0.1391172   0.08803207 -82.41 0.0005543444    1.536    0.349
        37 -10.6683    233.6601      2.6396   2.5937176973e+00   2.9878142876e+01    0.2776109    0.1285666 -52.65  0.001840826    1.505    0.335
        38 -10.4903    176.6549      5.7960   5.8192695531e+00   4.0262651679e+01    0.2541319    0.1454678 -70.49 0.0009829765    1.518    0.341
        39  -9.8824    122.0302      5.4611   1.0114220696e+01   5.2778537761e+01    0.1873296    0.1618382 -48.01 0.0004925227    1.202    0.168
        40 -11.3473    137.8634      4.1961   8.1449862976e+00   4.9080610336e+01    0.3744181    0.2007506  80.80 0.0004250054    1.678    0.404
        41 -11.9173    133.2001      2.5769   8.0397688871e+00   5.0329957891e+01     0.703615    0.2590994  78.26  0.003052869    2.439    0.590
        42  -9.8856    116.0000      4.4594   1.0441024102e+01   5.4348797638e+01    0.2959138    0.1637636 -12.88  0.001435542    2.406    0.584
        43 -10.7460    113.0094      2.1815   9.9532240513e+00   5.5282132695e+01    0.3432189    0.2049956 -63.79   0.00180612    1.622    0.384
        44 -10.3679     73.1915      3.6852   1.7147529198e+01   6.5155833372e+01    0.5116437    0.1942756  55.03  0.002154423    2.230    0.552
        45 -10.9132     41.5552      3.7465   2.7530764448e+01   7.2769956248e+01    0.4281949    0.2154187  38.32  0.001965957    2.090    0.522
        46 -10.0075    243.6388      4.3372   2.5948394282e+00   2.8104721394e+01    0.1722508    0.0815834 -47.03  0.000824208    1.398    0.284
        47  -9.1331    245.7588      1.3252   1.9668466311e+00   2.8050628751e+01    0.1106509   0.08077878  87.00 0.0002495804    1.568    0.362
        48 -10.3328    218.6795      3.8369   3.3691683326e+00   3.2329458718e+01    0.2171797    0.1485243 -84.81 0.0008600703    1.421    0.296
        49 -10.3267    223.7336      2.8880   2.9860298822e+00   3.1534642878e+01    0.1990754    0.1381946 -58.32 0.0003564662    1.065    0.061
        50 -10.8617    206.0563      2.0246   3.4830815222e+00   3.4791826676e+01    0.4014695    0.1364196 -84.91    0.0019103    3.195    0.687
        51 -10.1817    105.0797      1.7219   1.0745923424e+01   5.7295005331e+01    0.2687581    0.1515115 -88.29  0.001006894    1.681    0.405
        52 -10.0029     64.3284      2.1157   1.8508041241e+01   6.7494357492e+01    0.1810072    0.1595665  49.46 0.0009092368    1.129    0.115
        53  -9.5962     12.9105      2.4766   4.5805209057e+01   7.8678941760e+01    0.1944614     0.111098  38.46 0.0006146773    1.553    0.356
        54  -9.6892    152.3195      1.4128   6.1856567912e+00   4.5977005532e+01    0.2040031    0.1029294  77.66 0.0006078786    1.815    0.449
        55  -9.8995     49.3375    112.1042   6.7475133998e+01   4.8601978877e+01    0.3070763    0.2150957  36.31 0.0007686931    1.393    0.282
        56  -9.3580    249.5014    250.4651   4.4154835538e+01  -2.5232643920e+00   0.09631144   0.06065862 -12.47 0.0008096145    1.014    0.013
        57 -11.0196     15.7109    109.8138   8.1742520559e+01   5.2843004818e+01     0.497458     0.278442  13.04  0.001831579    1.871    0.466
        58 -10.9908    104.4720    122.5103   5.0539798109e+01   3.6848461942e+01    0.3897581     0.349993  51.24  0.001217305    1.149    0.129
        59 -11.6434     79.8989    108.2066   5.4912671019e+01   4.4737790582e+01     0.476417    0.3450202  34.21 0.0008099811    1.382    0.276
        60  -9.8056     85.8558    103.7631   5.1732812959e+01   4.4718928352e+01    0.2294912    0.2111387  -6.56 0.0005993707    1.193    0.162
        61 -11.0816     52.1064     99.5804   6.3546254376e+01   5.1545457003e+01    0.5536764    0.3345065 -32.19  0.002212935    2.101    0.524
        62 -11.8763      9.0115     96.9377   8.3262530525e+01   5.6923769972e+01    0.4815551    0.4298098  40.54 0.0005652573    1.151    0.131
        63 -12.2133    247.1595     96.7940   1.9855919306e+01   1.7038582511e+01    0.5872077    0.3122183 -16.88  0.002991265    3.153    0.683
        64 -12.2128     75.8395     79.5321   4.8313366308e+01   5.2289468305e+01    0.9536825    0.6779963 -82.93   0.00411905    1.998    0.499
        65 -10.2821     77.2991     96.7556   5.2847984124e+01   4.7998686077e+01    0.5222405    0.2547377  42.11  0.001850659    2.011    0.503
        66 -11.1230     79.3401     93.0572   5.1083041032e+01   4.8492797580e+01    0.7267342    0.5281402  54.11  0.003367706    1.456    0.313
        67 -10.1944     30.5673     96.2786   7.2585361112e+01   5.5239199109e+01    0.3256997    0.2163875 -86.81  0.001147112    1.735    0.424
        68 -12.0597    126.0109     94.5656   3.7716009408e+01   3.8631448503e+01    0.2558233    0.2367923 -60.07 0.0001880926    1.046    0.044
        69 -11.8868     42.2144     91.1903   6.5934681238e+01   5.5169645716e+01    0.6826288    0.4720235  79.94  0.001160039    1.893    0.472
        70 -10.3176     35.6261     92.5823   6.9378579607e+01   5.5653420464e+01    0.3082856    0.2548894  70.75  0.001058472    1.339    0.253
        71 -11.6642     45.1828     84.3992   6.2791140187e+01   5.6511784160e+01    0.5377331    0.4884683  14.77  0.002029919    1.114    0.103
        72 -10.0607     37.1851     85.6831   6.6991970831e+01   5.7289768107e+01    0.3518074    0.2266839   6.67  0.001366422    1.857    0.461
        73 -11.7764     22.2637     93.9533   7.6196421566e+01   5.6720435586e+01    0.6074236    0.3497297  49.66  0.001373937    1.909    0.476
        74 -10.2717     19.4965     86.1092   7.6151097763e+01   5.9121551157e+01    0.5282916    0.2422676  10.36  0.001988067    2.464    0.594
        75 -10.2450     25.6660     87.8407   7.3288471371e+01   5.8057549905e+01    0.5078633    0.3010777  69.31  0.001601357    2.259    0.557
        76 -10.2767     28.3311     84.5854   7.1206827663e+01   5.8648152561e+01    0.4692118    0.3196822  44.01  0.001689839    1.527    0.345
        77 -12.0507     67.4878     95.3369   5.6158791520e+01   5.0122763128e+01    0.5777391    0.4493257  29.32  0.001726852    1.311    0.237
        78  -9.4591    121.6233     93.2491   3.8428127637e+01   3.9810462495e+01    0.2059373    0.1363227 -35.84 0.0005835656    1.604    0.377
        79 -10.6882     98.3482     91.0290   4.4208752598e+01   4.5147392634e+01    0.2717324    0.2169925  48.31 0.0002779275    1.248    0.198
        80  -9.5825     50.5375     91.5059   6.2219822228e+01   5.3883246939e+01     0.272855    0.1532367  15.97  0.001011892    2.259    0.557
        81 -10.6082     90.3798     86.9139   4.5513653080e+01   4.7693562507e+01    0.5726846    0.3098456 -44.95  0.002335936    1.887    0.470
        82 -11.6085      7.2763     88.4156   8.3007563349e+01   5.9399019056e+01     0.650064     0.433008  -0.34  0.002174702    1.601    0.375
        83  -9.9504     67.0041     88.5097   5.4445312538e+01   5.1879336018e+01    0.2885656    0.2110749 -36.29 0.0007788403    1.516    0.341
        84 -10.2637     52.0896     87.0021   6.0325036149e+01   5.4791934778e+01    0.2225226    0.2196168 -57.83 0.0003269897    1.028    0.027
        85 -10.1187    143.1840     84.5049   3.1257477479e+01   3.6914567858e+01    0.2318063    0.1800189 -43.97 0.0003140719    1.212    0.175
        86 -12.2582    247.4106     76.4550   1.6047566926e+01   1.9586907561e+01    0.3757057    0.2384946 -52.32  0.002684262    1.346    0.257
        87 -10.2374    111.8621     82.6833   3.7924054802e+01   4.4003095453e+01    0.4665172    0.2017198  56.27  0.001671153    2.648    0.622
        88  -9.3586    103.3754     80.1557   3.9495001887e+01   4.6357641159e+01     0.213019    0.1368673 -55.42 0.0005840153    1.660    0.398
        89  -9.4815     92.4820     71.5138   4.0001406460e+01   5.0482369997e+01    0.2195773     0.143179 -55.97 0.0007672608    1.668    0.401
        90 -10.8766     89.2783     77.6772   4.3026460212e+01   4.9912346408e+01    0.4736702    0.3253305  53.24  0.001431886    1.466    0.318
        91 -10.4662     94.5582     76.2491   4.0893025942e+01   4.9071357217e+01    0.3440659    0.2966417  48.80 0.0009975755    1.146    0.128
        92 -11.5150     52.9389     74.3124   5.6174299867e+01   5.7771544156e+01    0.6521396    0.3390458 -63.09  0.002513871    2.300    0.565
        93 -10.1044     58.1968     77.4920   5.4813321001e+01   5.6099667217e+01    0.2689517    0.2139875 -55.84 0.0005505648    1.293    0.227
        94 -10.8906      2.0063     71.3416   8.3472897661e+01   6.4335652634e+01    0.4389083    0.2306265 -67.49  0.001963322    1.753    0.429
        95 -10.0705     46.9046     75.5471   5.9416306504e+01   5.8466735892e+01    0.3063067    0.1967213 -42.59  0.001120983    1.639    0.390
        96 -11.2064     14.3304     74.7727   7.6751923170e+01   6.2616908014e+01    0.4012213    0.3095452  83.64  0.001335031    1.455    0.313
        97  -9.6940    102.9943     74.6934   3.7905931685e+01   4.7527380662e+01    0.2173766    0.1941945  63.28  0.001162256    1.101    0.092
        98 -10.0136     67.3360     81.6418   5.2266904561e+01   5.3453065486e+01    0.4464959    0.3247368  -8.99  0.001934614    1.984    0.496
        99  -9.7765     24.8497     73.4863   7.0421088177e+01   6.1956858179e+01    0.2595451    0.1648286 -58.21  0.001196187    1.525    0.344
       100 -10.6636     80.9658     72.2819   4.4086721402e+01   5.2811943625e+01    0.3511749    0.2257267 -36.38  0.001541415    1.756    0.430
       101 -10.6014     34.9573     71.7645   6.4376206637e+01   6.1161632896e+01    0.4591804    0.2046355  39.35  0.001687109    2.221    0.550
       102  -8.9645    154.3206     72.2846   2.5957370435e+01   3.6629698011e+01    0.1271299    0.1073865  16.84 0.0003192801    1.592    0.372
       103 -10.5181    122.6510     68.8930   3.1134318367e+01   4.4175138410e+01    0.3931845    0.2253845  50.92  0.001441281    1.775    0.436
       104 -11.9046     40.9301     70.0925   6.0714225950e+01   6.0722071034e+01    0.5506303    0.3765601 -51.42 0.0007845235    1.467    0.318
       105  -9.7767     14.2304     67.4251   7.5199575423e+01   6.4561730154e+01    0.3720969    0.1265653  21.62  0.001321952    2.771    0.639
       106 -10.0016     96.9318     65.6729   3.6700884631e+01   5.0621732778e+01    0.2657782    0.2400312 -54.91 0.0002694183    1.119    0.107
       107 -11.0232     92.3290     62.6178   3.7025492721e+01   5.2239902014e+01    0.3888916    0.2760009  67.55 0.0008666909    1.539    0.350
       108 -10.8567     13.7409     56.8200   7.2813396838e+01   6.7313186923e+01    0.5180836    0.2384793 -37.68  0.001197464    2.349    0.574
       109 -12.3149      6.0773     61.9895   7.9185424126e+01   6.6576414875e+01    0.7179112     0.431384   5.81  0.003398526    1.709    0.415
       110 -10.8085      9.4959     56.5050   7.5611091463e+01   6.7743547325e+01    0.3630001    0.2667455  47.68  0.001297043    1.522    0.343
       111 -10.0582    202.2106     64.8655   1.7803648827e+01   2.8314437731e+01    0.1895135    0.1456841 -78.62 0.0005852273    1.376    0.273
       112  -8.9329     51.6648     65.7290   5.3902798399e+01   5.9994393317e+01    0.1496536    0.1166815  -3.89 0.0003952383    1.596    0.374
       113 -10.0608    158.7721     63.0443   2.2783635117e+01   3.7123810226e+01    0.2337303    0.1831791  54.85 0.0003681845    1.419    0.295
       114  -9.1874    105.3082     63.6664   3.3696862739e+01   4.9075260135e+01    0.1526718    0.1117645 -77.96 0.0004125144    1.671    0.402
       115  -9.9733     50.7992     56.4427   5.0891618469e+01   6.2204746868e+01    0.4180552    0.2207183 -39.26  0.001706004    2.145    0.534
       116 -10.9752     40.5750     56.9206   5.6371370983e+01   6.3872782156e+01    0.4142826    0.2349178  43.75  0.001678561    1.787    0.440
       117 -10.9216     43.3106     61.7595   5.6677196134e+01   6.2324803751e+01    0.3732631    0.2693141 -62.59  0.001803719    1.535    0.349
       118 -11.8871     46.2470     59.4293   5.4309079297e+01   6.2361317319e+01    0.9434017    0.3096502  46.96  0.002845016    3.736    0.732
       119  -9.6255     84.5105     61.9809   3.9292006257e+01   5.4119199988e+01     0.227326     0.147279 -45.12 0.0007087706    1.595    0.373
       120  -9.0354    151.2699     61.3032   2.3472926056e+01   3.9008083904e+01    0.1227674    0.1071091  11.00 0.0001904138    1.532    0.347
       121  -9.7838    113.9110     60.9909   3.0663073869e+01   4.7551394144e+01    0.2263385    0.2123863 -71.80  0.001182317    1.035    0.034
       122  -9.5927     65.1542     60.4921   4.5959642006e+01   5.8561204967e+01    0.3835633     0.166328 -53.48  0.001373443    2.700    0.630
       123 -10.6880     31.3868     53.1894   6.0261361167e+01   6.6126711566e+01     1.127423    0.4341077  19.89  0.003449731    3.962    0.748
       124  -9.6107     29.5265     60.4842   6.3936763469e+01   6.4663191444e+01    0.3256457    0.2332514 -44.09   0.00137631    1.398    0.285
       125 -10.0652     26.0158     59.4932   6.5730050660e+01   6.5349246918e+01    0.4236003    0.2603899  14.87  0.001922821    1.732    0.423
       126  -9.8985    124.5833     56.2550   2.6794688907e+01   4.5843278945e+01    0.2408068    0.1865546 -22.29 0.0007601946    1.567    0.362
       127 -10.6451    119.8511     57.2391   2.8102967016e+01   4.6790638690e+01    0.5522488    0.3106431 -85.85  0.001995379    3.248    0.692
       128 -11.8326     76.2567     53.1306   3.8829570793e+01   5.7628779490e+01    0.5549375      0.42847 -30.15 0.0008355609    1.476    0.322
       129 -11.3747     72.8588     47.5255   3.7813877188e+01   5.9403657032e+01    0.7729636    0.3132654 -51.96   0.00185862    3.269    0.694
       130  -9.3134    136.2334     58.5120   2.5239276131e+01   4.2799555513e+01    0.1843997    0.1268097  50.40 0.0008618205    1.576    0.365
       131  -9.9050     91.6633     57.2813   3.5330845755e+01   5.3372021121e+01    0.2810255    0.1759104 -58.18  0.001232612    1.869    0.465
       132 -10.4407     87.9527     56.0541   3.6021852814e+01   5.4446321187e+01    0.5049585    0.2090369 -32.38  0.001698143    3.299    0.697
       133 -10.1391    156.4275     54.6521   2.0856976834e+01   3.8865953336e+01    0.4662625    0.2324428 -62.04  0.001982623    2.474    0.596
       134 -10.6253    154.9963     49.1520   1.9539300405e+01   3.9957340660e+01    0.2239756    0.1795625 -35.93 0.0004105117    1.278    0.218
       135 -10.7693     25.4059     55.7263   6.4865177552e+01   6.6333277246e+01    0.4479486    0.3081887 -21.49  0.001781167    1.665    0.400
       136  -9.6132    100.2727     55.0771   3.2094107096e+01   5.1752807236e+01    0.2010836    0.1827075 -73.20  0.000422677    1.093    0.085
       137  -9.8441     55.4871     50.4719   4.6244623074e+01   6.2541525218e+01    0.2466013    0.1706057  41.70 6.504099e-05    1.372    0.271
       138  -9.6810     52.0087     48.4449   4.7041965561e+01   6.3628703775e+01    0.2231905    0.1969578   5.61 0.0005232027    1.235    0.191
       139 -10.4730     60.4918     51.9885   4.4616551928e+01   6.1231124101e+01    0.4997464    0.2040421 -49.69   0.00181745    2.724    0.633
       140 -10.4207     60.9540     46.6976   4.2201203954e+01   6.2149172666e+01    0.4775991    0.3374431  11.48   0.00214363    2.088    0.521
       141  -9.9939     10.9266     51.5357   7.3257475635e+01   6.8868413795e+01    0.2284113    0.1904134  85.22 0.0003377859    1.410    0.291
       142 -10.3022    243.5214     51.4587   1.1587246987e+01   2.3164503734e+01    0.1336588    0.0896845 -78.00 6.231118e-05    1.646    0.392
       143  -9.5230    239.9975     51.2638   1.1784864224e+01   2.3724742931e+01    0.1480694    0.1133825 -52.69 0.0006423415    1.085    0.078
       144 -10.2554    144.9254     50.4558   2.1393026979e+01   4.2028071916e+01    0.2316004    0.1858566 -32.99  0.001324029    1.327    0.247
       145  -9.8124    122.9517     44.5189   2.3325535607e+01   4.8006922812e+01    0.2811962    0.1673661  66.03 0.0007501354    1.631    0.387
       146 -11.1678    111.3932     39.9645   2.4065902462e+01   5.1444222813e+01    0.6560248    0.5734023 -34.70  0.003788963    1.255    0.203
       147 -10.1393    112.5254     50.5451   2.7502718788e+01   4.9590636573e+01    0.2747743    0.2498188  34.17  0.001036048    1.282    0.220
       148 -11.6961    117.3927     45.4307   2.4721716988e+01   4.9204785478e+01    0.5520105    0.4448667 -22.21  0.002445462    1.484    0.326
       149 -11.9918    119.4540     38.2281   2.1872068758e+01   4.9729735199e+01    0.6378207    0.3172784 -44.53  0.002854001    1.959    0.490
       150  -9.3189    189.1587     49.7739   1.5658748565e+01   3.2759479523e+01    0.1441721    0.1366706 -36.09 0.0003188759    1.267    0.211
       151 -10.5662     46.8475     48.8492   4.9801627008e+01   6.4525492120e+01    0.3224108    0.2702607  10.46 0.0006683366    1.303    0.233
       152 -11.8290     42.6631     44.5995   5.0190198597e+01   6.6153276176e+01    0.7010241    0.4846937  38.31  0.002094769    1.366    0.268
       153  -9.4572      1.8360     48.8089   7.9206564032e+01   7.0183036152e+01    0.1884866    0.1568614  44.81  0.001068888    1.338    0.253
       154 -11.0592     20.9840     46.0459   6.4311335419e+01   6.9144190116e+01    0.4270414    0.2930003 -47.06  0.001589474    1.441    0.306
       155 -10.5669     26.2892     43.0342   5.9476517501e+01   6.9124677746e+01    0.2636901    0.2398498 -87.60  0.000813766    1.324    0.245
       156 -10.5632     23.4653     37.4265   5.8968432664e+01   7.0726601961e+01    0.5905218    0.2170519  41.17  0.002184266    2.834    0.647
       157  -9.8655     13.1793     46.3026   6.9988748784e+01   6.9932473955e+01    0.2476428    0.1716529 -43.84 0.0008934604    1.388    0.280
       158  -9.7309    146.7332     45.9907   1.9818128591e+01   4.2246133485e+01    0.1878759    0.1570385 -51.84 0.0003999859    1.113    0.101
       159  -9.7824    200.7555     45.4045   1.3556249277e+01   3.1100154284e+01    0.1460976    0.1060873  61.94 0.0007698262    1.644    0.392
       160 -10.5315     31.8483     44.9530   5.6690327275e+01   6.7890273772e+01    0.3756333    0.1975339  33.44  0.001557876    1.804    0.446
       161 -10.2395    234.1717     44.6170   1.0866312089e+01   2.5410718254e+01     0.124187   0.09755435  65.90 0.0009337144    1.647    0.393
       162 -10.2521    156.2404     42.3203   1.7467556481e+01   4.0604805011e+01    0.2526675    0.2121701 -55.81  0.000911633    1.068    0.064
       163  -9.5580    140.0548     43.5449   2.0096273571e+01   4.4114796445e+01    0.2022851    0.1266168  70.19   0.00102429    1.578    0.366
       164 -10.5412     98.0492     41.3768   2.7649297372e+01   5.4481204687e+01    0.2938388    0.2249313  83.50  0.000458012    1.360    0.265
       165 -10.0235     57.0982     42.0106   4.1832331398e+01   6.3821504922e+01    0.2674494     0.195339  49.04  0.001290853    1.292    0.226
       166  -9.4236     77.4671     40.5617   3.3288471022e+01   5.9525067662e+01    0.1440764    0.1325169  52.33 -3.60782e-06    1.056    0.053
       167  -9.9936    229.4733    248.4894   4.6772049900e+01  -8.9314872321e-01    0.1012157   0.06594779 -10.76 0.0002870229    1.030    0.029
       168 -10.2944     18.0619     40.5605   6.4249162309e+01   7.0737890044e+01    0.2401907    0.1974031 -51.93 0.0003811304    1.254    0.202
       169  -9.8026      3.1799     39.4793   7.5590782871e+01   7.2374627734e+01     0.431654    0.1569652  41.39  0.001574379    3.328    0.700
       170 -10.7897      4.6052     35.8777   7.3204759971e+01   7.3119335507e+01    0.4039353    0.2923223  16.90   0.00143391    1.334    0.250
       171 -10.3957     11.6248     30.7182   6.5122489259e+01   7.3631861250e+01    0.4472732    0.2388739 -25.53  0.001944859    2.323    0.570
       172 -10.1858      7.4564     30.5330   6.8658780260e+01   7.4091185891e+01    0.4866933    0.2423775  -7.23   0.00140475    2.697    0.629
       173 -10.8244     61.0758     36.1587   3.7411892862e+01   6.3977759285e+01    0.4699917    0.3378832  -5.52  0.001502507    2.013    0.503
       174 -10.3135     68.1231     32.5782   3.2990037704e+01   6.2948082235e+01    0.4725087    0.2736765  64.08  0.002118009    1.815    0.449
       175  -9.3589    231.5271     37.4522   9.6029027563e+00   2.6653352103e+01    0.1097627   0.08015817 -50.26 7.439006e-05    1.004    0.004
       176 -10.5809    152.9625     36.1103   1.6124430371e+01   4.2136323675e+01    0.2402672    0.1872551  59.53 0.0003621369    1.409    0.290
       177 -10.8277    175.4631     34.2879   1.3182500175e+01   3.7463885180e+01    0.4146621    0.1685155 -51.13  0.001371031    2.179    0.541
       178 -10.6485    176.5299     29.9543   1.1976619260e+01   3.7751417083e+01    0.3006196    0.2030294  40.20  0.001589924    2.202    0.546
       179  -9.7182    131.7660    241.0136   6.3468802218e+01   8.8309694878e+00    0.1386232   0.09578519 -44.01 0.0007460423    1.621    0.383
       180 -10.3230     67.3174    241.0079   7.8217539221e+01   1.5355209506e+01     0.164327    0.1502372  13.37 0.0006393718    1.134    0.118
       181 -12.4851    104.9060     32.4114   2.2667882047e+01   5.4066467270e+01    0.7048495    0.3660717  46.24   0.00306629    2.156    0.536
       182 -12.2392    113.8303     24.9408   1.8204316386e+01   5.2795287520e+01    0.7959245    0.3177612  66.41   0.00229692    2.262    0.558
       183  -8.9544    217.2855     32.2911   9.4309978234e+00   2.9646042094e+01   0.09233801   0.08493152  -5.02 0.0002220661    1.537    0.349
       184 -10.5951     75.9880    240.3161   7.6079107453e+01   1.4634517429e+01    0.1833077    0.1401882  20.42 0.0007947612    1.063    0.059
       185 -12.2518     58.0866     29.9831   3.5663916378e+01   6.5628548209e+01    0.3844891    0.3236402  18.60  0.001298757    1.339    0.253
       186 -11.6086     49.3925     30.3059   3.9774026360e+01   6.7459696765e+01    0.6936675    0.2913211  45.02  0.002404897    2.191    0.544
       187  -9.6885    240.7043     31.6788   7.9414396700e+00   2.5815397256e+01   0.08927343   0.07726047 -12.85 0.0005520509    1.616    0.381
       188 -11.1380    158.3248     29.2506   1.3568735066e+01   4.1766453109e+01    0.4091871    0.2301746  87.01  0.001286744    1.832    0.454
       189 -11.5981    164.2945     27.6938   1.2529206608e+01   4.0629369464e+01    0.3449346    0.2403687 -61.41 0.0004074672    1.248    0.199
       190 -10.4722    147.0855    239.0672   6.0035348081e+01   7.5914988668e+00     0.169063    0.1342489  41.69  0.001134282    1.708    0.414
       191 -10.4258    248.1356    223.0160   4.0604859671e+01   6.4995614238e-01     0.210903    0.1829402 -34.47  0.001831126    1.930    0.482
       192 -10.6104     38.8259     22.1858   4.0856156639e+01   7.0930481065e+01    0.2550145    0.2100373 -19.21 0.0003876947    1.344    0.256
       193  -9.2586    164.4906    211.5370   5.2725956456e+01   1.0118321371e+01    0.1211762   0.09798641  -4.97 0.0001292188    1.019    0.019
       194 -11.3746    183.0504     25.6027   1.0335241865e+01   3.6898200471e+01    0.2953699    0.2185751 -68.37  0.001295142    1.156    0.135
       195 -11.3562    189.1625     27.3802   1.0292857029e+01   3.5466628400e+01    0.2914101    0.2810021  38.00  0.001604595    1.424    0.298
       196 -12.5137    125.5739     27.6496   1.7254266657e+01   4.9599792523e+01    0.4512443    0.3198627 -74.27 0.0008153291    1.387    0.279
       197 -10.2247     98.1703     27.9695   2.2403518489e+01   5.6306068638e+01    0.3700112    0.2133186 -41.97  0.001735799    1.775    0.437
       198  -9.9457    187.6963     22.9057   9.3242287339e+00   3.6254125122e+01    0.1649109    0.1474657 -56.61  0.000495963    1.185    0.156
       199 -10.5175    230.2117     27.0745   7.5923281557e+00   2.8007410583e+01    0.1903878     0.139299  60.12  0.001251865    1.846    0.458
       200  -9.9796    150.7916     27.0869   1.3776661360e+01   4.3718530397e+01    0.2398058    0.1481181  46.69   0.00123419    2.072    0.517
       201 -10.9170    144.5410     25.7354   1.4096840937e+01   4.5314891597e+01    0.3970183    0.1602032  81.06  0.001465504    2.780    0.640
       202 -10.9617    148.5545     22.3406   1.2630796590e+01   4.4769071062e+01    0.3161448    0.1630043  60.52  0.001578039    1.977    0.494
       203 -10.4661    154.9657     22.6861   1.2064246095e+01   4.3268849760e+01    0.3890378    0.2381334 -36.59  0.002164535    1.546    0.353
       204  -9.1916     86.0678     23.8209   2.3530948354e+01   5.9824726318e+01    0.1823135    0.1446064  48.04 0.0002459745    1.276    0.216
       205 -11.0041    134.7120     22.3207   1.4237682382e+01   4.8017351305e+01    0.4434736    0.2696592  89.14  0.002294839    1.615    0.381
       206  -9.6310     13.9366     22.6873   5.9062101635e+01   7.5018912832e+01    0.1888896    0.1508825  24.04 0.0003908355    1.163    0.140
       207 -10.8770    178.5666     20.8963   9.5088502297e+00   3.8338389290e+01    0.3849196    0.2276977  45.66  0.002067743    2.478    0.596
       208 -10.7488      9.1201    211.2528   9.1286413364e+01   2.6692071723e+01    0.2674251    0.1379807  25.95  0.001352493    1.625    0.385
       209  -9.8504      5.5782     22.4627   6.6702647046e+01   7.6008625670e+01    0.1786949    0.1392563  43.58 0.0001375329    1.481    0.325
       210  -9.5876     78.5966    203.8426   7.1757991457e+01   2.1711217055e+01    0.1739341    0.1328816 -88.45 0.0005011903    1.667    0.400
       211  -9.2724    232.6631    190.6754   3.7913151304e+01   6.0327475060e+00    0.1125327   0.06398535 -13.44 9.984089e-05    1.719    0.418
       212 -12.0326      4.8657    184.1114   9.1398678719e+01   3.3439351664e+01    0.6295831    0.4080962  62.36  0.002991631    1.445    0.308
       213  -9.4305     28.1671    175.8425   8.3697059225e+01   3.3716762437e+01     0.191601    0.1644455 -30.15 0.0007328394    1.311    0.237
       214 -10.3204     15.8637    174.1328   8.7477468523e+01   3.5178895616e+01     0.233313    0.1705716  52.43  0.001237822    1.267    0.211
       215  -9.6749    247.3319     20.6583   5.5247481297e+00   2.5934499191e+01    0.1140457   0.04836844 -54.11 0.0007051211    1.750    0.429
       216 -10.0466    216.6823     20.0041   6.8577226984e+00   3.1080508254e+01    0.1588032    0.1094631 -48.37  0.000457661    1.095    0.087
       217 -12.5724      9.0808    166.8209   8.9226661663e+01   3.7577405917e+01     0.835188     0.361072 -65.69    0.0034781    2.281    0.562
       218  -9.8460     74.7946     19.3759   2.4531024598e+01   6.3141905323e+01      0.19557    0.1715128  -7.47 0.0008089948    1.354    0.262
       219  -9.7297     46.6910     20.1933   3.5541403087e+01   6.9589378131e+01    0.2389812    0.1752523  59.64  0.000835048    1.355    0.262
       220 -12.0233     14.3910    159.7579   8.7005571071e+01   3.9069550952e+01    0.4957156    0.3356903 -38.54  0.002157477    1.687    0.407
       221 -10.6605     13.5260    156.4261   8.7067785536e+01   4.0028463748e+01    0.2371171    0.2049452 -72.97 0.0005326568    1.177    0.150
       222  -9.1838    198.7023     17.6700   7.3634971413e+00   3.4648183918e+01   0.09795491   0.08844916  24.68 0.0005663466    1.639    0.390
       223 -10.5208    205.1740    163.4788   3.7449154648e+01   1.2961701395e+01    0.2211333    0.1384714 -35.78 0.0007654399    1.317    0.241
       224  -9.6701     29.3169    160.6599   8.1996566550e+01   3.7584760278e+01    0.1612526     0.095849  54.89 0.0007048689    1.707    0.414
       225  -9.6979     31.1943    156.7802   8.0973289230e+01   3.8448008439e+01    0.2717592     0.113578  55.28 0.0009484454    2.782    0.641
       226 -10.3201    238.2497     16.5479   5.1268384676e+00   2.7781485942e+01    0.1632316   0.08800621 -85.54  0.001044795    1.950    0.487
       227 -10.9391    228.8032     15.8151   5.3956136798e+00   2.9412587674e+01    0.2009938    0.1531134 -60.89 0.0004921373    1.108    0.098
       228 -12.8541     23.0666    148.5006   8.3031318169e+01   4.1428844498e+01    0.6243169    0.3294486 -40.79  0.001567309    2.203    0.546
       229 -10.0106    211.0388     16.0629   6.3118718052e+00   3.2503380708e+01    0.1656821    0.1223896 -54.32 0.0003057807    1.014    0.014
       230 -10.4362    186.4607     14.9647   7.4862755234e+00   3.7341113094e+01     0.203519    0.1485107 -81.01 0.0003598736    1.244    0.196
       231  -9.8403    218.3893     13.7895   5.4605714819e+00   3.1413690192e+01     0.140318   0.09084125 -28.14 0.0005884382    1.600    0.375
       232 -10.4830     16.8281    147.8801   8.5236121531e+01   4.2105534608e+01    0.2643182    0.2428404  79.60 0.0004331484    1.056    0.053
       233 -10.3216     49.6788    146.2980   7.3214501183e+01   3.9287449634e+01    0.2580249    0.2320005 -67.01 0.0005531523    1.138    0.121
       234 -11.0280     46.5116    145.9424   7.4286245594e+01   3.9757574536e+01      1.10584    0.2720744 -61.32  0.003366807    3.480    0.713
       235 -10.0381      4.7867    153.6084   8.9926853256e+01   4.1379888494e+01    0.2022858    0.1159369  31.60 0.0005184119    1.615    0.381
       236  -8.8156     55.6531    152.7249   7.2076463579e+01   3.6849400132e+01    0.1538735    0.1124468 -21.89 0.0007002494    1.629    0.386
       237 -11.9774      4.1109    142.9678   8.9536088702e+01   4.4322602743e+01    0.8100556    0.4062105  44.35  0.002250614    1.880    0.468
       238  -8.8292    104.2224    147.0369   5.5864030528e+01   3.1188876235e+01    0.1797071    0.1200409 -51.43            0    1.506    0.336
       239 -10.5299     33.1120    144.4636   7.8939483963e+01   4.1608296821e+01    0.2940849    0.2603031  53.76 0.0007515441    1.097    0.088
       240 -10.4335     40.7353    139.0266   7.5422084161e+01   4.2296873640e+01    0.4280222    0.2643312 -71.66  0.001594542    1.652    0.395
       241 -11.2887     80.3467    138.7553   6.1480086327e+01   3.7007428342e+01    0.2910475    0.2492999  42.38 0.0003522803    1.156    0.135
       242 -11.6155     22.4726    136.3192   8.2020788755e+01   4.4847116813e+01    0.5980896    0.3858329  60.37  0.001999886    1.619    0.382
       243 -11.0654     12.1603    135.8546   8.5965970838e+01   4.5776727903e+01    0.6684306    0.2977936 -45.93  0.002570058    2.445    0.591
       244  -9.1999     32.2134    137.6193   7.8439916763e+01   4.3584148623e+01    0.1997482    0.1422415   3.11 0.0002961674    1.565    0.361
       245 -10.7310     30.1845    132.7712   7.8606337569e+01   4.5130441795e+01    0.3630631     0.262394 -32.64 0.0009920653    1.550    0.355
       246 -10.6154     10.1870    126.5863   8.5935867180e+01   4.8506209535e+01    0.3084596    0.2469978 -88.48  0.001613608    1.217    0.178
       247  -9.5729     33.6552    126.0016   7.6302993503e+01   4.6665289768e+01    0.2163411    0.2003929 -79.60  0.001158202    1.075    0.070
       248  -9.0608     22.9933    126.7549   8.0724035167e+01   4.7478271720e+01    0.1840222      0.12572  18.77 0.0003137605    1.482    0.325
       249  -9.6677      2.0449    125.9979   8.9211604933e+01   4.9153909312e+01    0.2513445    0.1473385  54.88  0.001132303    1.709    0.415
       250 -12.0919    245.8138    119.1023   2.4060896917e+01   1.4273291534e+01    0.4918919    0.2233149 -51.90  0.002600777    2.648    0.622
       251  -9.2527     85.0152    122.9952   5.6671547313e+01   4.0188293360e+01    0.1759035     0.174291  31.55            0    1.001    0.001
       252 -10.4049     55.8901    121.9872   6.6844392051e+01   4.5032196990e+01    0.2768612    0.2207039  31.42 0.0007506093    1.230    0.187
       253  -9.1797     13.4459    122.4892   8.4190307410e+01   4.9435783701e+01    0.1450645     0.139771 -83.75 0.0008080167    1.019    0.018
       254  -9.5834     44.5410    120.0734   7.0949832868e+01   4.7057532852e+01     0.216996     0.198675 -76.87 0.0005164535    1.103    0.093
       255  -9.7476     43.4664    116.0732   7.0662322534e+01   4.8288518322e+01      0.27277    0.1981122 -79.76 0.0006949665    1.480    0.324
       256  -9.5805     78.6913    115.0477   5.6987517617e+01   4.3253120794e+01    0.2158815    0.1999886 -51.16 0.0005653576    1.090    0.082
       257 -11.1193     17.1516    100.7196   7.9812534704e+01   5.5283228462e+01    0.3551112    0.2575343  29.22 0.0004523996    1.379    0.275
       258 -10.7452     35.6773    102.8234   7.1504248639e+01   5.2867194467e+01    0.5964168    0.3205735  -4.02  0.001821771    2.813    0.644
       259 -11.9855     25.7249    105.9116   7.6602902931e+01   5.3075663101e+01     1.036039    0.6344839 -61.96  0.004634519    1.560    0.359
       260 -11.4380     21.9986    114.5120   7.9565263506e+01   5.1007262611e+01    0.5643584    0.2867448   5.96  0.002192869    2.306    0.566
       261 -11.4262     28.0205    113.0717   7.6718907576e+01   5.0851440010e+01    0.3912453    0.3401883  11.69 0.0009220213    1.188    0.158
       262 -10.1417      7.4886    114.5137   8.5947658612e+01   5.2077027807e+01    0.2622826    0.2214599 -43.91 0.0007490353    1.207    0.171
       263 -12.1261      2.6619    111.5314   8.7815199850e+01   5.3186203462e+01    0.5226792    0.4045387  74.86  0.001259077    1.289    0.224
       264 -11.2395      4.3476    105.5188   8.6485605539e+01   5.4789210252e+01    0.4698875    0.3827185  32.61  0.002222462    1.252    0.201
