#   1 NUMBER                 Running object number                                     
#   2 MAG_AUTO               Kron-like elliptical aperture magnitude                    [mag]
#   3 X_IMAGE                Object position along x                                    [pixel]
#   4 Y_IMAGE                Object position along y                                    [pixel]
#   5 X_WORLD                Barycenter position along world x axis                     [deg]
#   6 Y_WORLD                Barycenter position along world y axis                     [deg]
#   7 A_WORLD                Profile RMS along major axis (world units)                 [deg]
#   8 B_WORLD                Profile RMS along minor axis (world units)                 [deg]
#   9 THETA_WORLD            Position angle (CCW/world-x)                               [deg]
#  10 FWHM_WORLD             FWHM assuming a gaussian core                              [deg]
#  11 ELONGATION             A_IMAGE/B_IMAGE                                           
#  12 ELLIPTICITY            1 - B_IMAGE/A_IMAGE                                       
         1 -19.3046    235.7572    154.1353   1.7099090566e+01   8.1346909049e+00     5.327693     4.249807 -29.10   0.02238552    1.092    0.085
         2 -13.4230     38.7262     78.9290   5.0597719835e+01   5.8567020607e+01     1.047995    0.9921986 -46.61  0.003618865    1.013    0.012
         3 -13.2870    237.0094     13.7025   3.4825267099e+02   2.6956577423e+01     1.196628    0.6245142  68.22  0.005159877    2.249    0.555
         4 -12.2195    202.5555      3.1214   3.4761336168e+02   3.4693937488e+01    0.7994819    0.2798859  84.91  0.003665274    2.917    0.657
         5 -12.7874    234.6551      3.8533   3.4631520663e+02   2.8388312764e+01     1.067655     0.455918  71.46  0.006103354    2.589    0.614
         6 -10.9778    248.8017      2.9665   3.4560266573e+02   2.5979918395e+01    0.5155786    0.3703768 -54.27  0.003384672    1.039    0.038
         7 -12.3675    202.5974     17.9662   3.5115565370e+02   3.3155725426e+01    0.4574513     0.341315 -56.85  0.003015102    1.056    0.053
         8 -11.9689    183.1754      4.5473   3.4907474120e+02   3.8699357607e+01    0.6724433    0.3691591 -57.62  0.003753416    1.529    0.346
         9 -11.5806    189.8651     14.4769   3.5117637821e+02   3.6230095391e+01    0.3648262    0.2752716 -72.62  0.001420802    1.139    0.122
        10 -12.0603    190.3332      9.8138   3.4996291286e+02   3.6612963247e+01    0.4996366    0.3172137  64.54 0.0006150877    1.744    0.427
        11 -13.2941    213.8309      5.0498   3.4749499397e+02   3.2223914992e+01     1.862064    0.6117901 -57.58    0.0087019    2.554    0.608
        12  -9.7697    179.0480     11.9523   3.5131347041e+02   3.8881504289e+01    0.1775176    0.1465144  41.20 0.0005538891    1.630    0.386
        13 -10.4193    120.3358      9.3849   3.5653653706e+02   5.3279651945e+01     0.327765    0.2598667 -41.72  0.001019861    1.293    0.226
        14 -10.1972    171.8028      2.4516   3.4925987033e+02   4.1452615456e+01    0.2603559     0.152037 -58.81 0.0009090878    1.465    0.318
        15  -9.6252    166.9797      1.4061   3.4930070460e+02   4.2656778772e+01     0.179345    0.1076233  84.45 0.0003244907    1.526    0.345
        16 -16.0552    204.6266    175.9446   2.5943224055e+01   8.9104969158e+00     1.193336    0.8550575   1.22  0.007208458    1.426    0.299
        17  -9.4532    134.4022    248.7580   5.0624427736e+01   6.0365357472e+00    0.2809387    0.1765606  66.14  0.001341423    3.755    0.734
        18  -9.5652    104.9933    133.5461   3.9531862653e+01   3.3816955146e+01    0.3843438    0.2244412 -44.68  0.001345566    1.748    0.428
        19  -9.2945    104.4662    129.0038   3.8675279538e+01   3.5009129495e+01    0.2895471     0.225759 -77.47  0.000930435    1.506    0.336
        20 -11.1514     59.6324    230.7597   6.5375114112e+01   1.7848046560e+01    0.3661478    0.2531258  18.98  0.002013751    1.426    0.299
        21 -10.5884    249.9270    229.9880   2.7634288063e+01  -3.3935830889e+00    0.2130186    0.1223171  12.14  0.001547248    1.578    0.366
        22 -10.2050    127.0881    114.0416   2.8867321721e+01   3.4075091309e+01    0.2287714    0.2164168 -39.69 0.0003835463    1.045    0.043
        23  -8.8075    104.1574    109.8219   3.4125845240e+01   3.9656780415e+01    0.2104515    0.1835493 -18.89 0.0003762834    1.309    0.236
        24 -11.4040    124.8551    107.2254   2.7685881274e+01   3.6027297576e+01    0.4784246    0.3767869  80.55  0.001933891    1.582    0.368
        25 -12.4044    120.1094    104.5681   2.8228420525e+01   3.7600112196e+01     0.662793    0.4684048 -39.17  0.003056297    1.442    0.307
        26 -12.0516    123.7555    101.0949   2.6330789815e+01   3.7587607337e+01    0.5670656    0.4525438 -75.07  0.002741806    1.454    0.312
        27 -11.1009    150.4379    103.1880   2.0611635663e+01   3.1499771416e+01    0.5036774    0.2720818 -31.52  0.001634452    2.144    0.534
        28  -9.4907     52.0039    104.7106   5.1101925006e+01   5.0011472723e+01    0.2055705    0.1984113  36.09 0.0003490564    1.076    0.071
        29 -10.6197    111.3680    102.2639   3.0014326356e+01   3.9937116151e+01    0.2746292    0.1968296 -57.92  0.000684504    1.444    0.308
        30 -12.4186     80.4615    100.1471   3.9239974734e+01   4.6550198308e+01     1.464843    0.7848737 -31.77 0.0006485832    2.858    0.650
        31 -13.1117     60.0705     86.2130   4.3134744116e+01   5.3588116844e+01    0.9746794    0.7028297 -48.95 0.0007502883    1.355    0.262
        32 -12.9655     74.2108     95.9800   4.0357218534e+01   4.8719006188e+01    0.8336865    0.7803164 -25.63  0.002356701    1.133    0.118
        33 -13.2690     68.5012     88.9357   4.0539825986e+01   5.1477346254e+01     1.582321    0.8796172  28.47  0.005322017    2.061    0.515
        34  -9.8905    100.1746    101.1982   3.3034393285e+01   4.2477703481e+01    0.3104604    0.2329819 -79.20 0.0004907934    1.670    0.401
        35 -10.7135    153.5007    224.0072   4.3540763279e+01   7.7143903153e+00     0.280794    0.1165567 -47.52  0.001105236    2.617    0.618
        36 -11.5002    194.8439    222.0043   3.5308628622e+01   3.1307660612e+00    0.4175331    0.2425759   5.49  0.002446184    1.765    0.433
        37  -9.2523    240.1888    248.0679   3.1650259508e+01  -4.5982190991e+00    0.1975169   0.09270516  20.13 0.0009173005    1.911    0.477
        38 -10.3682    138.5979     92.9476   2.0481261595e+01   3.6063316519e+01    0.3525321    0.2526967 -26.37  0.001636104    1.634    0.388
        39  -9.9993    155.2905     94.0484   1.7224788431e+01   3.2231201853e+01    0.3564819     0.218284  47.52 0.0008822199    1.769    0.435
        40  -9.3642    138.6376    218.7291   4.5929914028e+01   1.0477072740e+01    0.2177446    0.1709931  -2.59 0.0005241529    1.229    0.186
        41  -8.9097    143.2222    215.7691   4.4526777104e+01   1.0404224607e+01    0.1720041    0.1561958  23.53  0.001145972    1.179    0.151
        42  -8.6921    145.7277     86.5740   1.7154428447e+01   3.5724172777e+01    0.1851831    0.1422178  72.42 0.0003470157    1.464    0.317
        43 -16.2168    191.9955    192.0196   3.1007743665e+01   8.0143311171e+00     3.165815     2.278168 -78.10   0.01435716    4.048    0.753
        44  -9.2265    132.2960     82.3194   1.8900165394e+01   3.9552317506e+01    0.2649269    0.1778381  41.30 0.0006900568    1.671    0.401
        45  -9.6345    130.3412    244.7353   5.0996796951e+01   7.1337880145e+00    0.1820604    0.1604142  42.50  0.001298532    1.346    0.257
        46 -10.1412      9.5916     76.2391   6.4718243412e+01   6.2076991543e+01    0.2078733    0.1108039 -59.51 0.0004449736    1.622    0.384
        47  -8.3843    111.3920     75.4845   2.2071695562e+01   4.5657608614e+01    0.1501997    0.1444335 -59.41 8.702478e-05    1.033    0.032
        48  -9.5196     67.2223     74.7671   3.6684971896e+01   5.5100145143e+01    0.2100841    0.1773977 -18.14 0.0005335226    1.350    0.259
        49  -8.5153    149.3385     83.2960   1.5499510146e+01   3.5531093724e+01    0.1437006    0.1171206  12.71 0.0007030846    1.655    0.396
        50  -9.3685    242.2331     70.5243   3.5973078473e+02   1.9203247538e+01    0.2636822     0.205089   4.66  0.001259528    1.961    0.490
        51 -10.6336    228.4637     68.9958   6.8788858847e-01   2.1753419096e+01    0.2868929    0.2094714  52.98 0.0006827863    1.754    0.430
        52 -10.3700    203.8980     67.4134   2.9352847674e+00   2.6552464920e+01    0.3690344    0.3177553 -51.40  0.002388034    1.047    0.045
        53 -10.3491    210.2029     64.7779   1.6104854279e+00   2.5705569575e+01    0.5207925    0.2121075  49.40  0.002257402    3.294    0.696
        54 -11.7700    154.4866     64.7236   9.2520305874e+00   3.7585989894e+01     0.864843     0.398982 -65.24  0.002589412    4.538    0.780
        55 -10.5743    149.8943     61.7146   9.1795275274e+00   3.9141575185e+01    0.2686132    0.2591828 -19.28 0.0007051046    1.193    0.162
        56 -11.0810    235.3189     61.9090   3.5853557371e+02   2.1513858260e+01    0.3093702    0.2638989  38.94  0.001075475    1.646    0.392
        57  -9.9933    224.5060     63.3893   3.5984260189e+02   2.3228076351e+01    0.2641593    0.1834151  61.85  0.001068175    1.742    0.426
        58 -10.6652      1.8353     62.5626   6.6534784396e+01   6.6075015090e+01    0.3981225    0.1920069 -76.25  0.001650632    1.981    0.495
        59 -10.4321    165.8692     61.2223   6.4027618970e+00   3.5542228574e+01    0.3423533    0.2356633  84.10   0.00108086    1.636    0.389
        60 -10.7862    144.3824     59.4385   9.4950913118e+00   4.0807007142e+01      0.36428    0.2680477 -53.29 0.0007265173    1.301    0.231
        61 -11.2024    144.1570     54.8046   8.1156019318e+00   4.1596906188e+01    0.4702619    0.2453836 -58.40  0.001906353    2.270    0.559
        62 -10.8900    210.0326     59.5011   3.9867377499e-01   2.6478393174e+01    0.2355718    0.2124673  57.73  0.001588975    1.378    0.274
        63  -9.3582    215.0910     55.8603   3.5905115240e+02   2.6001571649e+01    0.2043986    0.1687065  37.37  0.001308469    1.688    0.407
        64  -9.2761    226.8187     58.0646   3.5845690829e+02   2.3525664944e+01    0.2772912    0.1489586  61.66  0.001098559    2.218    0.549
        65 -11.3870     56.2686    206.3020   6.4155363480e+01   2.3382828927e+01    0.3839051    0.2360074  62.92  0.001845016    1.724    0.420
        66  -9.7605    247.8160     56.3872   3.5637338385e+02   2.0120341910e+01    0.1815796    0.1388024 -41.00 0.0004916645    1.113    0.101
        67  -8.9993    196.3060     55.9777   1.0306088689e+00   2.9719156041e+01    0.1826941     0.149096 -47.23 0.0004438012    1.066    0.062
        68  -9.7155    151.3629     54.4491   6.7630954980e+00   3.9941010240e+01    0.2443401    0.2014174  42.93  0.001091351    1.431    0.301
        69  -8.6970      5.7465    202.1711   7.6827957333e+01   2.9255872568e+01     0.147274    0.1390625 -61.51  0.000270377    1.301    0.231
        70 -10.4670    227.8628     48.8799   3.5635545694e+02   2.4530713797e+01    0.7958333    0.3362581 -68.35   0.00333033    3.581    0.721
        71 -10.3405    222.4971     40.4660   3.5492196033e+02   2.6581880713e+01    0.3154188     0.195491 -26.38  0.001111103    1.712    0.416
        72 -11.6616    219.5479     38.4822   3.5470484985e+02   2.7386319973e+01    0.7225923    0.3490182 -30.05   0.00248745    1.971    0.493
        73  -9.5153    181.9730     51.9519   1.6838791182e+00   3.3330556949e+01    0.2210135    0.1346646 -61.96 0.0006032672    1.655    0.396
        74 -10.1912     14.4878     52.4893   5.6359084914e+01   6.7762987466e+01    0.1364596    0.1234056 -38.50 0.0008104749    1.001    0.001
        75 -10.9077     98.3185    193.0062   5.1803164496e+01   2.0981519888e+01    0.5339732    0.2810524 -69.16   0.00230602    2.452    0.592
        76  -9.2817    244.3221    232.3881   2.8803711170e+01  -3.1771748478e+00    0.1800577    0.1254195 -10.80 0.0006509556    1.031    0.030
        77 -10.2028    198.8797     38.2163   3.5638331287e+02   3.1550476928e+01    0.4690293    0.2014102  60.16   0.00222166    2.561    0.610
        78  -9.8427    185.4924     43.5868   3.5908548749e+02   3.3708884037e+01     0.207137    0.1696154 -75.38 5.481778e-05    1.139    0.122
        79 -10.4264    189.3793     41.8667   3.5822699213e+02   3.3094145675e+01    0.2695781    0.2183575  57.79 0.0004906025    1.461    0.316
        80  -9.9992    193.0123     38.9927   3.5713087010e+02   3.2687547306e+01    0.3928489    0.2004278 -60.65  0.001602149    1.956    0.489
        81 -10.4298     23.7240     43.0163   4.7158394579e+01   6.9031964007e+01     0.198703     0.173328 -43.57  0.001172172    1.105    0.095
        82  -9.3840    155.8402     39.8251   1.6954370028e+00   4.0983370577e+01    0.1944875    0.1832446  48.14 0.0006013773    1.262    0.208
        83  -8.2274     92.5025     40.4635   1.4741504504e+01   5.6376319070e+01    0.1442218    0.1362248  48.79  0.000186063    1.064    0.060
        84  -9.6225    172.9725     36.4586   3.5856753350e+02   3.7431517564e+01     0.233782    0.1765919 -42.96 0.0003687576    1.214    0.177
        85 -10.6835    208.8524     34.4207   3.5461191266e+02   2.9979745133e+01    0.4000005    0.1971299  62.83  0.002103923    2.273    0.560
        86 -10.5429    167.3474     21.6192   3.5499981292e+02   4.0517340645e+01    0.3548289    0.2752999 -58.51   0.00134615    1.114    0.103
        87 -10.5480    161.7151     32.6235   3.5879790041e+02   4.0528238508e+01    0.3851751    0.2232041  46.27  0.001114616    2.196    0.545
        88  -9.8387    166.0053     27.4231   3.5679810031e+02   4.0157553203e+01    0.4157184    0.1467243 -38.10  0.001731207    2.379    0.580
        89 -10.6022    180.5113     30.0149   3.5601907564e+02   3.6531522010e+01    0.4216109    0.2435905  74.57  0.001415775    1.748    0.428
        90 -10.4495    185.7899     27.3364   3.5481680083e+02   3.5681725635e+01     0.304205    0.2433744 -14.00  0.001162648    1.600    0.375
        91 -10.7664    176.8116     23.7210   3.5467566773e+02   3.8105178737e+01    0.3929986    0.3286857  60.05   0.00081868    1.395    0.283
        92 -10.9370    182.7201     23.1515   3.5399052455e+02   3.6845219026e+01     0.366568    0.3273978 -63.58  0.001689032    1.117    0.105
        93  -9.8712    206.0007     29.7054   3.5371948275e+02   3.1121688662e+01    0.1707724    0.1371546 -70.45 0.0004213755    1.118    0.106
        94 -11.1738    211.1858     27.6119   3.5283792311e+02   3.0321326724e+01    0.2779061    0.1784029 -52.81  0.001434167    1.236    0.191
        95 -10.6951    236.7325     25.5558   3.5073939056e+02   2.5718067442e+01    0.2181774    0.1786837 -81.62 0.0007723144    1.290    0.225
        96 -10.5079    213.8552     22.9419   3.5157305792e+02   3.0324490978e+01    0.1649572    0.1531496 -44.09 0.0005749397    1.295    0.228
        97  -8.8912    134.9895     22.9998   3.5929222280e+02   4.8177323053e+01    0.1927249    0.1549697  39.06 0.0003503132    1.500    0.333
        98  -9.3055    240.7633    240.9139   3.0560732137e+01  -3.8444683685e+00    0.1487083    0.1071885   2.83 0.0004055365    1.184    0.155
        99  -8.5626     50.4766    179.4951   6.3122226442e+01   3.0362138157e+01    0.1410068    0.1265154  57.03 -1.153424e-05    1.014    0.014
       100 -10.3571    124.2034    178.2099   4.3029950908e+01   2.0373607585e+01    0.1927812    0.1671294  61.19  0.001075074    1.349    0.259
       101  -9.4782    107.9875    165.8984   4.5041389784e+01   2.5638406038e+01    0.2151515    0.2090966   8.98  0.000420542    1.017    0.017
       102  -9.5642    128.1717    240.3633   5.0940181100e+01   8.0940673665e+00    0.1962583    0.1589944 -30.70   0.00118478    1.354    0.261
       103 -11.3949     68.0114    144.1908   5.3000472620e+01   3.7168855099e+01    0.7762684    0.4353996  60.67  0.002998997    2.275    0.560
       104  -8.7484    104.4881    142.5168   4.1574684230e+01   3.1742811932e+01    0.1486594    0.1481272  64.45 3.284264e-05    1.004    0.004
       105 -12.0953    112.4177    133.2703   3.7372525888e+01   3.2529029531e+01    0.7902063    0.5870575 -41.54   0.00378015    1.368    0.269
       106 -10.6909    118.7370    126.8680   3.4184695669e+01   3.2834278173e+01    0.3268839    0.2522503 -31.66 0.0004040496    1.411    0.291
       107 -10.1990    124.1466    140.0901   3.5725449020e+01   2.8804390374e+01    0.2708334     0.210373 -48.03 0.0008318099    1.266    0.210
       108 -11.4205    120.6603    135.7407   3.5687247732e+01   3.0434258735e+01    0.4827251    0.3770066 -55.05   0.00239362    1.292    0.226
       109  -8.9402     96.5525     11.5039   1.3855699401e+00   5.9072100610e+01    0.1350539    0.1224918  75.32 0.0001276598    1.006    0.006
       110  -8.8226     82.4632    189.0263   5.5396924187e+01   2.4044914624e+01    0.2772394    0.1582357 -16.68  0.001029604    3.316    0.698
       111 -11.4498    124.8471    133.3355   3.4054042589e+01   3.0202435704e+01      0.66986    0.2645021 -42.82  0.002198072    2.622    0.619
