#   1 NUMBER                 Running object number                                     
#   2 MAG_AUTO               Kron-like elliptical aperture magnitude                    [mag]
#   3 X_IMAGE                Object position along x                                    [pixel]
#   4 Y_IMAGE                Object position along y                                    [pixel]
#   5 X_WORLD                Barycenter position along world x axis                     [deg]
#   6 Y_WORLD                Barycenter position along world y axis                     [deg]
#   7 A_WORLD                Profile RMS along major axis (world units)                 [deg]
#   8 B_WORLD                Profile RMS along minor axis (world units)                 [deg]
#   9 THETA_WORLD            Position angle (CCW/world-x)                               [deg]
#  10 FWHM_WORLD             FWHM assuming a gaussian core                              [deg]
#  11 ELONGATION             A_IMAGE/B_IMAGE                                           
#  12 ELLIPTICITY            1 - B_IMAGE/A_IMAGE                                       
         1 -14.3880      3.1904    133.0032   1.5171112709e+02   4.7547418468e+01     3.612895    0.6701884 -82.98   0.01226414    4.670    0.786
         2 -13.7734    196.2541     23.9385   7.1653141552e+01   3.2267436175e+01     1.785849     1.529162  20.99  0.008009602    1.364    0.267
         3 -13.4481    210.7710      6.1331   6.5148847060e+01   3.0340314329e+01    0.9735367    0.8073796  77.03  0.005720922    1.215    0.177
         4 -11.7813      3.5724      6.0870   1.3403516913e+02   7.7284136851e+01    0.7557278    0.1738425 -58.99  0.003133697    2.856    0.650
         5 -11.8938    100.1933    248.7514   1.3731171140e+02   1.4975065197e+01    0.4753223    0.1565893  38.88  0.002502677    2.024    0.506
         6 -10.3959    249.2719    249.4356   1.1191896393e+02  -4.6020178457e+00    0.2029623    0.1183934  -6.03  0.001554599    1.603    0.376
         7 -11.6294    174.5199    249.9827   1.2402409904e+02   4.8350108910e+00    0.3721493    0.1403585  38.64  0.002071038    1.883    0.469
         8 -11.7006    153.8871    249.6862   1.2761217583e+02   7.6703807725e+00    0.4657581    0.1329526  38.24   0.00223609    2.415    0.586
         9 -13.0893    126.0380    248.6210   1.3254018601e+02   1.1582690073e+01    0.6872482    0.3619358  35.06  0.004402096    1.382    0.276
        10 -10.6854     30.1903    248.7188   1.5009347524e+02   2.3075836256e+01    0.3285499    0.1767207  51.00  0.002238815    1.217    0.178
        11 -10.1353     81.6328    248.8874   1.4075198466e+02   1.7290736985e+01    0.1905514    0.1134669  72.29  0.001296762    1.927    0.481
        12 -10.7422     20.0980    247.5925   1.5184189623e+02   2.4235668157e+01    0.3539944    0.1911317  22.38  0.002309653    2.398    0.583
        13  -8.8989      2.3014    249.1485   1.5494933575e+02   2.5623287962e+01    0.1251438    0.1012956  77.91 0.0007239141    1.426    0.299
        14 -11.2995    237.6191    246.6088   1.1329413846e+02  -2.9979790020e+00    0.2514351    0.1475361 -25.47  0.001885418    1.993    0.498
        15  -9.4625     73.9447    250.5010   1.4226588048e+02   1.7989185784e+01    0.1674448   0.07460024  37.85 0.0009336154    1.574    0.365
        16  -9.3758     71.6290    244.6797   1.4234449592e+02   1.9117632819e+01    0.0966821   0.07639171  13.58  6.58475e-05    1.799    0.444
        17 -13.1701     49.4403    218.1025   1.4511115888e+02   2.5977182547e+01     1.498428    0.7967403  48.72  0.008359217    1.349    0.259
        18  -9.0176     26.9245    241.6524   1.5044984831e+02   2.4488754397e+01    0.1444998   0.08735028  47.14 0.0003992272    1.122    0.108
        19 -11.8075    184.3785    237.6376   1.2084445534e+02   4.8201003974e+00    0.3736915     0.279774 -75.08  0.002288449    3.374    0.704
        20 -12.4231    144.6674    245.3412   1.2882026004e+02   9.4550475585e+00    0.4746299    0.3278713  75.94  0.003030418    2.601    0.616
        21  -9.8744     22.5116    239.0059   1.5116849155e+02   2.5337386956e+01      0.18605    0.1073632  42.76 0.0003538919    1.248    0.198
        22  -9.5943    245.6548    233.3334   1.1024943503e+02  -2.8665473240e+00   0.08814812   0.07447565  32.31 0.0007049855    1.764    0.433
        23 -12.8764    115.9585    231.8486   1.3287482824e+02   1.5250436173e+01    0.7284588    0.1617225  36.85  0.002864024    3.292    0.696
        24  -9.3729    248.9934    231.4986   1.0948456542e+02  -3.1206228788e+00    0.1270845   0.08015001  47.27 0.0008106559    2.596    0.615
        25 -10.9942     81.2250    224.0158   1.3907190483e+02   2.1131786903e+01    0.4729424    0.0700472  44.36  0.001728928    3.911    0.744
        26 -12.0827     91.5794    227.7002   1.3729487622e+02   1.9192465033e+01    0.3620277     0.254338  36.67  0.002513113    1.200    0.167
        27  -8.9852      3.0093    227.4994   1.5445233186e+02   2.8985970005e+01    0.1513081   0.07224484  37.43  0.001032711    1.594    0.373
        28 -10.0194     27.5281    222.0196   1.4965489748e+02   2.7633615930e+01    0.1874275     0.132974  25.94  0.001364163    1.645    0.392
        29 -11.1156     57.3008    211.9574   1.4312338509e+02   2.6138623779e+01    0.3321328    0.1474228  48.78  0.001410235    1.666    0.400
        30  -9.7771     20.5152    211.9133   1.5067714806e+02   3.0074078675e+01     0.301589      0.14199  26.15  0.001752484    2.271    0.560
        31 -12.0579     10.3972    206.8484   1.5255443856e+02   3.1907308271e+01    0.5472376    0.3110358  23.73  0.003113938    2.017    0.504
        32 -13.0546     34.9731    236.9808   1.4880674793e+02   2.4411478977e+01    0.3006297    0.2420762  81.76 0.0007766364    1.382    0.277
        33 -13.9829     39.5349    230.4683   1.4767709787e+02   2.4985084120e+01    0.7338682    0.4551812  48.45  0.002526622    1.116    0.104
        34 -11.7587     61.2171    201.9307   1.4159595378e+02   2.7469238956e+01    0.2258238    0.1949455  52.11 0.0005152635    1.178    0.151
        35 -12.0550     67.6121    193.1788   1.3948583778e+02   2.8300002549e+01    0.2333556    0.2034547  51.73 0.0004437417    1.159    0.137
        36  -9.4216    192.3120    193.9495   1.1320857626e+02   8.8390935567e+00    0.1678344   0.09872563 -59.41 0.0007040794    4.393    0.772
        37 -13.2092     64.5701    178.0742   1.3885596262e+02   3.1644043665e+01    0.4434409     0.275405 -45.44   0.00208012    2.316    0.568
        38 -10.7385     77.8613    179.6488   1.3582604203e+02   2.9554834175e+01    0.2123048    0.1803682  61.96 0.0003138764    1.071    0.067
        39  -8.7805    102.4335    178.9119   1.2991781791e+02   2.6077813632e+01    0.1659373    0.1026644  77.30 0.0007288491    2.244    0.554
        40 -10.7006      2.6981    153.3902   1.5263271116e+02   4.3096328322e+01    0.4969402    0.2317938 -83.82  0.002688454    1.901    0.474
        41 -13.5714      8.4510    152.6022   1.5113678532e+02   4.2843238525e+01     2.136823    0.7133539  76.60  0.009375956    2.918    0.657
        42  -9.6539    225.4824    249.5037   1.1555003884e+02  -1.7568328959e+00      0.10506   0.06961741  21.09 -2.036774e-05    1.003    0.003
        43 -11.8784     86.3189    153.2231   1.3047380821e+02   3.3781076927e+01     0.262132    0.2515946 -15.90  0.000697542    1.304    0.233
        44 -12.1826     67.2496    143.4811   1.3433962097e+02   3.8705186228e+01    0.6917853    0.3715438  55.70  0.002983498    1.828    0.453
        45 -10.0023    109.0933    138.5787   1.2202916315e+02   3.3123605955e+01    0.4236763    0.2896154 -20.10  0.001409475    2.457    0.593
        46  -9.5745    133.4361    143.8994   1.1683135663e+02   2.7489125134e+01    0.3906207    0.1421005 -56.45  0.001261071    4.038    0.752
        47 -11.8421     85.3254    170.3670   1.3296875964e+02   3.0349803102e+01    0.6112013    0.5236728  17.64  0.003601213    1.424    0.298
        48 -10.5226     96.6110    135.7204   1.2490719436e+02   3.5932135293e+01    0.2471321    0.2276658  31.64 0.0004764568    1.173    0.147
        49  -9.0045    106.7732    124.5258   1.1992911761e+02   3.6587714400e+01     0.200704    0.1371419  40.50 0.0004698897    1.383    0.277
        50 -11.9140     14.6773    122.3763   1.4773197423e+02   4.9201106086e+01    0.3534425    0.2103886  56.34  0.002026575    1.501    0.334
        51 -10.0911    104.6376    154.1890   1.2585891744e+02   3.0625439428e+01    0.2764903    0.2086796  62.88 0.0005433816    1.330    0.248
        52 -10.5325     15.1050     92.9242   1.4509541891e+02   5.6233762700e+01    0.2707613     0.123758 -50.67  0.001273259    2.277    0.561
        53 -10.4888    157.1044     75.6379   9.4107852532e+01   3.5237002478e+01    0.2631285    0.2177077 -50.73 0.0006490611    1.271    0.213
        54 -10.3345     97.7003    154.0439   1.2761907747e+02   3.1805200059e+01    0.2898373    0.2687649  62.05 0.0008319963    1.077    0.072
        55 -10.7808     13.5014     54.9510   1.4065461679e+02   6.5600455370e+01    0.2296582    0.1591414  42.80 0.0006694879    1.608    0.378
        56 -10.4123    100.8928    150.6880   1.2626849723e+02   3.1982942718e+01    0.3217511    0.2513384 -64.81  0.001310906    1.403    0.287
        57 -11.5358    199.2149    246.9569   1.1947294029e+02   1.8421390658e+00    0.3388305    0.2125645 -11.12  0.002397156    1.905    0.475
        58 -12.5542    140.6298    248.3389   1.2985531035e+02   9.6400568664e+00    0.4759231    0.3213265  62.40  0.003247008    1.972    0.493
