#   1 NUMBER                 Running object number                                     
#   2 MAG_AUTO               Kron-like elliptical aperture magnitude                    [mag]
#   3 X_IMAGE                Object position along x                                    [pixel]
#   4 Y_IMAGE                Object position along y                                    [pixel]
#   5 X_WORLD                Barycenter position along world x axis                     [deg]
#   6 Y_WORLD                Barycenter position along world y axis                     [deg]
#   7 A_WORLD                Profile RMS along major axis (world units)                 [deg]
#   8 B_WORLD                Profile RMS along minor axis (world units)                 [deg]
#   9 THETA_WORLD            Position angle (CCW/world-x)                               [deg]
#  10 FWHM_WORLD             FWHM assuming a gaussian core                              [deg]
#  11 ELONGATION             A_IMAGE/B_IMAGE                                           
#  12 ELLIPTICITY            1 - B_IMAGE/A_IMAGE                                       
         1 -12.8889    164.9293     85.6504   6.5488007502e+01   3.1597235418e+01     1.195493     0.785714  38.79  0.005210856    1.696    0.411
         2 -11.6093     78.1074     32.9718   7.0487598334e+01   5.9641410542e+01     1.121892    0.5682018   4.70  0.003190167    6.161    0.838
         3 -11.6125     93.7784     23.1841   6.1552610101e+01   5.7838685604e+01     0.798139    0.4449573  65.30  0.003575431    2.427    0.588
         4 -12.2875    100.9962     28.4841   6.1684076411e+01   5.5660252089e+01    0.4928231    0.3256989  -9.66 -0.000224193    1.685    0.407
         5 -11.4945    129.2993     18.9327   5.1451428836e+01   5.0286370945e+01    0.4648403    0.3304068  28.49  0.002459096    1.510    0.338
         6 -11.1187     12.6183      2.2528   8.4312006692e+01   7.3193975087e+01    0.3598728    0.2912728  27.39  0.001804398    1.654    0.395
         7 -10.3922      7.4665      1.9092   8.7066685591e+01   7.3721009260e+01    0.1744955    0.1409461   1.96  0.001348868    1.287    0.223
         8  -9.9095     14.9757     14.3156   8.9100144887e+01   7.1209929972e+01    0.1968784    0.1681759 -51.15 0.0006499321    1.690    0.408
         9 -11.2273      9.9999     15.8188   9.2445679138e+01   7.1398452524e+01    0.4141712    0.2031146 -26.26  0.002344116    1.849    0.459
        10 -12.6804     20.6156     17.8852   8.7832743526e+01   7.0117376295e+01    0.5243849     0.336138 -23.12  0.003370657    1.281    0.220
        11 -13.0255     23.5646      7.4238   8.1199322201e+01   7.1335494495e+01    0.4470025    0.4354869  71.42 0.0008855758    1.924    0.480
        12 -11.9157      4.7082     17.9028   9.6204486277e+01   7.1449319408e+01    0.3547615    0.2871353 -13.86   0.00174038    1.184    0.155
        13 -11.0239      5.1903     13.8045   9.4172629395e+01   7.2094910903e+01    0.2161566    0.1481808 -26.58 0.0002806392    1.085    0.079
        14 -12.2450     27.6137      3.7605   7.7214957953e+01   7.1330458636e+01    0.2678884    0.2174538  35.59 0.0005767356    1.652    0.395
        15 -11.8100     31.9833      1.8821   7.4072933642e+01   7.0993442086e+01     0.237202    0.1714857  12.12 0.0005546793    1.164    0.141
        16 -10.7904    157.7056     12.8876   4.4607093011e+01   4.3945969831e+01    0.3943163    0.2391769 -57.07  0.001916455    1.906    0.475
        17 -10.8657     48.2095     16.2771   7.4239783739e+01   6.6920346203e+01    0.6941169    0.4211836  -1.84  0.002298958    1.811    0.448
        18 -11.2382     27.0659     14.7656   8.3131942150e+01   6.9906162104e+01    0.3429658    0.3097291  89.07  0.001763228    2.254    0.556
        19 -10.3748     41.7796     19.2072   7.8400155205e+01   6.7434543235e+01    0.2895537    0.2467615 -37.35  0.001231285    1.477    0.323
        20 -11.7248     35.5122     15.1230   7.9271308771e+01   6.8835875980e+01    0.4069248    0.2049614  27.82 0.0004147111    2.008    0.502
        21 -10.4376     31.1325     12.8745   8.0227078237e+01   6.9696824226e+01     0.194268    0.1381191 -18.50  0.000302557    1.146    0.127
        22 -12.1978     40.0371     11.2944   7.5313463906e+01   6.8743937843e+01    0.3615771    0.2499815 -35.20 0.0004722811    1.560    0.359
        23 -10.6665     43.6187      8.8228   7.2490514470e+01   6.8538760953e+01     0.209529    0.1903871 -34.02 0.0009677978    1.561    0.360
        24 -10.9680     62.9580     15.1285   6.7921385674e+01   6.4690505398e+01    0.6151044    0.2986993  17.54  0.002506199    3.201    0.688
        25 -10.3667     81.3067      6.0915   5.7749312327e+01   6.2200625745e+01    0.2275166    0.1583197 -11.95 0.0003011515    1.443    0.307
        26 -11.1170     78.5862     10.6030   6.0594789653e+01   6.2302941431e+01    0.5002496    0.2034139  40.31  0.001137124    2.256    0.557
        27 -12.3469     74.2884      6.2698   5.9929819684e+01   6.3565967199e+01    0.9860387    0.3938747  -9.61  0.003745315    3.769    0.735
        28 -10.7624     74.4893     16.0101   6.4337872080e+01   6.2506334882e+01    0.2309295    0.2114563  46.99 0.0007685869    1.317    0.241
        29 -10.1763    242.3737     14.8322   3.6137843874e+01   2.3670740750e+01    0.3272609   0.08767968 -33.80  0.001299072    3.127    0.680
        30 -11.0631    241.4153      9.7031   3.5094628107e+01   2.4453457664e+01    0.2253913    0.1771857 -70.75  0.000454503    1.054    0.051
        31 -10.8718    236.8320      9.4170   3.5372987563e+01   2.5477467749e+01    0.3697604   0.09575518  62.47  0.001445536    3.559    0.719
        32 -10.4457    118.6048     12.7416   5.1359620974e+01   5.3436183195e+01      0.24544    0.2085528 -21.82 0.0007335268    1.269    0.212
        33 -10.0203    117.4086      9.1966   5.0274574034e+01   5.4044730109e+01    0.2168941    0.1800612 -29.42  0.001011283    1.327    0.246
        34 -10.5130    132.3837     11.2887   4.8169581101e+01   5.0304006855e+01    0.3383529    0.2575844   7.50  0.001159517    1.498    0.332
        35 -10.1170    100.2506     12.6572   5.5501791758e+01   5.7597616296e+01    0.2594666    0.1731943   1.30 0.0009955064    1.657    0.396
        36 -10.0098     55.1849     11.3675   6.9039442065e+01   6.6440099247e+01    0.3886743    0.1416462 -28.32  0.001194601    2.655    0.623
        37  -9.4161    107.6013     10.1156   5.2735087708e+01   5.6207851673e+01    0.1773352    0.1187197   2.93 0.0009336752    1.681    0.405
        38  -9.5225     59.0033      9.5067   6.6680029078e+01   6.6014012761e+01    0.1694107    0.1108499  41.40 0.0004599609    1.483    0.326
        39  -9.8408     33.2799      9.0299   7.7258782971e+01   6.9943047295e+01    0.1749673    0.1240646 -15.98  0.001154737    1.162    0.140
        40 -10.5828      7.3033      8.6547   9.0594264999e+01   7.2744159649e+01    0.3091922     0.169907  36.79  0.001224328    2.612    0.617
        41 -11.5728    245.4499      6.9302   3.4212892155e+01   2.3896699926e+01    0.4077998    0.1255767 -43.94  0.001821549    2.497    0.599
        42 -11.9082    238.0119      2.5206   3.3783412277e+01   2.5959746266e+01    0.4853778    0.2729154  76.96  0.002757293    1.678    0.404
        43  -9.8290    212.4648      8.4737   3.7150482052e+01   3.1079828046e+01    0.1275215    0.1098968 -78.04 9.867662e-05    1.020    0.020
        44 -11.1090    145.8090      6.4984   4.4334969845e+01   4.7473748796e+01    0.3861657      0.21131 -29.95  0.001907654    1.945    0.486
        45 -10.2105     67.0443      7.8779   6.3040080827e+01   6.4767034656e+01    0.1823437    0.1421744  16.71 0.0003033697    1.089    0.081
        46 -10.2717    215.9206      8.4978   3.6852972381e+01   3.0275935961e+01    0.1908178    0.1134271  76.16 0.0007390029    1.565    0.361
        47 -10.9679     93.2981      5.3990   5.4215117657e+01   5.9774066865e+01    0.4821219    0.2496749  39.43  0.002030566    1.746    0.427
        48 -10.3220    175.0069      5.6890   4.0222079044e+01   4.0359363479e+01    0.1850143    0.1519723  77.89 0.0002628618    1.088    0.081
        49  -9.8074    131.0011      5.7160   4.6460040130e+01   5.1134414417e+01    0.2242198    0.1673436 -53.06 0.0008186149    1.559    0.359
        50  -9.8570    165.0021      5.6705   4.1426184547e+01   4.2823797290e+01    0.1919355    0.1546588  75.53 0.0005613425    1.114    0.102
        51 -10.4936    112.6116      2.4820   4.8687022562e+01   5.5724795796e+01    0.3112029    0.2099598 -67.54 0.0007227375    2.106    0.525
        52  -9.5591    208.6785      2.3090   3.5985425654e+01   3.2587488499e+01    0.1359044   0.07971261 -64.45 0.0007035338    1.645    0.392
        53  -9.4463    223.6601      3.7152   3.5099598180e+01   2.9006708740e+01    0.1176171   0.08938821  48.80 0.0002092425    1.634    0.388
        54  -9.2680    159.0604      1.1903   4.0832722387e+01   4.4677392174e+01     0.175044   0.08992812  69.12 -0.000430966    1.706    0.414
        55  -9.4052     34.4599    201.4381   1.2015517581e+02   2.8074161874e+01    0.1187478   0.09627362  81.76 0.0003366249    1.061    0.057
        56 -10.5088    250.1403    246.8595   8.4045834878e+01  -1.1582042128e+01    0.1940075    0.1400228 -10.31  0.001261817    1.219    0.180
        57 -10.2329     72.7139    249.8932   1.1683940381e+02   1.3810495649e+01    0.1812088    0.1668056 -40.32  0.001357002    1.633    0.388
        58 -11.0604      4.8875    235.8385   1.2770369297e+02   2.4201568650e+01    0.2770332    0.2247259  57.56  0.001790367    1.332    0.250
        59 -12.1826     29.0691    248.3386   1.2431235258e+02   1.9404175963e+01     0.754596    0.2919897  65.77  0.004005916    2.405    0.584
        60 -12.1918     19.7176    238.0449   1.2532524928e+02   2.2301134037e+01     0.590358    0.2460325  43.11  0.003500846    1.993    0.498
        61 -13.3098      5.9121    244.7200   1.2793051793e+02   2.2468960128e+01    0.9269714    0.5611303  42.38  0.004454559    1.617    0.382
        62 -11.0073     17.4805    247.4772   1.2618311825e+02   2.0802976323e+01     0.184879    0.1316536  87.37 0.0005196718    1.231    0.188
        63  -9.6280    215.4835    194.5467   8.0970983509e+01   5.7447487662e-01    0.1355025    0.1137524   3.39 -4.311163e-06    1.058    0.055
        64 -10.5917     16.1795    192.9599   1.2319834982e+02   3.1783382322e+01    0.2150212    0.1657703  32.93 0.0009153554    1.619    0.382
        65  -9.5567    211.4848    188.4824   8.0549950787e+01   2.2428712558e+00    0.2361435    0.1198436 -27.17  0.001023704    2.214    0.548
        66  -9.4686      1.6179    188.2019   1.2579236636e+02   3.4112017791e+01    0.1561159   0.08255304 -72.68 0.0005030993    1.594    0.372
        67  -9.4150     61.6482    184.8450   1.1268727964e+02   2.8486142914e+01    0.1888752    0.1097501 -81.98 0.0009433962    1.728    0.421
        68 -11.4354     16.0176    182.7138   1.2247639293e+02   3.4050599924e+01    0.4318134    0.2102932  82.17  0.002257981    1.939    0.484
        69  -9.7882    167.4686    183.5089   8.8490679127e+01   1.1138080983e+01    0.1415296    0.1333902  19.36  0.000611668    1.005    0.005
        70  -9.5505     58.7922    182.1900   1.1302296909e+02   2.9462495604e+01    0.1686953    0.1488258 -55.32 0.0008351788    1.335    0.251
        71  -9.5686      1.7842    180.5531   1.2527806393e+02   3.5763746860e+01    0.1492702   0.08799987  52.72 0.0005461338    1.581    0.368
        72 -10.0700    244.4115    178.2653   7.2568678185e+01  -1.6488410177e+00    0.2481775     0.111738 -30.04  0.001110484    2.096    0.523
        73  -9.8500    223.8418    178.3612   7.6218251668e+01   1.7698576216e+00     0.185781     0.158168 -28.44 0.0005794878    1.168    0.144
        74  -9.3016     69.9642    177.9649   1.0991475135e+02   2.8950227745e+01    0.1940314    0.1555718 -35.37 0.0005897913    1.661    0.398
        75 -10.4077     46.5235    177.7208   1.1531310944e+02   3.1997459748e+01     0.254892    0.2142545  78.09  0.001641257    1.054    0.051
        76  -9.8780    200.5939    176.2358   8.0206671117e+01   6.2997182723e+00    0.1960519    0.1270581 -27.16 0.0007781691    1.602    0.376
        77 -11.1021     18.1333    173.3231   1.2126405919e+02   3.5972135244e+01    0.3289875      0.19165  66.02  0.001425899    1.603    0.376
        78 -11.6786     41.0999    164.0681   1.1504147293e+02   3.5814201006e+01    0.6080254     0.269762 -69.67  0.002407956    1.944    0.486
        79 -11.9382     50.8538    162.4396   1.1247195188e+02   3.5081031051e+01    0.6353311    0.4627448  82.56  0.003283197    1.306    0.234
        80 -11.0609     36.8847    157.8455   1.1533684859e+02   3.7750577443e+01    0.2590497    0.1855597 -88.23 0.0003530329    1.224    0.183
        81 -11.9478     35.6099    164.1210   1.1636116176e+02   3.6393085692e+01    0.6049829    0.3558387  86.86  0.002832923    1.660    0.398
        82  -9.6114     67.1952    165.1837   1.0882471929e+02   3.2337115117e+01    0.1973668      0.14524  72.36 0.0009378167    1.368    0.269
        83  -9.0067    200.3219    162.6717   7.7407701714e+01   8.8148588238e+00    0.1398033    0.1173324 -80.33  0.000704861    1.691    0.408
        84 -12.2706     21.3760    157.2988   1.1903879953e+02   3.9395080112e+01    0.4909983    0.4363453 -28.18  0.003357957    1.534    0.348
        85  -9.1669    115.6843    158.3249   9.5569735721e+01   2.6251097836e+01    0.1534188    0.1137744  79.21 0.0007043386    1.668    0.401
        86 -10.2982     11.5884    153.3187   1.2099095015e+02   4.1165008780e+01    0.2642506    0.1911447  10.27  0.001650319    2.009    0.502
        87 -10.1764    177.8715    151.2859   7.9526280892e+01   1.5503999135e+01    0.2966803     0.265924  84.80  0.001063812    1.348    0.258
        88 -10.3733     18.3210    146.4793   1.1866420549e+02   4.2226223535e+01    0.3008336    0.1978101 -37.58 0.0009356424    1.996    0.499
        89 -10.7635     22.6620    144.1320   1.1730571616e+02   4.2413023520e+01    0.2167414    0.1703203  75.75 0.0003265258    1.212    0.175
        90 -10.4171     12.9571    146.7312   1.2002443615e+02   4.2605867263e+01    0.2001998    0.1452484  39.84 0.0008155279    1.576    0.366
        91 -10.2623    207.1582    146.1924   7.2417618770e+01   1.0520811916e+01     0.221061       0.1934   1.03 0.0009291528    1.156    0.135
        92 -10.0844     41.5241    146.2459   1.1269137180e+02   4.0055569172e+01    0.2102627    0.1721052  46.31 0.0005576207    1.340    0.254
        93  -9.7288    220.4652    143.9985   6.9447507090e+01   8.2916563291e+00    0.2192077    0.1306722 -37.30 0.0007407669    1.541    0.351
        94 -10.2844      2.8112    143.8834   1.2224630485e+02   4.4030136205e+01    0.1878089    0.1325253 -65.32  0.001217249    1.264    0.209
        95  -9.8239     49.4108    141.8940   1.0997578407e+02   4.0235669138e+01    0.2031714    0.1743957 -42.48 0.0003073513    1.326    0.246
        96 -10.6794      9.2603    137.3035   1.1999356658e+02   4.5120952128e+01    0.2850673     0.110537 -70.23 0.0008189049    1.959    0.490
        97 -10.7567      2.7853    136.2846   1.2154509552e+02   4.5813557055e+01    0.2541478    0.1224401 -67.56   0.00109077    1.594    0.373
        98 -10.5098     21.6893    135.6840   1.1655756085e+02   4.4528988431e+01    0.2862344    0.1900715  66.66  0.001640801    1.590    0.371
        99  -9.7916     13.8768    136.0612   1.1866337127e+02   4.5070406859e+01    0.1849023    0.1366298  82.73  0.001157879    1.243    0.196
       100  -9.4527    122.8173    135.5801   8.8949857975e+01   3.0212252270e+01    0.2151181    0.1442479  53.61 0.0004573493    1.626    0.385
       101 -10.1721    249.8439    134.1546   6.2337022033e+01   4.4606181752e+00    0.1993301    0.1719858 -42.69 0.0006191575    1.186    0.157
       102 -10.3582     55.6377    133.1973   1.0686229156e+02   4.1631196939e+01    0.2714173    0.2020612  70.82  0.001165549    1.479    0.324
       103 -10.4037    107.3291    133.1643   9.2490688653e+01   3.3709296125e+01    0.2531777    0.2147274  22.85  0.001288765    1.348    0.258
       104 -11.4970     37.6408    129.4341   1.1132141515e+02   4.4569820329e+01    0.4878328    0.2247778 -58.84  0.002090238    1.790    0.441
       105 -11.3394     73.4298    129.1491   1.0106672722e+02   4.0250621445e+01    0.4685746    0.2718544  55.72  0.002055672    2.107    0.525
       106 -11.3094     13.6366    126.1233   1.1756645925e+02   4.7466497968e+01    0.3575303    0.2205843  25.07 0.0006091932    2.016    0.504
       107 -11.0715     10.8086    122.8359   1.1794767949e+02   4.8456237588e+01    0.2371225    0.2043342  68.43 0.0009017326    1.264    0.209
       108 -10.6472      2.1755    124.6089   1.2051811810e+02   4.8604596466e+01    0.3565179    0.1303019 -69.07  0.001694541    1.996    0.499
       109  -9.7987    219.8420    124.3997   6.5020008606e+01   1.1922894631e+01    0.1909046     0.135557  34.68 0.0003927002    1.590    0.371
       110 -11.2074     21.9609    121.1188   1.1456361535e+02   4.8024923956e+01    0.2613537     0.205629   1.78 -0.0009232552    1.698    0.411
       111  -9.9638     32.9383    121.4242   1.1142691126e+02   4.6986379367e+01    0.1667184    0.1608836 -44.81  0.001108862    1.215    0.177
       112 -11.5235     17.9223    114.7091   1.1482578081e+02   4.9886316219e+01    0.3721161    0.2454868 -38.26  0.002144563    1.688    0.408
       113  -9.9240    219.8046    116.7219   6.3194903584e+01   1.3303747187e+01    0.2481144    0.1816811  44.55  0.001167497    1.494    0.331
       114  -9.5320    214.1398    115.6115   6.3906231478e+01   1.4702347589e+01    0.1995485    0.1362821  37.30  0.000729628    1.664    0.399
       115  -9.9902     35.2035    114.2315   1.0956448021e+02   4.8521805278e+01    0.2153083    0.1619279 -83.25 0.0007420796    1.297    0.229
       116 -11.3502     36.4514    109.5417   1.0834664357e+02   4.9538386821e+01    0.3951071    0.2609929  75.53  0.001584991    1.930    0.482
       117 -10.9363    249.1124    112.3503   5.7571055836e+01   8.1714332819e+00    0.2720224    0.1751844 -41.06 0.0006708876    1.347    0.258
       118  -9.5560     94.6348    112.7165   9.1234642567e+01   4.0846336000e+01    0.2184908    0.1365026 -60.57 0.0009457592    1.661    0.398
       119 -12.5628     14.5151    109.3756   1.1506986650e+02   5.1411583343e+01    0.5725508    0.3620895 -36.03  0.003266209    1.790    0.441
       120 -10.0040     42.7234    111.4408   1.0675218578e+02   4.8442104821e+01    0.2566176    0.1279413 -47.90  0.001180136    1.846    0.458
       121 -11.7185      2.8013    106.1018   1.1814948517e+02   5.2931590754e+01    0.3161375    0.2804597 -60.38 0.0007599638    1.183    0.155
       122  -9.5614    103.5509    107.9925   8.7439451232e+01   4.0338703518e+01     0.230186    0.1428704 -47.38 0.0003559923    1.519    0.342
       123  -9.8973     70.6516    108.1655   9.7363949510e+01   4.5757643519e+01    0.2272221    0.1636612 -70.34 0.0008501699    1.462    0.316
       124 -10.7377     24.5298    107.5142   1.1170447841e+02   5.1094656404e+01    0.2897535    0.1990455  61.85  0.001633656    1.750    0.428
       125 -10.7024    243.8456    104.8397   5.6611581123e+01   1.0429424529e+01     0.208047    0.1790868 -16.36 0.0006022974    1.208    0.172
       126 -10.6812    247.1640    102.1589   5.5524466360e+01   1.0213635565e+01    0.1904288    0.1776622 -41.06 0.0006753767    1.086    0.079
       127  -9.3755    223.2465    103.9356   5.9531303784e+01   1.4826493975e+01    0.1913287    0.1127322 -38.33 0.0004574764    1.521    0.343
       128  -9.8099     51.0000    103.9160   1.0261410502e+02   4.9340719440e+01    0.2372489   0.06925357 -59.60 0.0008041114    2.954    0.661
       129 -12.5480     55.2528    110.4147   1.0265422429e+02   4.7264155400e+01    0.3094042    0.2570505 -54.06 0.0004403142    1.067    0.063
       130 -10.6099     36.1673    102.5713   1.0711770549e+02   5.1244215620e+01    0.3000469    0.2593046   6.27  0.001356762    1.399    0.285
       131 -10.3770    120.4133    100.4399   8.0635622579e+01   3.8704131714e+01    0.5211683    0.2735611 -23.54  0.001595629    3.691    0.729
       132 -10.0858     78.1676    101.3342   9.3346066693e+01   4.6251521691e+01    0.1991405    0.1310839  46.74 0.0003826584    1.722    0.419
       133 -11.1074     57.4013     96.4713   9.8822948988e+01   5.0331032393e+01    0.2532291     0.233813 -69.05 0.0003175192    1.122    0.109
       134 -11.0838     62.1275     99.0228   9.7892431663e+01   4.9115282932e+01    0.3636112    0.3277793 -74.87 0.0007896867    1.164    0.141
       135 -10.1688     66.3257     98.2776   9.6347176582e+01   4.8717993657e+01    0.2874689    0.1832133 -42.48  0.001392568    1.478    0.324
       136 -10.3740      1.8282     90.5420   1.1625238701e+02   5.6610412525e+01    0.4092633    0.1547546 -79.47  0.001021381    2.804    0.643
       137 -11.5667      3.0794     99.9607   1.1723269826e+02   5.4355432340e+01    0.2757733    0.2123031  89.93 0.0002863661    1.270    0.213
       138 -11.1921      1.4793     96.0259   1.1717871305e+02   5.5359024496e+01    0.2268531    0.1326295 -73.20 0.0003244921    1.364    0.267
       139 -11.2166    144.2150     98.6012   7.3944891191e+01   3.3898150999e+01    0.5327385    0.3840451  77.69  0.002262791    1.943    0.485
       140  -9.4777     91.4999    100.4967   8.9010398955e+01   4.4243826355e+01    0.1508236    0.1383977 -36.78 -7.625611e-05    1.045    0.043
       141  -9.7432     50.9243     99.2937   1.0161590544e+02   5.0453398741e+01    0.1768757    0.1649561 -45.29 0.0003537415    1.092    0.084
       142 -10.2139     40.7347     96.8449   1.0444360291e+02   5.2154095502e+01    0.2036717    0.2005967  70.03 0.0008184821    1.188    0.158
       143 -10.6293     20.5608     95.7266   1.1092867594e+02   5.4211392601e+01    0.3662978    0.1027623 -65.83  0.001380021    2.882    0.653
       144  -9.7484    249.8762     95.8204   5.3703265568e+01   1.0703504375e+01    0.1892028    0.1459159 -57.17 0.0007738515    1.314    0.239
       145  -9.0726     27.9604     95.9814   1.0852160719e+02   5.3557390706e+01    0.1489214    0.1213739 -58.92 0.0009217657    1.002    0.002
       146 -11.4197    156.9863     82.8799   6.6409147306e+01   3.4017347123e+01    0.6376237    0.4437034  18.82  0.002674602    2.036    0.509
       147 -11.5466    162.4760     92.2445   6.7899365838e+01   3.0927111875e+01    0.3578111     0.325403  -2.19  0.000467298    1.200    0.167
       148 -12.2325    233.3931    246.4663   8.6819866243e+01  -9.3378765853e+00    0.5911365    0.3065619 -36.47  0.003458603    2.172    0.540
       149 -11.2416     22.7478     86.9921   1.0850635658e+02   5.6085181782e+01    0.3072768    0.2000668 -47.20 0.0003406812    1.308    0.235
       150 -10.9432    109.1575     92.0519   8.1387893088e+01   4.2823748328e+01    0.4652373    0.1983306 -46.82   0.00168439    2.268    0.559
       151  -9.9515     31.5055     92.9885   1.0672933290e+02   5.3952550564e+01    0.1979407    0.1099205 -62.07 0.0003748949    1.499    0.333
       152  -9.5220     83.1544     88.8174   8.8367475369e+01   4.8309687221e+01    0.2015892    0.1610836 -24.65 0.0005256081    1.311    0.237
       153  -9.5251     57.7601     89.6079   9.6988241811e+01   5.1882272010e+01     0.188151    0.1278844  43.55 0.0007409335    1.722    0.419
       154 -10.1649     46.6513     88.2944   1.0046875389e+02   5.3521484111e+01     0.130632    0.1026118  76.11 0.0004306751    1.674    0.403
       155  -8.9932    139.2715     87.6802   7.1993716079e+01   3.7243518450e+01    0.1544697    0.1221909 -72.08 0.0006971636    1.566    0.362
       156  -9.3929    120.7628     87.0182   7.6622916083e+01   4.1484805401e+01    0.2013824    0.1259547 -42.15 0.0004990096    1.547    0.354
       157 -11.3589     66.8379     85.0921   9.2688766721e+01   5.1673710127e+01    0.5316561    0.2823193 -23.32  0.001936305    3.257    0.693
       158 -11.4522      2.1442     71.7563   1.1290736901e+02   6.0852972142e+01    0.9462367    0.2827048 -73.61  0.003399391    3.984    0.749
       159 -11.3168      5.1341     84.7070   1.1419132259e+02   5.7775384341e+01    0.6646699    0.2304938 -52.89  0.003146257    2.091    0.522
       160 -11.7075      3.7274     64.7750   1.1087838342e+02   6.2307711114e+01    0.4302187    0.3298581  70.65  0.001785863    1.752    0.429
       161 -12.2151      5.0969     58.8852   1.0900136783e+02   6.3504421751e+01    0.2780865    0.2276306 -51.03  0.000334499    1.081    0.075
       162 -11.4293     10.9384     62.6477   1.0753218039e+02   6.2359012148e+01    0.7086444    0.2879189 -27.19  0.003069981    3.217    0.689
       163 -12.1651     12.9994     77.5811   1.1005986280e+02   5.8930038046e+01     0.622363    0.2139952 -58.90  0.001783898    2.080    0.519
       164 -11.3518      8.3800     73.7793   1.1098579431e+02   6.0066563163e+01    0.3383961    0.2452094 -18.07  0.001465894    1.558    0.358
       165 -12.1280     23.0477     67.9160   1.0404734509e+02   6.0360941574e+01    0.8496791    0.4940471  79.88 0.0006762689    4.176    0.761
       166 -12.7241     16.4075     67.8517   1.0661867173e+02   6.0868742140e+01     0.353959     0.241727 -51.56 0.0003414017    1.140    0.123
       167 -10.9812     96.1365     90.5953   8.4825001565e+01   4.5639552675e+01    0.6445032     0.338605 -23.42  0.002061888    3.684    0.729
       168  -8.9693     83.2874     85.3234   8.7308505781e+01   4.9058504587e+01    0.1487351    0.1085756 -19.36 0.0005458838    1.604    0.376
       169 -10.8223    132.9586     83.1999   7.2234385595e+01   3.9567183840e+01    0.2686337    0.2460616  71.53 0.0005571497    1.194    0.163
       170 -11.4848     42.8835     82.6451   1.0038845360e+02   5.5229184830e+01    0.4156301    0.2306736  42.81 0.0009609491    2.229    0.551
       171 -11.2757     11.0793     90.6911   1.1319787628e+02   5.6045266415e+01    0.3916846     0.261719  40.85  0.001256779    1.849    0.459
       172  -9.6699    117.5876     83.2176   7.6338268528e+01   4.2939278030e+01    0.2257708    0.1417907 -30.63 0.0009536466    1.716    0.417
       173  -9.8294     88.2987     83.6264   8.5198144986e+01   4.8565286495e+01    0.2192071    0.2016498 -81.86  0.001207081    1.276    0.216
       174 -10.1838     86.4974     80.4976   8.4821276239e+01   4.9549875121e+01    0.2891124    0.2142114 -19.27  0.001417298    1.528    0.346
       175  -8.9411    196.2735     82.3104   5.8520978710e+01   2.4688219649e+01    0.1445709        0.118   7.83 0.0003093024    1.552    0.355
       176 -10.8673     51.0651     63.1369   9.1775929128e+01   5.8516019285e+01    0.3193265    0.2358831 -30.87  0.001014584    1.222    0.182
       177 -11.7464     50.3388     68.6443   9.3769683401e+01   5.7456934041e+01    0.4025837    0.2884158  -3.27  0.002190983    1.637    0.389
       178 -11.6247     62.2906     71.5171   9.0270039254e+01   5.5275636069e+01    0.4173428    0.3409821 -48.51  0.001218495    1.169    0.145
       179 -11.7106     58.5539     75.0184   9.2671901813e+01   5.5039927793e+01     0.884828    0.5146328 -74.47  0.003395364    3.367    0.703
       180 -10.8084     54.2336     73.5960   9.3811931940e+01   5.5910762170e+01    0.2997658    0.2523602 -56.95 0.0009182028    1.216    0.178
       181 -10.9519     31.1105     81.4207   1.0431791107e+02   5.6666559370e+01    0.4008678    0.2013458 -37.18  0.001534615    2.031    0.508
       182 -11.6266     18.7174     79.0760   1.0828789124e+02   5.8201775630e+01    0.5059193    0.3150483  47.69  0.001670191    2.132    0.531
       183 -10.2483     21.9716     77.0000   1.0663697277e+02   5.8428997504e+01    0.2818568    0.1770847  43.96 0.0008259112    2.058    0.514
       184  -9.3297    146.3227     81.6759   6.8489729308e+01   3.6774848148e+01    0.1594175    0.1226187 -75.46 0.0007047268    1.683    0.406
       185  -8.9586    112.2716     79.6830   7.6734205254e+01   4.4771442775e+01    0.1468813    0.1199912 -74.21 0.0001866744    1.561    0.359
       186  -9.1824     46.6863     92.3541   1.0143042839e+02   5.2573934086e+01    0.1352644    0.1020244  82.89 0.0001108823    1.735    0.424
       187 -10.3855     90.4848     76.1580   8.2187253651e+01   4.9747013278e+01    0.4687958    0.1984707 -48.00  0.000923385    2.337    0.572
       188 -12.3147     44.7920     75.2601   9.7747064497e+01   5.6674442310e+01    0.2428977    0.2280113 -50.56 0.0003815911    1.148    0.129
       189 -11.0576     75.1172     75.6429   8.7078427943e+01   5.2478635401e+01    0.2913153    0.2092949 -11.46  0.001429503    1.696    0.410
       190  -9.4200    121.9797     76.2249   7.2945381376e+01   4.3376059588e+01    0.2052165    0.1257289  47.88  0.000878535    1.671    0.402
       191 -10.2491    145.6166     73.4119   6.6134579984e+01   3.8474643004e+01    0.2999198    0.1884133 -34.12 0.0007687091    1.602    0.376
       192  -9.9178    137.7378     73.9257   6.8170003048e+01   4.0236963542e+01    0.2337533    0.2071206  -4.10 0.0005463103    1.216    0.178
       193 -10.8388     94.4486     73.3221   8.0023604151e+01   4.9588995276e+01    0.3019072    0.2355563 -12.94   0.00111389    1.422    0.297
       194 -10.3240    102.2640     73.3828   7.7647003819e+01   4.8063379382e+01    0.2006857    0.1419023  52.74 0.0009435036    1.596    0.374
       195 -11.4161    150.1958     71.3584   6.4457944193e+01   3.7746181388e+01    0.4374473    0.2554482 -43.23 0.0008730673    1.713    0.416
       196 -10.9161     77.9912     71.4164   8.4762573510e+01   5.2890996627e+01    0.3202121    0.2740844  82.38  0.001730082    1.613    0.380
       197  -9.7542     39.5008     72.2930   9.8900006070e+01   5.7896800683e+01    0.2489103     0.208702  12.59  0.001278807    1.345    0.257
       198 -10.7080     31.4109     68.1172   1.0084818900e+02   5.9600189718e+01    0.2424315    0.1724636  -0.56 0.0007875839    1.635    0.389
       199 -10.6124     40.7808     68.3727   9.7309381023e+01   5.8611739604e+01    0.2784491    0.2048855 -13.09  0.000848669    1.487    0.327
       200 -10.8336     37.1983     67.6525   9.8479618173e+01   5.9140051565e+01    0.3380867    0.2186128 -33.73   0.00133382    1.443    0.307
       201 -12.0281    167.6377     70.0037   6.0372627759e+01   3.3736323103e+01    0.2588555    0.2494759  88.21 0.0002915789    1.042    0.041
       202 -12.1129    200.4879     67.9526   5.3979322053e+01   2.6076411594e+01    0.2565996    0.2371909 -72.07  0.001441904    1.051    0.048
       203  -9.2942    180.2232     67.9799   5.7404202198e+01   3.0986893035e+01    0.1952943    0.1200929 -35.82 0.0005606088    1.589    0.371
       204 -11.1158     94.4310     65.9842   7.7586755653e+01   5.1026824761e+01    0.4084218     0.278338 -25.84 0.0008072409    1.537    0.350
       205 -10.9822     77.4083     64.3981   8.2630819235e+01   5.4393690566e+01    0.4148141    0.2887024 -33.97  0.002130305    1.341    0.254
       206  -9.2988    128.5715     71.5443   6.9712087265e+01   4.2786641262e+01    0.1504771    0.1447272  -7.40 2.431494e-05    1.021    0.021
       207 -11.0016    155.3445     61.0441   6.0158250431e+01   3.8246107385e+01    0.4437294    0.3187178   4.09  0.001897504    1.932    0.482
       208  -9.8499    109.2963     63.0462   7.2124416891e+01   4.8571621753e+01    0.2065584    0.1865241 -32.26 0.0004038424    1.094    0.086
       209 -10.6901     83.1586     61.3417   7.9630445292e+01   5.3988475965e+01     0.388098     0.317975  58.13  0.001302265    1.541    0.351
       210 -10.0938     86.7628     59.1766   7.7677010375e+01   5.3740200713e+01    0.3161782    0.2541243  72.34  0.001625528    1.805    0.446
       211 -10.0328    201.8616     62.0890   5.2201732223e+01   2.6670514856e+01    0.2253931    0.1854833 -69.67 0.0007472712    1.232    0.188
       212 -10.0576    121.5438     61.6748   6.8293965633e+01   4.6141561327e+01    0.3272822     0.207939  42.42  0.001483066    1.585    0.369
       213  -9.3979    113.9615     61.9822   7.0447000119e+01   4.7762080633e+01    0.1710088    0.1625241  -2.12 0.0009467597    1.003    0.003
       214 -10.2397    218.0519     61.0372   4.9623046077e+01   2.3021614399e+01    0.2066251    0.1957982 -47.65 0.0003497209    1.096    0.087
       215 -10.2726     44.7579     51.1081   9.0216093896e+01   6.1683613947e+01    0.3485922    0.1458932 -45.87  0.001567873    2.054    0.513
       216 -10.8796     29.8526     60.8791   9.9427195118e+01   6.1288544959e+01    0.5381491    0.2310832  14.82  0.002345661    3.187    0.686
       217 -12.9761     37.1425     50.2252   9.3047774677e+01   6.2723292466e+01    0.7368062    0.5551676 -31.10  0.003104145    1.108    0.098
       218 -11.1681     26.9678     50.1733   9.7339813561e+01   6.3742228370e+01    0.4744283    0.2807723 -64.50   0.00246222    2.060    0.514
       219 -10.1227     37.7077     40.6035   8.9324902070e+01   6.4469453207e+01    0.2763821    0.2219239 -88.60  0.001559538    2.365    0.577
       220 -10.2992     41.9777     37.8069   8.6397222231e+01   6.4460606962e+01    0.5213298    0.3364033 -48.89  0.002931375    1.659    0.397
       221 -10.4530     25.6256     90.9822   1.0832069146e+02   5.4927285171e+01    0.2876925    0.2043962 -50.28 0.0008913503    1.182    0.154
       222 -10.5119     63.9394     59.9250   8.5877595494e+01   5.7396374064e+01    0.2130674    0.1868731 -23.73 0.0005936226    1.012    0.012
       223 -10.7662     58.8627     58.7716   8.7367742554e+01   5.8355153746e+01    0.2679781    0.2218431 -65.60  0.001502572    1.553    0.356
       224 -11.0530     46.4595     57.2675   9.1644144171e+01   6.0271255991e+01    0.3779363    0.2589577  38.36   0.00108851    1.739    0.425
       225  -8.9638    142.2888     58.2824   6.2107017532e+01   4.1869914577e+01    0.1476989    0.1142803  20.14 0.0002148946    1.527    0.345
       226 -11.7265    147.1761     56.0522   6.0311713704e+01   4.1043636830e+01    0.4051302    0.2440967 -35.42  0.001002596    1.662    0.398
       227 -11.5266     75.3056     56.1097   8.0453400495e+01   5.6322416733e+01    0.2316962    0.2096859 -22.38 0.0002749863    1.064    0.060
       228 -10.3973    119.2469     53.5230   6.6101795398e+01   4.8025064063e+01    0.5014153    0.2901627  20.24  0.001881633    2.807    0.644
       229 -10.1976     98.6442     55.9296   7.2770165051e+01   5.2029200904e+01    0.2514787     0.186952  29.28 0.0006597843    1.388    0.279
       230 -12.4163    130.1362     49.7344   6.2075153283e+01   4.6111816198e+01    0.5877988     0.371767 -28.17 0.0003039132    1.644    0.392
       231 -10.9001     87.2078     51.5603   7.4768042764e+01   5.5010984412e+01    0.3715605    0.2984148 -26.85   0.00145146    1.176    0.150
       232  -9.6852     62.1697     53.1491   8.4138677120e+01   5.8953429109e+01     0.169059    0.1582203 -51.61  0.000444846    1.302    0.232
       233 -10.1016      3.8544     47.2149   1.0656989259e+02   6.6004469163e+01    0.2760971    0.1426032 -22.02  0.001534419    2.084    0.520
       234 -10.8474     11.4583     44.1383   1.0226876325e+02   6.6162711789e+01    0.3620261    0.2076641 -41.50  0.001659421    1.346    0.257
       235 -11.6322      5.9284     52.0458   1.0695362907e+02   6.4897528137e+01    0.5233958    0.2609092 -23.40  0.002802206    2.221    0.550
       236 -11.0444     12.0500     51.0038   1.0403078183e+02   6.4738964624e+01    0.2959201    0.2170537 -57.93 0.0009494126    1.251    0.201
       237 -10.6113     78.4763     47.0566   7.5986080204e+01   5.7372579648e+01    0.2201539    0.2066788 -23.44 0.0003346174    1.162    0.140
       238 -10.5141    103.6154     49.0755   6.8809528751e+01   5.2149673708e+01    0.4996761    0.2048036 -33.11  0.001909499    2.471    0.595
       239 -10.5110     73.2309     51.5676   7.9519866356e+01   5.7494458907e+01     0.355828    0.2131345  31.30  0.001739074    1.765    0.433
       240  -9.1779     64.7439     50.7390   8.2292265371e+01   5.9007272503e+01    0.1289967   0.09393886 -10.65 -0.000275831    1.439    0.305
       241 -10.0208     53.5458     50.2348   8.6389077609e+01   6.0723496684e+01    0.2259882    0.1755548  24.02 0.0007604266    1.361    0.265
       242  -9.9014    166.8553     48.8360   5.4186472698e+01   3.7274484761e+01    0.2102519    0.1915174  36.71 0.0003962549    1.166    0.142
       243 -10.7547    155.8906     46.7952   5.5589676666e+01   4.0296908645e+01    0.4154762    0.2730923 -12.44  0.001468052    1.939    0.484
       244 -11.0458    151.6773     47.8690   5.6756089913e+01   4.1183414902e+01     0.289214    0.2351786  32.68 0.0004449683    1.324    0.245
       245 -11.2170    112.9476     46.9288   6.5428110539e+01   5.0471504304e+01    0.4110407    0.3898465  -1.35  0.002394749    1.035    0.034
       246 -11.0883     91.9746     44.2498   7.0492060648e+01   5.5292845484e+01    0.5985212    0.2690619 -48.32  0.002251229    3.030    0.670
       247  -9.5569    240.4905     44.9761   4.3086700645e+01   2.0296944535e+01    0.1884851    0.1184691 -35.20 0.0004840835    1.486    0.327
       248 -10.7611     51.1964     44.9156   8.5339348736e+01   6.2015582764e+01    0.2156942    0.1807288  13.03 0.0003464943    1.211    0.175
       249 -11.8266     51.8580     40.0165   8.3163693038e+01   6.2786072853e+01    0.4886178    0.3587143  28.68  0.001153963    1.432    0.302
       250  -9.9803    211.7950     43.7867   4.6046768771e+01   2.6972166708e+01     0.188085    0.1820141 -67.03 0.0004632605    1.119    0.106
       251  -9.5350    174.9846     44.0142   5.1357804697e+01   3.5931496828e+01    0.1723921    0.1649333 -75.73 0.0006562668    1.019    0.019
       252  -9.6380     74.7536     44.3866   7.6245504393e+01   5.8471692260e+01    0.1858653    0.1203107  28.06 0.0005565939    1.607    0.378
       253  -9.4088    221.4598     43.4735   4.4808243620e+01   2.4759376619e+01    0.1342833    0.1222313 -64.04 0.0008082384    1.048    0.046
       254 -11.7175     81.6469     35.1461   7.0202124777e+01   5.8666962572e+01    0.5405045    0.3078688 -11.64 0.0008904787    2.287    0.563
       255 -10.8633     64.7363     41.8639   7.8883596062e+01   6.0556013213e+01    0.3683697    0.2306825  41.74   0.00127167    1.752    0.429
       256 -11.5982     69.3783     37.5716   7.5441364229e+01   6.0490995870e+01    0.4384671    0.3048038 -21.71  0.001321725    1.363    0.267
       257 -10.1587     31.1766     33.3789   8.9401177059e+01   6.6471483058e+01    0.3042957    0.2339422  14.62  0.001486667    1.352    0.260
       258 -12.1651     27.7927     38.1327   9.2783652035e+01   6.5968238394e+01    0.3032028     0.267101 -20.11  0.001144248    1.165    0.142
       259 -12.1642     24.3715     35.1301   9.3220891471e+01   6.6841685808e+01    0.4624632    0.2392822   1.76 0.0003587609    2.613    0.617
       260 -10.7395      7.0360     41.3154   1.0342521450e+02   6.7002910051e+01    0.2620468    0.1163751 -48.51 0.0005866213    1.641    0.390
       261  -9.6162    163.0194     42.2734   5.2865939049e+01   3.9158374998e+01    0.1942621    0.1784032  67.64 0.0003475714    1.051    0.049
       262  -9.8700    149.0901     41.8800   5.5340219622e+01   4.2671694435e+01     0.264286    0.1955269 -22.72  0.001327102    1.457    0.314
       263 -10.2377    137.6464     41.0885   5.7430081576e+01   4.5577406520e+01    0.2601364    0.1943058  50.20  0.001328708    1.277    0.217
       264 -10.2320    114.9106     39.5040   6.2205945776e+01   5.1125229440e+01    0.3271652    0.2083077 -16.43  0.001531622    1.786    0.440
       265 -10.9858    105.4063     35.2428   6.3114030247e+01   5.3820289102e+01    0.3211799    0.2108853 -48.57  0.001555573    1.870    0.465
       266 -10.3821     96.5351     41.0509   6.7874266510e+01   5.4864734609e+01    0.3625272    0.2057817 -41.68  0.001673254    1.891    0.471
       267 -10.9059    100.8522     37.3170   6.5177534059e+01   5.4508938638e+01     0.443878    0.2765907  19.86 0.0008065167    2.003    0.501
       268 -12.2339    226.1536    246.1661   8.8028411587e+01  -8.3107956525e+00    0.4812568    0.2966357  -6.32    0.0029151    1.736    0.424
       269 -10.0894    120.1549     40.1685   6.1131254097e+01   4.9837813031e+01    0.1922898    0.1695758 -85.87 0.0004943835    1.372    0.271
       270  -9.2327    188.3968     39.4782   4.8010723231e+01   3.3217788074e+01     0.139331    0.1287747 -70.62 7.400232e-05    1.024    0.023
       271  -9.0264    154.3382     38.6656   5.3305140509e+01   4.1807801612e+01    0.1521952    0.1070937 -68.20 0.0007051721    1.748    0.428
       272 -10.8653    230.0334     35.4112   4.1924864654e+01   2.3879514330e+01    0.3183601    0.2664136   7.17  0.001870362    1.670    0.401
       273  -9.9488      1.8590     37.0164   1.0453597083e+02   6.8140017113e+01      0.18443    0.1152405 -34.96  0.001196017    1.281    0.219
       274 -10.7242    143.2164     45.8273   5.7829351307e+01   4.3555294172e+01    0.3117782    0.2512557  89.02 0.0006594067    1.457    0.314
       275 -11.6419     57.8999     34.9345   7.8679943090e+01   6.2749124499e+01    0.2860102    0.2487623  -3.71 0.0003583647    1.069    0.064
       276 -10.5882     54.7058     30.2910   7.7973236511e+01   6.3955864731e+01    0.2235242    0.2148057 -35.74 0.0008794309    1.413    0.292
       277 -11.1651      9.9649     34.7755   9.9919466893e+01   6.8072797304e+01    0.5081085    0.2002253  17.38  0.002471288    2.934    0.659
       278 -11.1117      7.5587     32.4908   1.0029764613e+02   6.8661827371e+01    0.3165157    0.2244783  15.30  0.002166593    1.608    0.378
       279 -11.2542    192.7767     33.0745   4.5644625884e+01   3.2970995935e+01    0.2461808    0.2231838 -69.92 0.0002528727    1.032    0.031
       280 -10.2362    247.0725     33.1943   3.9788322306e+01   2.0440557917e+01    0.1738396    0.1636956 -77.26 0.0003967097    1.198    0.165
       281 -11.1238    166.8436     32.1887   4.9140813558e+01   3.9520437927e+01    0.3530751    0.2556972 -85.75  0.001051273    1.548    0.354
       282 -10.7903    120.5262     47.1257   6.3524752087e+01   4.8737373427e+01     0.380077    0.2532408  15.59 0.0009184824    1.985    0.496
       283  -9.9757    147.6664    245.6690   1.0240682734e+02   3.5419492604e+00    0.1203308   0.08903871   9.27 0.0007052156    1.727    0.421
       284 -10.2869     99.0025     20.5651   5.9046312622e+01   5.7034237053e+01    0.1948085    0.1660841  -7.13 0.0001417757    1.167    0.143
       285 -11.6317     74.3011    233.6291   1.1513505132e+02   1.6570167972e+01    0.3332741    0.1684412  54.92  0.001407363    1.727    0.421
       286 -10.8883    107.4224     18.3809   5.6036459063e+01   5.5424221405e+01     0.436363    0.2019434  49.55 0.0009214398    1.902    0.474
       287 -11.4438     48.1598     31.0506   8.0982795348e+01   6.4779263921e+01    0.4059882    0.2868435   2.27 0.0005363488    1.412    0.292
       288 -11.0021     17.3548     30.9702   9.4961200904e+01   6.8211126922e+01    0.3852347    0.2034961  19.92  0.002211634    2.081    0.520
       289 -10.3650     22.4397     25.8664   9.0434152845e+01   6.8642258795e+01     0.316908    0.2317109  -9.79  0.001511903    1.220    0.180
       290 -11.0025    235.8685     30.4010   4.0183665712e+01   2.3219724378e+01    0.2794575    0.2160816  55.82  0.001298838    1.506    0.336
       291  -9.4824    181.2262     31.0089   4.6637757350e+01   3.6080012399e+01    0.1798369    0.1139642 -30.43 0.0008719892    1.640    0.390
       292  -9.3445    157.5153     31.4858   5.0464229745e+01   4.1936058153e+01    0.1401458    0.1320344  82.55 6.162388e-05    1.035    0.034
       293  -9.5505    139.1774     30.7664   5.3609042892e+01   4.6551815502e+01    0.1843325    0.1528317  24.34 0.0003635908    1.288    0.224
       294 -10.6626    104.4657     21.4544   5.7983027223e+01   5.5743873355e+01     0.319981    0.2121653  56.60  0.001215937    1.481    0.325
       295 -10.9154     23.9428     42.3332   9.6037551164e+01   6.5542015301e+01    0.4002045    0.3111595  52.55   0.00105617    1.995    0.499
       296 -11.6263    111.8425     25.2406   5.7623125511e+01   5.3660470915e+01    0.3584393    0.2796855 -21.93 0.0009287634    1.327    0.247
       297 -10.6161     61.6293     24.7737   7.2843071740e+01   6.3672456055e+01    0.2693357    0.1694312 -24.33  0.001357864    1.487    0.327
       298 -10.1582    214.5244     26.9395   4.1482581535e+01   2.8508868909e+01    0.1966944    0.1242618 -33.91 0.0004948099    1.568    0.362
       299 -10.0089    209.0250     27.5128   4.2221144618e+01   2.9736310142e+01    0.1904058    0.1241627  71.98 0.0003259935    1.483    0.326
       300 -10.0161    194.6845     27.3067   4.3839497526e+01   3.3215477013e+01     0.144298    0.0937404 -65.73 0.0002170798    1.627    0.385
       301 -10.8191    128.5789     23.2757   5.3144803426e+01   4.9987598713e+01    0.2826587    0.2336203  30.60 0.0008716582    1.206    0.171
       302 -11.8057     74.8970    240.4378   1.1563657382e+02   1.5219462940e+01    0.5592983    0.4435283 -28.07  0.003558559    2.183    0.542
       303 -10.3995     70.6234     25.8688   7.0041917969e+01   6.1985252408e+01    0.3302763    0.2080262  26.58  0.001758662    1.586    0.369
       304  -9.1316    184.2954     26.2670   4.4877161088e+01   3.5892009176e+01    0.1320979    0.1004488  40.15 0.0002260164    1.513    0.339
       305  -9.8633    119.0200     25.6858   5.6098207852e+01   5.1963335908e+01    0.2004283    0.1753032  -8.01 0.0003812068    1.180    0.153
       306  -9.9909    120.1954     21.2943   5.4206706448e+01   5.2186803609e+01    0.3492397     0.232293   9.87  0.001506632    1.830    0.454
       307  -9.4663     65.4519     25.2857   7.1645438850e+01   6.2962787481e+01    0.1646623    0.1148741 -35.79 0.0004157797    1.503    0.334
       308 -10.7487     10.0953     24.9488   9.6231693859e+01   6.9850369976e+01    0.2627081    0.1509313   9.79 0.0007930576    1.881    0.468
       309  -9.5040      1.7490     25.6384   1.0078777113e+02   7.0282610327e+01    0.1291204   0.09857541  13.50 0.0006389118    1.527    0.345
       310 -11.0061    131.9831     25.8361   5.3353026390e+01   4.8880850820e+01    0.3425474    0.2330527  45.85 0.0006952185    1.383    0.277
       311  -9.2209    159.2990     24.2884   4.7914082059e+01   4.2342584037e+01     0.139288   0.09965073  36.21 0.0002707591    1.557    0.358
       312 -10.6148    185.9033     22.0462   4.3493029359e+01   3.5984265442e+01    0.3484152    0.1553894 -42.24   0.00150836    2.173    0.540
       313 -10.6951     55.1585     22.9143   7.4515221792e+01   6.4965235493e+01    0.2525039    0.1576836  -9.30  0.001359342    1.691    0.409
       314  -9.1273    227.4628     22.4409   3.9118354865e+01   2.6071349691e+01    0.1335632    0.1057454 -66.52  0.000151452    1.098    0.089
       315 -10.1397    155.6614     22.0686   4.7798865883e+01   4.3496133133e+01    0.2242178    0.1770377  80.82 0.0005846763    1.265    0.209
       316  -9.5819     36.2637     22.6387   8.2469641396e+01   6.7643578305e+01    0.1548532    0.1016328  16.08 0.0005445381    1.513    0.339
       317  -9.9841    179.3115    243.6810   9.6152458238e+01  -1.0779082683e+00    0.1141772   0.09003991  59.75 0.0007035873    1.645    0.392
       318 -10.3539     88.8757    241.2348   1.1309268075e+02   1.3139666705e+01    0.2003889    0.1486799 -36.84  0.001223594    2.107    0.525
       319 -10.1978    156.4985    241.5032   1.0016997471e+02   2.8121645309e+00    0.1239535    0.1031642  34.59 -0.0002473216    1.016    0.016
       320  -9.1306     50.3148    240.3068   1.2011913795e+02   1.8407659204e+01   0.09394833   0.08897789 -45.09 0.0003402403    1.626    0.385
       321 -10.1222    195.4473    238.7343   9.2401463176e+01  -2.8561131755e+00    0.2479033    0.1686565  20.66  0.001500465    1.346    0.257
       322  -9.7989    135.2251    238.1620   1.0383644975e+02   6.7070730056e+00     0.244805   0.09108022 -45.30  0.001038003    3.420    0.708
       323 -11.6672     29.8792    233.5512   1.2330439683e+02   2.2059484034e+01    0.4177891    0.1742629  83.44  0.002113818    2.569    0.611
       324 -10.1422    159.9703    236.0067   9.8736626584e+01   3.1275441440e+00    0.1933861    0.1418603   8.01 0.0006289284    1.667    0.400
       325 -11.5352     37.6388    243.9326   1.2259519047e+02   1.9239609543e+01     0.482595     0.250382 -82.56  0.002878174    1.827    0.453
       326 -12.1354     21.9649    248.8920   1.2551932401e+02   2.0075833427e+01     0.397454    0.2147298  51.56  0.001744377    1.430    0.301
       327 -10.1934    139.2439     20.4082   5.0071985930e+01   4.7725216224e+01    0.2294345    0.1822428  38.41  0.000165644    1.253    0.202
       328 -10.3344     66.9248     21.1980   6.9282448218e+01   6.3251122097e+01    0.2717827    0.1508299  35.19 0.0008009977    1.722    0.419
       329 -10.5482    160.5581     18.6330   4.5965642039e+01   4.2650197813e+01     0.380871    0.2177611 -59.03  0.001071613    2.127    0.530
       330  -9.0457    115.6762    244.6797   1.0837611182e+02   8.6135572517e+00    0.1121225   0.09214845   7.80 0.0007045818    1.676    0.403
       331 -11.2802    170.6062     18.5754   4.4507916371e+01   4.0156757779e+01    0.3460653    0.2414797  77.55 0.0007930324    1.376    0.273
       332 -10.5118     86.6377    233.1214   1.1271829505e+02   1.4950199347e+01    0.2320088    0.1350897  51.88  0.001018018    1.451    0.311
       333 -10.1610     24.1416    232.4196   1.2424588558e+02   2.2898371280e+01    0.1800112    0.1507504 -78.50 0.0006661257    1.407    0.289
       334  -9.1413     38.4865    232.5696   1.2170350189e+02   2.1277181694e+01    0.1139458   0.08606517  69.60 0.0002552153    1.014    0.014
       335  -9.8948    177.2487    234.8055   9.5232445657e+01   5.5719415761e-01    0.1718978    0.1326846   9.90 0.0007397966    1.344    0.256
       336 -11.8175     73.9758    236.8457   1.1548891461e+02   1.6009259955e+01    0.3315917    0.2970899  26.95   0.00236662    1.489    0.329
       337 -10.6070     35.4964    239.5075   1.2268942886e+02   2.0304369205e+01    0.2472847    0.1956184 -61.58  0.001819594    1.672    0.402
       338  -9.6475    190.4971    226.4889   9.1397994021e+01  -2.9725527679e-01    0.1971503    0.1142081 -27.03 0.0006317053    2.047    0.512
       339  -9.4162    130.6740    227.3405   1.0332541108e+02   9.3082610993e+00    0.1320687   0.09046664  66.98 0.0007051342    1.732    0.423
       340 -11.2214    120.2609    226.3449   1.0529005210e+02   1.1149407140e+01    0.1982343     0.179005  79.79 0.0007049205    1.150    0.131
       341 -10.8134      4.5704    226.1880   1.2730606645e+02   2.6065725951e+01    0.2767423    0.1094158  52.42  0.001542011    1.960    0.490
       342 -10.0606     65.9817    226.1031   1.1604479724e+02   1.9137712184e+01    0.1820528     0.150488  68.06 0.0005927061    1.052    0.049
       343 -10.9321     21.4472    222.1961   1.2411462665e+02   2.5176432113e+01    0.2654784    0.1283581  86.98  0.001519421    1.860    0.462
       344 -10.4897     77.8123     15.1756   6.2892785645e+01   6.1967014712e+01    0.2081112    0.1629528   6.31  0.000260756    1.177    0.150
       345 -10.6442    165.0978     17.6651   4.5007132251e+01   4.1623481822e+01    0.2538763    0.2181751 -67.33  0.000218925    1.183    0.155
       346 -10.1749    124.4376    221.8172   1.0385067076e+02   1.1320119162e+01    0.3690471    0.1834614  32.35  0.001698498    2.125    0.529
       347  -9.2689     41.6872    220.6959   1.2025561224e+02   2.3242617858e+01    0.1008046   0.08857969 -51.43 0.0007021548    1.616    0.381
       348  -9.1284    250.4745    219.4559   7.9348052383e+01  -8.3461367497e+00    0.1212444   0.09298344   1.75 0.0008083775    1.021    0.021
       349 -10.8161    153.8430    233.7113   9.9604765457e+01   4.4808591861e+00    0.1974232    0.1686569 -22.34  0.000767894    1.377    0.274
       350  -9.9562    110.0490    243.2190   1.0928487140e+02   9.7066964631e+00    0.2232242    0.1385178  74.68 0.0008670745    2.056    0.514
       351 -11.4878      9.5275    217.1311   1.2597134959e+02   2.7376336660e+01    0.2952767    0.1612265  60.90  0.001222024    1.464    0.317
       352  -9.5979     37.7851    217.4182   1.2075080720e+02   2.4357113922e+01    0.1397238    0.1085677  32.60 0.0006332751    1.611    0.379
       353 -11.4715     30.2655    216.0752   1.2208199548e+02   2.5469626865e+01    0.3830526    0.2443261  18.24  0.002200412    2.613    0.617
       354  -9.2324    169.6369     12.7503   4.2922366855e+01   4.1002038350e+01    0.1384227   0.09005647  45.99 0.0006597462    1.615    0.381
       355 -10.0249    176.2283     11.5698   4.1747517787e+01   3.9490591504e+01    0.1893881    0.1101256  59.51 0.0005279253    1.583    0.368
       356 -10.2943     23.2681    216.8086   1.2344246149e+02   2.6067139853e+01    0.2066218    0.1407351  31.13  0.001358698    1.833    0.454
       357 -11.2876    235.7630    215.0408   8.1092237638e+01  -5.6624999005e+00    0.3050414    0.1703819 -18.26  0.001174636    1.894    0.472
       358 -11.1587    241.1256    211.5917   7.9533124598e+01  -5.9794847817e+00    0.3501562    0.2573134  23.37  0.002233822    1.241    0.194
       359  -9.1688    194.6655    215.3099   8.8731361041e+01   7.5061456121e-01    0.1210005    0.1023684  66.47 0.0002470756    1.677    0.404
       360 -10.1013    142.1713    220.9089   1.0010432131e+02   8.5845177360e+00    0.2480907    0.1610299  17.69  0.001224371    2.078    0.519
       361  -9.7860     67.0207    215.2020   1.1480874293e+02   2.1190207484e+01     0.172385    0.1454595  -9.86 0.0007093684    1.931    0.482
       362 -10.3905     21.6484    212.5220   1.2346641018e+02   2.7109130573e+01    0.3095001    0.1474508  52.93  0.001790521    1.765    0.433
       363 -10.1658    208.9741    212.0635   8.5434635341e+01  -1.0842049236e+00     0.198102    0.1643739   7.90 0.0005224334    1.052    0.049
       364  -9.4271     76.3369    212.2991   1.1260761239e+02   2.0514319048e+01    0.1129712    0.1003121 -20.60 0.0006681224    1.658    0.397
       365 -10.1676      2.3120    212.3046   1.2701112459e+02   2.9016468493e+01    0.1928453    0.1263982  74.03  0.001075514    1.132    0.117
       366 -11.9029      4.5238    207.4910   1.2635292627e+02   2.9796416950e+01    0.5178595    0.2358584  83.87  0.002931625    1.878    0.468
       367 -10.1782     10.5529    208.7023   1.2530556371e+02   2.8989616906e+01    0.1903384    0.1603086 -48.25 0.0007947414    1.759    0.432
       368 -10.9673     19.6157    201.1411   1.2308975750e+02   2.9692550931e+01    0.2775286    0.1313346 -69.40  0.001196842    1.880    0.468
       369 -10.3321    175.4193    202.7137   9.0358129290e+01   6.1346731993e+00    0.2324325    0.1944502  40.62 0.0005364209    1.157    0.136
       370  -9.4045    243.3209    202.3067   7.7437704907e+01  -5.0163824384e+00    0.1302812   0.08351962   2.08 0.0002890141    1.639    0.390
       371  -9.3645      9.5120    202.5011   1.2513057934e+02   3.0374881457e+01     0.115181   0.08517422  79.75 0.0008105707    1.004    0.004
       372  -9.1585    223.5153    201.5334   8.0809472483e+01  -1.8311379370e+00    0.1266018     0.113044   3.63 0.0001103431    1.126    0.112
