#   1 NUMBER                 Running object number                                     
#   2 MAG_AUTO               Kron-like elliptical aperture magnitude                    [mag]
#   3 X_IMAGE                Object position along x                                    [pixel]
#   4 Y_IMAGE                Object position along y                                    [pixel]
#   5 X_WORLD                Barycenter position along world x axis                     [deg]
#   6 Y_WORLD                Barycenter position along world y axis                     [deg]
#   7 A_WORLD                Profile RMS along major axis (world units)                 [deg]
#   8 B_WORLD                Profile RMS along minor axis (world units)                 [deg]
#   9 THETA_WORLD            Position angle (CCW/world-x)                               [deg]
#  10 FWHM_WORLD             FWHM assuming a gaussian core                              [deg]
#  11 ELONGATION             A_IMAGE/B_IMAGE                                           
#  12 ELLIPTICITY            1 - B_IMAGE/A_IMAGE                                       
         1 -14.0995    193.3454     29.6473   6.2988070014e+01   3.2941456787e+01    0.9302321     0.801267  42.41  0.004002986    1.360    0.265
         2 -14.3112    204.1962     15.7328   5.8680505938e+01   3.2065714658e+01    0.9014426    0.7159002  18.72   0.00575249    1.892    0.471
         3 -13.2389    159.7857     16.8988   6.4412582575e+01   4.1853005822e+01    0.4413971    0.3495857 -55.08  0.002807616    1.403    0.287
         4 -13.1585    172.5391      4.6907   5.9721158566e+01   4.0100856642e+01     0.784065    0.3023219  52.26  0.003694534    2.375    0.579
         5 -10.9578     32.5157      2.4994   9.0605976065e+01   6.7606326664e+01    0.1115272    0.0810281   9.81 7.152423e-05    1.007    0.007
         6 -11.7718    193.3737    237.3846   1.0874989143e+02  -3.2140289599e+00    0.3588146    0.2358238 -53.08  0.001812784    2.033    0.508
         7 -13.3124    139.7101    243.3785   1.2065471942e+02   4.4844273383e+00    0.5617682    0.3170184  39.39   0.00285315    1.565    0.361
         8 -12.2949     98.9859    250.0000   1.2977816277e+02   9.6403213246e+00      0.50272    0.1741188  40.40  0.002142296    2.478    0.596
         9 -12.5441     95.2123    248.3939   1.3033655043e+02   1.0505742832e+01    0.4470438    0.3176114 -86.97  0.001957024    1.610    0.379
        10 -15.3021     53.3667    175.0483   1.3001401059e+02   3.2264079706e+01      3.50828     1.511834 -67.47   0.01487282    2.250    0.556
        11 -11.0943     88.7376    235.5993   1.3012031277e+02   1.3971374279e+01    0.1807198    0.1051538  48.07 0.0004840104    1.561    0.359
        12 -12.1135     82.4464    229.8182   1.3071613224e+02   1.6070416516e+01    0.3226225    0.2422324  34.23   0.00114759    1.403    0.287
        13 -17.4406     14.2349     94.1016   1.2714392953e+02   5.4613094776e+01     14.24301     6.515699 -71.30   0.06319347    2.816    0.645
        14 -17.4158     10.1751    241.7167   1.4556729128e+02   2.2471630694e+01     2.842971     2.007916  48.85   0.02070021    1.386    0.279
        15 -11.7471     77.1093    207.7922   1.2905539160e+02   2.1566685727e+01    0.3982998     0.256808 -66.44  0.001369883    1.524    0.344
        16 -12.1011    195.4942    195.9603   1.0067362560e+02   3.7289124202e+00     1.249327    0.8397799 -84.91  0.004403186    4.364    0.771
        17 -11.0859    208.5589    187.0117   9.6242189082e+01   3.0725712980e+00    0.2735711    0.1901468  18.19  0.001190453    1.607    0.378
        18 -13.1572     85.9074    168.0715   1.2077029787e+02   2.9430889735e+01    0.9807305    0.6935044  14.39 0.0007103211    1.858    0.462
        19 -13.9475     74.6362    164.3346   1.2298753395e+02   3.1987982074e+01    0.8326809    0.5955033 -43.73  0.001412338    1.427    0.299
        20 -11.8290     78.0775    177.7565   1.2438586334e+02   2.8315975528e+01    0.3563074    0.2252833 -46.88 0.0007389897    1.619    0.382
        21 -15.4732     12.3496    207.2661   1.4261995967e+02   2.9348843823e+01     1.412196    0.7817974  54.85   0.00610103    1.746    0.427
        22 -13.1516     67.8342    144.1513   1.2108922937e+02   3.7731356130e+01    0.8452845    0.5853071  77.39  0.003995304    2.050    0.512
        23 -12.0797     91.3960    160.8403   1.1801813674e+02   3.0281149599e+01    0.6449144     0.394269 -28.97 0.0007471131    2.280    0.561
        24 -11.1564    108.7619    172.5835   1.1585853923e+02   2.4641921427e+01    0.2129296    0.1344812  48.46 0.0009558471    1.667    0.400
        25 -11.8367     73.9742    183.5978   1.2630711292e+02   2.7535694720e+01    0.4440974    0.2606956 -37.91  0.001284927    2.195    0.545
        26 -16.1945     55.0647    206.7049   1.3374608528e+02   2.4779514159e+01     3.373216     2.559224 -80.67   0.02046509    1.211    0.175
        27 -10.5158     96.4778    237.4835   1.2876576462e+02   1.2440021841e+01    0.1284637    0.1128951  60.87 0.0001161461    1.012    0.012
        28 -11.0570    107.0801    236.3192   1.2642717374e+02   1.1044453123e+01    0.1892566    0.1570862  51.97   0.00115414    1.086    0.079
        29  -9.8459    179.8069    147.6129   9.3669206416e+01   1.6343956805e+01    0.2036654    0.1443468  54.53 0.0005718285    1.583    0.368
        30 -11.0045    104.7913    143.5723   1.1092083551e+02   3.2079854162e+01    0.5776317    0.2841617 -31.30   0.00194458    3.162    0.684
        31 -12.2362     92.6734    143.9815   1.1426669278e+02   3.4042127619e+01     0.289792      0.24069 -32.02 0.0004338918    1.242    0.195
        32 -10.7220    133.5192    143.5327   1.0347724755e+02   2.6696509407e+01    0.2868066    0.1460213 -57.47  0.001038875    2.419    0.587
        33 -11.4028     79.9867    135.1928   1.1588143463e+02   3.8089029668e+01    0.3300001    0.2593879  55.46  0.001719945    1.483    0.326
        34 -10.4295    113.1648    132.6360   1.0617783403e+02   3.3055958440e+01    0.2880828    0.2213324  -6.56 0.0008520074    1.631    0.387
        35 -10.4607    105.9187    130.7352   1.0767898636e+02   3.4810706790e+01    0.2927551    0.2213727 -55.28  0.001301156    1.350    0.259
        36 -10.9946    100.7211    129.0170   1.0869634197e+02   3.6121064577e+01    0.3001315    0.2326939 -19.04 0.0009493633    1.475    0.322
        37 -10.0933    109.0767    120.7145   1.0437793616e+02   3.6455433129e+01    0.2039494    0.1867705  15.53 0.0003299843    1.111    0.100
        38 -12.5009    122.5667     91.9513   9.3099490023e+01   3.9663383137e+01    0.7090788    0.4438159  20.36  0.002961849    2.196    0.545
        39 -13.6599     92.2574    109.4497   1.0625552351e+02   4.1886677491e+01     1.253262     1.008109   9.43  0.005164754    1.359    0.264
        40 -13.1313    105.6586    107.9052   1.0203074487e+02   3.9823860574e+01     1.045239    0.6782615 -46.54  0.003429885    1.525    0.344
        41 -13.2860    114.4400    102.6259   9.8199810176e+01   3.9226914088e+01     1.060613    0.6053717 -38.96  0.003797227    1.742    0.426
        42 -10.5548    167.7256    112.4579   8.7851859137e+01   2.5979187168e+01    0.3128801    0.2402027 -79.69 0.0008443387    1.750    0.429
        43 -11.8141     85.3436     99.2470   1.0560534201e+02   4.5180298583e+01    0.5894863    0.4187251 -67.66  0.002658403    1.988    0.497
        44  -9.5028    205.3543    110.3175   7.9991066678e+01   1.8168626206e+01    0.1456347    0.1133195   9.64 0.0007046191    1.746    0.427
        45 -11.1881    123.5120    101.9709   9.5610459207e+01   3.7541355794e+01    0.2323117     0.202678  36.13 0.0005693043    1.142    0.124
        46  -9.9382     63.6543     82.7190   1.0783033359e+02   5.1778173090e+01    0.1389872   0.09515186 -10.50 0.0007012328    1.638    0.390
        47 -11.7713     64.4722     70.1010   1.0382367320e+02   5.3999409324e+01    0.6658857    0.3662092 -23.76  0.003099782    2.079    0.519
        48 -13.1350    123.9107     64.6379   8.4859945947e+01   4.4037799130e+01    0.6892543    0.4540142  -8.30  0.003208418    2.028    0.507
        49 -11.7124    105.1149     62.1171   8.8937446963e+01   4.8293931450e+01    0.4358236    0.2282423  32.52  0.001904064    2.076    0.518
        50 -13.5050    177.1057     39.5793   6.7579616995e+01   3.5445635917e+01    0.6417179    0.5649941 -23.19  0.004039862    1.323    0.244
        51 -12.3905    184.2553     36.3769   6.5764674637e+01   3.4203616008e+01    0.3889091    0.3251165  60.13 0.0009347393    1.148    0.129
        52 -12.4254    132.3887    246.8992   1.2265614206e+02   5.0265769825e+00    0.4390388    0.2590826  36.85  0.001463466    1.515    0.340
        53 -12.8686    121.3704    248.8472   1.2515626946e+02   6.4193736269e+00    0.7415106    0.3115114  31.09  0.002539361    2.693    0.629
        54 -12.0198     87.6443    241.0880   1.3099395792e+02   1.3036197515e+01    0.2703092    0.2082941  84.77 0.0004324242    1.338    0.253
        55 -13.5806    141.2713    249.3813   1.2120017010e+02   3.1591835342e+00     1.461259    0.3211418  34.59  0.004035146    5.602    0.822
        56 -11.2015    101.9837    234.1982   1.2720798872e+02   1.2255858126e+01    0.2323197    0.1835689 -84.48 0.0006513179    1.377    0.274
