#   1 NUMBER                 Running object number                                     
#   2 MAG_AUTO               Kron-like elliptical aperture magnitude                    [mag]
#   3 X_IMAGE                Object position along x                                    [pixel]
#   4 Y_IMAGE                Object position along y                                    [pixel]
#   5 X_WORLD                Barycenter position along world x axis                     [deg]
#   6 Y_WORLD                Barycenter position along world y axis                     [deg]
#   7 A_WORLD                Profile RMS along major axis (world units)                 [deg]
#   8 B_WORLD                Profile RMS along minor axis (world units)                 [deg]
#   9 THETA_WORLD            Position angle (CCW/world-x)                               [deg]
#  10 FWHM_WORLD             FWHM assuming a gaussian core                              [deg]
#  11 ELONGATION             A_IMAGE/B_IMAGE                                           
#  12 ELLIPTICITY            1 - B_IMAGE/A_IMAGE                                       
         1 -14.8004      7.7038    143.3119   2.9262118075e+02   6.0787821862e+00    0.4008556    0.1364057 -69.74   0.02542274    4.316    0.768
         2 -13.7469    192.6487     25.4244   2.8975357710e+02   6.3260395224e+00   0.08164385   0.06870481 -54.06  0.007704274    1.171    0.146
         3 -12.9946      2.7576      8.0161   2.9184441426e+02   7.6651935635e+00   0.06466988   0.04949521 -40.52  0.007229785    1.340    0.254
         4 -13.6228    208.3418      7.0291   2.8945813976e+02   6.4426403823e+00   0.06766301    0.0534545 -19.34  0.007572959    1.431    0.301
         5 -13.0430      2.9631     20.1248   2.9191684851e+02   7.5247878483e+00   0.06720949   0.03812637 -39.58   0.00629888    1.957    0.489
         6  -9.5745     83.9688    244.9688   2.9236445815e+02   4.4521318723e+00   0.01430432  0.006982581  63.10  0.000958465    4.129    0.758
         7 -12.0244    174.4813    249.1412   2.9134581403e+02   3.8618424299e+00   0.02664293   0.01667395  30.90  0.002012004    1.579    0.367
         8 -11.8040    122.9127    249.5109   2.9194292051e+02   4.1667132199e+00   0.03193052   0.01373322  39.16  0.002695516    2.296    0.564
         9 -13.5819    140.5796    248.5237   2.9173302470e+02   4.0722284392e+00   0.07611648   0.02874003  31.69  0.006126502    2.510    0.602
        10 -13.1488    132.5743    246.0702   2.9181029297e+02   4.1484498457e+00   0.03825415   0.03714124  -0.82  0.004827399    1.036    0.035
        11  -8.5985     73.5444    250.4787   2.9251860805e+02   4.4510102134e+00   0.00651043  0.006463117 -49.75 0.0001623221    1.010    0.010
        12  -9.0242      2.5614    249.7242   2.9333345508e+02   4.8834444485e+00  0.009159755  0.006497449 -78.20 0.0009458556    1.599    0.375
        13 -10.1794     95.1333    241.0257   2.9221136895e+02   4.4307490115e+00   0.01789213  0.005480857 -49.26  0.001264999    3.177    0.685
        14 -14.3214    109.9632    229.5005   2.9196934965e+02   4.4747022930e+00     0.540189          nan  32.45   0.01791121   14.743    0.932
        15 -12.9161     51.2604    218.0037   2.9257657987e+02   4.9582951757e+00   0.06577705   0.04747962 -46.35  0.005750253    1.386    0.278
        16 -10.1413     21.5728    211.5799   2.9288012617e+02   5.2095663994e+00   0.02293828    0.0131099  14.25  0.002104071    2.100    0.524
        17 -12.8042     37.5487    236.3513   2.9284752721e+02   4.8288155544e+00   0.02012654   0.01433372 -39.64  0.000779385    1.472    0.321
        18 -12.3448     10.6370    206.7734   2.9297700408e+02   5.3301786785e+00   0.03854584   0.02356853  17.82  0.002963382    1.809    0.447
        19 -11.5168     63.1927    201.4463   2.9233701803e+02   5.0777154236e+00   0.01469107   0.01139724 -38.43 0.0005049861    1.337    0.252
        20  -9.9540    194.5051    197.8989   2.9079910070e+02   4.3313936259e+00   0.02576524   0.01225116 -85.07  0.001597571    4.958    0.798
        21 -13.9847     43.2393    229.0780   2.9273719617e+02   4.8786285959e+00    0.0493205   0.03741869  36.03  0.002667891    1.315    0.239
        22 -11.9415     69.3091    192.8356   2.9221340966e+02   5.1403275475e+00   0.01510739   0.01230551 -33.76 0.0004639643    1.288    0.223
        23 -13.1795     66.0807    177.8415   2.9215848718e+02   5.3323506820e+00   0.02762613   0.01382143 -40.05   0.00169516    2.306    0.566
        24  -8.6775    209.5441    179.8266   2.9051409342e+02   4.4489685387e+00  0.008807055  0.006459573 -82.25 0.0004287344    1.580    0.367
        25 -10.8347     79.2524    179.5062   2.9201650346e+02   5.2343701058e+00   0.01193988   0.01094739 -40.52 0.0003277439    1.089    0.082
        26 -11.8627     86.5109    169.8911   2.9187342381e+02   5.3016608563e+00   0.03504929   0.02800265 -33.28  0.003979928    1.324    0.245
        27  -9.6929    178.5063    228.9910   2.9117531137e+02   4.0696178155e+00  0.009497106  0.005792248  83.68  0.000810192    2.537    0.606
        28  -9.1637    101.2952    149.3576   2.9157602042e+02   5.4495602576e+00   0.01068385  0.008941243   2.49  0.001226736    1.293    0.226
        29 -11.9519     87.3559    152.9967   2.9175958330e+02   5.4911606254e+00   0.01436962   0.01166877 -29.72 0.0006506041    1.317    0.241
        30 -10.0811    134.0000    146.0049   2.9117738602e+02   5.2920345028e+00   0.03335753   0.01099575 -67.95  0.002162841    4.033    0.752
        31 -12.3901     67.1363    143.6706   2.9193590517e+02   5.7195926569e+00   0.03317377    0.0228064  54.71  0.002748313    1.655    0.396
        32 -10.1554     98.5978    153.8329   2.9163478797e+02   5.4141914401e+00   0.01568989   0.01180139 -52.53 0.0008325069    1.304    0.233
        33  -9.9317    109.9368    138.3208   2.9140806273e+02   5.5248331392e+00   0.02146162   0.01127056 -35.22  0.001636464    2.405    0.584
        34  -9.1285     84.4353    135.0191   2.9168253535e+02   5.7156597022e+00   0.01182712   0.00845278  46.90 0.0005993782    1.471    0.320
        35  -8.4833    192.2110    144.0276   2.9049293838e+02   4.9650889554e+00  0.008594024  0.005270478 -60.71 0.0004193602    1.612    0.380
        36 -10.5123     97.4010    135.5133   2.9153566425e+02   5.6322953388e+00   0.01233395   0.01029662 -27.13 0.0003549818    1.278    0.217
        37  -9.1680    107.0664    124.6245   2.9135673169e+02   5.6997147961e+00   0.00888495  0.007945535  18.33 0.0004040361    1.136    0.120
        38 -10.2233     99.1196    249.1266   2.9221512238e+02   4.3135950052e+00   0.01068032  0.009017074 -26.99 0.0008791095    1.258    0.205
        39  -9.2484    203.3670    111.3691   2.9016221933e+02   5.2736473243e+00   0.01036212  0.007451727 -27.39 0.0007212156    1.603    0.376
        40  -9.9706    167.8850    112.9784   2.9058189759e+02   5.4685826906e+00   0.01437385   0.01141449  76.36 0.0008898388    1.476    0.322
        41  -9.3655      3.1579    227.9393   2.9319316271e+02   5.1308937270e+00   0.01240355  0.009510182  30.79  0.001381477    1.300    0.231
        42  -9.8402     27.5000     60.2561   2.9188028330e+02   6.9167785056e+00   0.01475065  0.006730417  40.58  0.001262691    2.212    0.548
        43 -10.4995    173.1532    222.4165   2.9119655173e+02   4.1774186966e+00   0.01541357  0.008638561  23.95  0.001451746    1.858    0.462
        44 -11.1569      2.6587     50.8726   2.9211020870e+02   7.1730126106e+00   0.01590565   0.01060165 -45.42  0.001649666    1.514    0.340
        45 -11.8974      2.2951     38.9700   2.9204096526e+02   7.3120857254e+00   0.02956475     0.017505  72.01   0.00251626    2.692    0.628
        46  -9.4657     81.9503    248.9579   2.9241224882e+02   4.4182598606e+00   0.01110421  0.007842157  65.29   0.00113042    1.738    0.425
        47  -9.5341     19.3030    247.5866   2.9312707000e+02   4.8082556353e+00   0.02176579    0.0119938  22.48  0.002031833    1.928    0.481
        48 -11.9702    185.6906    239.0037   2.9115414113e+02   3.9112594894e+00   0.02416558   0.01630468  73.96  0.002249649    1.996    0.499
