#   1 NUMBER                 Running object number                                     
#   2 MAG_AUTO               Kron-like elliptical aperture magnitude                    [mag]
#   3 X_IMAGE                Object position along x                                    [pixel]
#   4 Y_IMAGE                Object position along y                                    [pixel]
#   5 X_WORLD                Barycenter position along world x axis                     [deg]
#   6 Y_WORLD                Barycenter position along world y axis                     [deg]
#   7 A_WORLD                Profile RMS along major axis (world units)                 [deg]
#   8 B_WORLD                Profile RMS along minor axis (world units)                 [deg]
#   9 THETA_WORLD            Position angle (CCW/world-x)                               [deg]
#  10 FWHM_WORLD             FWHM assuming a gaussian core                              [deg]
#  11 ELONGATION             A_IMAGE/B_IMAGE                                           
#  12 ELLIPTICITY            1 - B_IMAGE/A_IMAGE                                       
         1 -14.8711    164.3573     41.1769   7.8568340012e+01   3.9044446814e+01     1.500946     1.074244  -5.67  0.004085422    1.479    0.324
         2 -14.4776    178.6721      8.6607   6.4642922807e+01   3.8969018779e+01     1.122066     1.016651  29.00  0.003666116    1.055    0.052
         3 -13.4997    192.1715      3.6241   6.1183608281e+01   3.5789444109e+01     1.144784    0.4946135 -89.02  0.003627264    3.879    0.742
         4 -10.3990    150.7763    245.6247   1.2445148046e+02   9.6793967037e+00    0.1339923   0.09068172  42.81 0.0003818132    1.081    0.075
         5 -19.8206     72.5666    167.9192   1.3078158117e+02   3.2092837925e+01     14.91523     6.203021 -69.63   0.07482439    2.554    0.608
         6 -10.4788     21.9136    243.7584   1.4447250898e+02   2.4989779363e+01    0.1347184   0.08658667  79.96  0.001228437    1.338    0.253
         7 -11.6977    169.6601    195.1574   1.1492978604e+02   1.3149824007e+01    0.2220899    0.1477566  38.42 0.0008697985    1.210    0.173
         8 -13.0092    180.2645    193.1212   1.1265382488e+02   1.1674583507e+01    0.3541354    0.3362714 -59.82  0.002553259    1.458    0.314
         9 -13.6454    165.7230    188.6554   1.1469071718e+02   1.4702958769e+01     0.765967    0.3431807  45.28  0.003755734    1.935    0.483
        10 -13.6279    175.3989    186.1594   1.1246488559e+02   1.3430542133e+01    0.5280735     0.369793 -58.79  0.002525341    2.203    0.546
        11 -13.7218    206.9024    177.8264   1.0519145343e+02   9.1026906642e+00    0.5678635    0.4405227  20.49  0.002463342    1.056    0.053
        12 -10.7082     11.1447    240.6582   1.4592305948e+02   2.6371019236e+01   0.07966585   0.04026615  73.02 0.0006367479    1.538    0.350
        13 -13.7198    174.7871    193.2589   1.1368988448e+02   1.2563685088e+01      0.56027    0.3116378 -45.50  0.002714634    2.303    0.566
        14 -12.0057    117.5848    180.8564   1.2303806900e+02   2.3604570869e+01    0.6389937    0.2824032  62.25  0.002233832    4.938    0.797
        15 -10.8254     13.4678    233.2332   1.4535931153e+02   2.7232358983e+01    0.1027469   0.06651255  79.48 0.0004525857    1.279    0.218
        16 -10.0846     25.7501    231.7518   1.4346924536e+02   2.6353829803e+01   0.06994459   0.06190908  67.53            0    1.411    0.292
        17 -11.4099      3.7667    180.3094   1.4505465496e+02   3.6512777568e+01    0.2181276    0.1475734  29.35  0.001741288    1.806    0.446
        18 -11.6867    203.6790    171.4599   1.0461880155e+02   1.0483481317e+01    0.4137018    0.2267918  29.33  0.002099012    1.679    0.404
        19 -11.2213    170.4192    185.2093   1.1325950421e+02   1.4405324646e+01    0.2271561    0.1951406  52.17 0.0006905284    1.289    0.224
        20 -13.3568    195.7572    170.1354   1.0585189676e+02   1.2076257937e+01    0.5294945    0.4052805 -36.65  0.001873838    1.562    0.360
        21 -11.7783    193.7457    165.0165   1.0527810370e+02   1.3143989692e+01    0.2910721    0.2491762  23.41 0.0009533008    1.058    0.055
        22 -10.6310     10.8772    174.5504   1.4351841123e+02   3.6991177439e+01    0.1424756    0.1059746 -86.49 0.0003060131    1.225    0.184
        23 -12.2225    143.8359    168.4219   1.1585144957e+02   2.1497130468e+01    0.4973191    0.3194453  80.01  0.002198764    3.204    0.688
        24 -11.4908    140.7004    174.3074   1.1741973435e+02   2.1051226700e+01    0.2623111    0.1695295  46.18 0.0006604174    1.367    0.268
        25 -12.3464    138.1135    171.1474   1.1746341538e+02   2.1999987231e+01    0.4615885    0.4460111 -75.65  0.003076827    1.187    0.157
        26 -11.4790    126.0116    171.8300   1.2006913192e+02   2.3842075642e+01    0.2526031    0.1862989 -62.60   0.00109602    1.582    0.368
        27 -11.9452    177.4680    169.9279   1.0932903366e+02   1.5384663976e+01    0.2645669    0.1258919 -45.76  0.001214422    2.639    0.621
        28 -12.0415     25.1723    225.4001   1.4330742870e+02   2.7348572470e+01    0.2313562    0.1170767 -67.47  0.001645177    2.271    0.560
        29 -11.9981    112.3746    169.0030   1.2251998682e+02   2.6447149897e+01    0.4644672    0.2504417  54.44  0.002389503    1.912    0.477
        30 -10.8738    219.1535    224.1577   1.1055274454e+02   2.0152558684e+00    0.1397383    0.1119725  33.88 0.0003514862    1.320    0.242
        31 -11.0151    110.2324    222.9574   1.2905719732e+02   1.8115051761e+01    0.1422533    0.1132319  58.94 0.0004279784    1.131    0.116
        32 -11.4000    201.2928    164.1638   1.0368638812e+02   1.1882084042e+01    0.4280576    0.2642414 -33.36  0.002299575    1.796    0.443
        33 -11.3296     19.6881    222.9176   1.4406116191e+02   2.8217559341e+01    0.1236422   0.09640267 -89.44  0.001150542    1.365    0.267
        34 -10.4488     24.7367    165.1730   1.4034817627e+02   3.7580734178e+01    0.1408332    0.1126209  83.61 0.0006130212    1.086    0.079
        35 -10.4292     13.3124    163.1072   1.4247878818e+02   3.8906892988e+01    0.1399551   0.09594093  88.89 0.0004279394    1.181    0.153
        36 -10.6189    222.4613    161.6986   9.9333390159e+01   8.3517073881e+00    0.2057141    0.1742243 -30.52 0.0007806926    1.478    0.323
        37 -11.1598    130.0763    161.3333   1.1760686015e+02   2.5013596084e+01    0.2104424    0.1677309  76.26 0.0005830415    1.502    0.334
        38 -10.6959      7.7422    220.8073   1.4582494687e+02   2.9562588136e+01   0.06800133   0.05759245  58.79 0.0003304424    1.369    0.270
        39 -11.8689    121.7744    157.1173   1.1873206431e+02   2.7128556002e+01    0.3236782    0.2350744  62.27  0.001496367    1.495    0.331
        40 -12.5903    163.1374    155.4237   1.0957153977e+02   2.0227481108e+01    0.3458704    0.3112457 -66.62  0.001401859    1.412    0.292
        41 -12.4092    116.1355    212.0869   1.2694751151e+02   1.8881368821e+01    0.2225291     0.159672  75.11   0.00135163    1.620    0.383
        42 -13.8392    135.4421    123.6300   1.0933130699e+02   3.1065423414e+01     2.520632    0.3349481 -48.30  0.005002938    9.994    0.900
        43 -14.1288    133.8546    145.3884   1.1404109098e+02   2.7250013584e+01     1.479522    0.4132324 -54.91  0.004226353    5.864    0.829
        44 -11.8736    110.5609    212.0581   1.2794912144e+02   1.9653715356e+01    0.3041007    0.1701286  69.04  0.001478151    2.415    0.586
        45 -13.8710    144.2090    145.9030   1.1183056736e+02   2.5312675783e+01    0.9093381    0.4311346 -59.63  0.003444711    3.502    0.714
        46 -11.2987    174.6419    148.9246   1.0592843396e+02   1.9116434906e+01    0.2326544    0.2152131  68.58 0.0007179644    1.354    0.262
        47 -11.9404    108.5984    207.8170   1.2787700196e+02   2.0561076774e+01    0.2002131    0.1482157  43.47 0.0007401166    1.127    0.113
        48 -10.3019     24.2685    213.6853   1.4296392205e+02   2.9232795910e+01     0.112393   0.07585604  35.10 0.0007165622    1.638    0.390
        49 -12.0214     23.0696    138.1705   1.3879403866e+02   4.3023922520e+01    0.2652606    0.1933043  12.81  0.001841881    1.949    0.487
        50 -11.9407      5.0960    137.4584   1.4272792901e+02   4.4481962580e+01    0.2453574    0.2145382 -59.16  0.001306704    1.418    0.295
        51 -13.1925     11.8052    206.1426   1.4468215932e+02   3.1520362867e+01    0.3638991    0.2112354  32.99  0.002274607    1.883    0.469
        52 -12.3364    160.5441    127.8886   1.0448726574e+02   2.5399347293e+01    0.3944624    0.3394068 -56.51  0.002184321    1.393    0.282
        53 -12.0223    161.4720    197.5537   1.1680362015e+02   1.4148417467e+01    0.2602352    0.2105534  64.10  0.001598147    1.514    0.340
        54 -12.1260    163.9021    203.1287   1.1713742406e+02   1.3000477807e+01    0.2848336    0.2038512  50.90 0.0003472831    1.380    0.275
        55 -11.7623    139.8655    120.8431   1.0766278427e+02   3.0758232333e+01    0.3131673    0.1976229  47.01  0.001052689    1.566    0.361
        56 -11.9229    157.4756    201.7956   1.1813609851e+02   1.4198200855e+01    0.4583463    0.3144851  73.67   0.00227451    2.447    0.591
        57 -10.7866    154.0082    195.4987   1.1791329167e+02   1.5634682395e+01    0.2701137     0.170596  60.83  0.001498608    2.030    0.507
        58 -10.7346    167.6119    112.6402   9.9328031501e+01   2.6610451543e+01    0.2882138    0.2240218 -85.13  0.001331346    2.090    0.522
        59 -11.8350    168.9233    202.3800   1.1611418063e+02   1.2300730419e+01    0.1707248    0.1619517  56.92 0.0005490846    1.317    0.240
        60 -10.5082    139.3172    201.0158   1.2141035756e+02   1.7129222988e+01    0.1575734    0.1310035  84.20 0.0005659293    1.512    0.338
        61 -10.8155    205.3347    110.2381   9.0961345328e+01   1.8814741768e+01    0.3133271    0.1903612  40.48  0.001007652    1.557    0.358
        62 -11.2739      8.3588    102.1642   1.3936234474e+02   5.1649669374e+01    0.2177956    0.1896691  66.73  0.001701702    1.233    0.189
        63 -10.8784    125.0727    243.6100   1.2844173167e+02   1.3402077140e+01    0.1134048    0.0907409  44.68  0.000939486    1.118    0.105
        64 -10.3256    144.5386     80.4898   9.6022247960e+01   3.7438495107e+01     0.153983    0.1432391   2.28 6.738186e-05    1.016    0.016
        65 -14.4666    152.8461     56.2163   8.6268188283e+01   3.9696826978e+01     1.293129     1.118709  35.78 0.0009533923    1.127    0.113
        66 -10.0650    159.9713    247.9908   1.2320563043e+02   8.1430372703e+00    0.1162672   0.09662107  35.81 0.0009756692    1.182    0.154
        67 -12.8728    168.4916     33.2534   7.4977736129e+01   3.9011589798e+01    0.4631825    0.3784337   3.60 0.0009467048    1.223    0.183
        68 -10.9017     13.4116     59.8837   1.3252419074e+02   6.0736341057e+01    0.1680584    0.1505982  83.63 0.0004067082    1.246    0.197
        69 -10.3830    142.1432     32.9445   8.0380254899e+01   4.5827730460e+01    0.2203486    0.2061204 -55.09 0.0003051897    1.259    0.206
        70 -11.4235    133.7471    247.2465   1.2736461112e+02   1.1806440590e+01     0.129331    0.0971028  45.66 0.0003532824    1.063    0.059
