#   1 NUMBER                 Running object number                                     
#   2 MAG_AUTO               Kron-like elliptical aperture magnitude                    [mag]
#   3 X_IMAGE                Object position along x                                    [pixel]
#   4 Y_IMAGE                Object position along y                                    [pixel]
#   5 X_WORLD                Barycenter position along world x axis                     [deg]
#   6 Y_WORLD                Barycenter position along world y axis                     [deg]
#   7 A_WORLD                Profile RMS along major axis (world units)                 [deg]
#   8 B_WORLD                Profile RMS along minor axis (world units)                 [deg]
#   9 THETA_WORLD            Position angle (CCW/world-x)                               [deg]
#  10 FWHM_WORLD             FWHM assuming a gaussian core                              [deg]
#  11 ELONGATION             A_IMAGE/B_IMAGE                                           
#  12 ELLIPTICITY            1 - B_IMAGE/A_IMAGE                                       
         1 -10.2115    158.8393     19.1912   7.0591276430e+01   4.3247892312e+01    0.4804336    0.4095139 -85.88  0.001584654    1.201    0.167
         2  -8.8283    231.5805     15.8840   6.0749874537e+01   2.6155809854e+01    0.2742736    0.2048686 -39.59  0.001681918    1.454    0.312
         3  -9.4594    179.5839     10.0606   6.5079323070e+01   3.9148678404e+01     0.460192    0.2597398  84.32  0.001564218    1.799    0.444
         4  -8.3408    175.6606      8.3189   6.5130326747e+01   4.0271389442e+01    0.2370523    0.1666757 -76.18  0.001037794    1.490    0.329
         5  -7.6642    247.9925      3.4978   5.6834662547e+01   2.3936458876e+01    0.1804903   0.07859235 -78.08 0.0007736712    2.541    0.606
         6  -7.7476    126.4431    245.4534   1.2960666425e+02   6.5380665991e+00    0.1282234    0.1042671  57.64 6.824862e-05    1.015    0.015
         7 -10.4085     70.2853    249.1505   1.4032704439e+02   1.4633386667e+01    0.7921106    0.2392336  38.19  0.003217737    3.574    0.720
         8 -10.4174     17.7895    248.4684   1.4903871289e+02   2.1399025780e+01    0.5084639    0.2344429 -83.43  0.002439944    1.836    0.455
         9  -9.8503     79.7454    233.0231   1.3706620307e+02   1.6360540824e+01    0.2644179    0.1965666  60.30  0.000499454    1.117    0.105
        10  -9.0678     68.9014    244.9713   1.4020173105e+02   1.5616316787e+01    0.2505362     0.189354  65.94 0.0005681266    1.048    0.046
        11 -12.4777     69.7695    236.4010   1.3925742042e+02   1.7148566004e+01     1.448046    0.8925112  45.26  0.008654975    1.521    0.343
        12  -8.2970    154.9064    240.3028   1.2343424415e+02   2.5376369434e+00    0.1920109    0.1692692  77.96   0.00025748    1.245    0.197
        13  -8.3264    124.3841    239.4037   1.2924379548e+02   7.9758142472e+00    0.3333367    0.1824064 -47.76  0.001682171    2.295    0.564
        14  -7.5389    132.2277    240.0169   1.2780305438e+02   6.5268769023e+00    0.1504394    0.1070901 -59.65 0.0006287093    1.613    0.380
        15  -8.9961    183.3030    238.2807   1.1762355154e+02  -2.1015540856e+00    0.2266606    0.1893058  46.82 0.0003774268    1.146    0.127
        16  -9.3018     44.5660    237.8186   1.4388799028e+02   2.0260556082e+01    0.2164803    0.1706511  82.93 0.0003765761    1.140    0.123
        17  -8.5779    107.9284    237.2004   1.3215109998e+02   1.1130433963e+01     0.193985    0.1629126  79.00 0.0003556321    1.115    0.103
        18  -9.1305     10.0287    247.5144   1.5019635134e+02   2.2416781740e+01    0.1519444    0.1057058  71.53 0.0005768022    1.081    0.075
        19  -7.2428    168.6388    236.6931   1.2022495764e+02   7.3016687354e-01    0.1321058   0.09669193  14.32  0.000324301    1.736    0.424
        20  -7.5398    149.8229    236.6189   1.2390136080e+02   4.0681374722e+00    0.1916732    0.1042872  50.77 0.0005165666    1.662    0.398
        21  -8.1119     98.2850    236.3205   1.3389947651e+02   1.2855414215e+01    0.2031073    0.1319562  48.00 0.0005148166    1.340    0.254
        22  -7.7431    127.2883    234.0445   1.2798197471e+02   8.4702229024e+00    0.1739933     0.149682  67.78  0.000380018    1.070    0.066
        23  -7.8095    132.0896    234.5086   1.2709810300e+02   7.5540432732e+00    0.1901768    0.1115452  46.60 0.0004068148    1.453    0.312
        24  -7.5099      1.4438    233.4549   1.5078980500e+02   2.5947533995e+01    0.1070498   0.07442155  80.58 0.0005051921    1.045    0.043
        25  -9.0958     86.5349    231.9996   1.3566800727e+02   1.5536934348e+01    0.2348809    0.1402472  59.93 0.0006706436    1.467    0.318
        26  -7.8083    124.0968    231.1145   1.2822429496e+02   9.5714343035e+00    0.1783626    0.1332387  66.42  0.000355579    1.268    0.211
        27  -8.2092     11.1956    231.0012   1.4907333228e+02   2.5437795306e+01    0.1520172     0.114598 -87.77 0.0005014676    1.235    0.190
        28  -9.0316      5.4784    229.6314   1.4992929690e+02   2.6287527462e+01    0.1960228     0.132152  75.16  0.001452937    1.061    0.058
        29 -11.8436     38.4927    246.8422   1.4558609363e+02   1.9284905775e+01      1.05741    0.6823908  61.32  0.007316046    1.205    0.170
        30 -11.3950     26.9271    248.0866   1.4756124162e+02   2.0434008641e+01    0.9778043    0.4613636  60.92  0.005996477    1.665    0.399
        31 -11.0719     50.4708    249.2681   1.4375445194e+02   1.7310407485e+01     1.211188    0.3510303  38.44  0.005185166    3.608    0.723
        32  -7.5954     12.9415    226.9798   1.4853635590e+02   2.6047411803e+01    0.1331924    0.0930483  80.92 0.0003388222    1.019    0.019
        33  -7.6859    146.0027    226.0049   1.2311243490e+02   6.6682363583e+00    0.2012381    0.1450771  67.52 0.0004613596    1.521    0.343
        34  -7.2792    118.3043    226.2820   1.2873825314e+02   1.1498628919e+01     0.118081    0.1046377  12.17 0.0003713506    1.555    0.357
        35  -7.5927    186.0277    225.3286   1.1499311635e+02  -4.6923215267e-01    0.1847699    0.1557348  35.24 0.0004502501    1.045    0.043
        36  -7.5140    248.6804    224.6870   1.0312449044e+02  -1.0881945908e+01    0.1277333   0.08303411   4.65 0.0004253294    1.650    0.394
        37  -8.5544     57.4278    216.3374   1.3964472342e+02   2.2950333437e+01    0.2274352    0.1533059  79.58 0.0005468397    1.283    0.220
        38  -9.5217     57.7252    222.9885   1.4022971804e+02   2.1523184246e+01    0.2163406    0.1785454  23.10  0.001384303    1.875    0.467
        39  -8.4104     55.7022    220.3103   1.4035893398e+02   2.2348850735e+01     0.191755    0.1261684  59.39 0.0005238102    1.296    0.228
        40  -8.3275     40.1108    222.5856   1.4346101508e+02   2.3866692436e+01    0.1937162    0.1269311  83.39 0.0004558698    1.239    0.193
        41  -7.5457     33.4843    223.4187   1.4472440998e+02   2.4489632533e+01    0.1176995   0.08687101  77.58 7.087033e-05    1.013    0.013
        42  -7.3031    187.5302    221.5214   1.1405251095e+02  -9.8438691569e-02    0.1344009    0.1194429  33.07  0.000220988    1.008    0.008
        43  -8.2432    149.6866    220.7513   1.2156379358e+02   6.9831482532e+00    0.2145003    0.1961008  28.84  0.000516042    1.185    0.156
        44  -7.8291    125.8674    220.1149   1.2635360873e+02   1.1399230544e+01    0.1678318    0.1535752  35.74  0.000309225    1.250    0.200
        45  -7.2989    164.2950    219.3031   1.1835039323e+02   4.5608437012e+00    0.1312558    0.1049256   8.53 0.0001811008    1.577    0.366
        46  -7.8114     90.2965    219.6876   1.3352960173e+02   1.7448063759e+01    0.1357672    0.0857217  72.07 0.0002999348    1.599    0.375
        47  -9.7021     74.5571    208.6874   1.3541664403e+02   2.2177688607e+01    0.3543164    0.1862222 -55.66  0.001761384    2.062    0.515
        48 -11.3300     81.6304    213.8543   1.3458314950e+02   2.0012658889e+01    0.6269571    0.4748187  86.74  0.003261754    1.189    0.159
        49  -7.5590    154.4503    218.4609   1.2022696933e+02   6.5385641832e+00    0.1377634    0.1215352  53.51 9.195424e-05    1.031    0.030
        50  -7.3253    110.9600    218.7499   1.2922089231e+02   1.4257114402e+01    0.1676213    0.1034809  44.53 0.0002888739    1.480    0.324
        51  -7.7703    170.7741    241.6101   1.2055062521e+02  -4.5388229225e-01    0.1823451    0.1045859  48.80 0.0005721397    1.582    0.368
        52  -7.3384    166.2970    216.3463   1.1745352906e+02   4.7320463154e+00    0.1355904    0.1066586   2.89 0.0002825699    1.675    0.403
        53  -8.9921     68.5502    216.1178   1.3745127571e+02   2.1458745978e+01    0.2172074    0.1407893  57.23 0.0006782625    1.347    0.258
        54  -8.4508    146.2666    214.0414   1.2121458945e+02   8.9012070204e+00    0.3006876     0.186819 -41.90  0.001459412    1.931    0.482
        55  -8.1735     19.1347    214.9555   1.4665554472e+02   2.7828309991e+01    0.1856785    0.1282566  65.00 0.0005379623    1.216    0.178
        56  -7.8136    132.9873    213.4865   1.2390119290e+02   1.1448702659e+01    0.1929873     0.176262 -84.96 0.0003611548    1.134    0.118
        57  -9.0008     70.9810    212.2533   1.3654684908e+02   2.1931708529e+01    0.1789385    0.1443639  71.33 0.0004828601    1.048    0.045
        58  -7.3363    177.7080    211.3094   1.1425907054e+02   3.5160907529e+00    0.1337276    0.1072128  75.97 0.0002452572    1.584    0.369
        59  -7.7753    127.0901    210.6675   1.2471229179e+02   1.3087826174e+01    0.1897866    0.1574542  53.90 0.0004920117    1.084    0.077
        60  -8.1440     11.4871    209.6942   1.4764888195e+02   2.9699678638e+01    0.2041755    0.1174726  79.40 0.0007008273    1.392    0.281
        61  -7.4086    200.3210    209.2665   1.0934691694e+02  -3.4173739718e-01    0.1360743    0.1002471  12.16 0.0004385715    1.560    0.359
        62 -10.4104     76.9995    213.2654   1.3545047314e+02   2.0834172573e+01    0.4715093    0.2210796 -72.67  0.002196558    2.217    0.549
        63  -7.2208     69.4355    208.4817   1.3643631739e+02   2.2964994313e+01    0.1305282     0.104854  79.23  0.000194326    1.017    0.017
        64  -7.8109     40.9935    205.5443   1.4179952696e+02   2.7347858192e+01     0.165213    0.1087325  46.46 0.0006945418    1.531    0.347
        65  -8.4084     12.4667    204.5164   1.4710509412e+02   3.0683073443e+01    0.2006634    0.1437228  87.34 0.0005488975    1.035    0.034
        66  -7.7443    141.7352    204.0724   1.2055341757e+02   1.1741451369e+01    0.1869793    0.1765087  85.35 0.0003517442    1.082    0.076
        67  -9.9443     80.9994    205.3025   1.3367917910e+02   2.1949420901e+01    0.4405583    0.3092721  85.82  0.001756749    1.364    0.267
        68  -7.5002      4.2464    203.0612   1.4849283508e+02   3.1771276581e+01     0.154374    0.1070043  86.38  0.000535028    1.038    0.037
        69  -7.5036    123.5442    202.4557   1.2420671568e+02   1.5442830740e+01    0.1408703    0.1256543  67.32 0.0001475093    1.006    0.006
        70  -6.9785     49.3231    201.6357   1.3976761377e+02   2.7170260910e+01    0.1377846   0.07687311  73.07 0.0001271616    1.788    0.441
        71  -7.9065    195.4233    199.2241   1.0844839155e+02   2.3515744073e+00    0.1907797    0.1343289 -55.01 0.0009475044    1.698    0.411
        72  -8.0192     76.8109    198.7899   1.3374665491e+02   2.4015021409e+01    0.1827809    0.1709595 -87.42 0.0005405864    1.233    0.189
        73  -7.1296     94.6794    198.3000   1.2984375085e+02   2.1332947451e+01    0.1436895   0.09400933  72.46 0.0002053295    1.624    0.384
        74  -7.3763      8.4403    198.5161   1.4741051155e+02   3.2335784962e+01    0.1170961   0.08221591  83.54 9.914316e-05    1.056    0.053
        75  -7.2559    182.6771    197.2720   1.1068325247e+02   5.1759444223e+00    0.1387444    0.1105523  72.88 0.0001866201    1.573    0.364
        76  -8.2063    126.8227    197.1710   1.2264901642e+02   1.5972312874e+01    0.2054072    0.1748336  71.13 0.0003283135    1.114    0.102
        77  -6.9307     64.4672    197.5086   1.3619922014e+02   2.6076236083e+01     0.131172    0.1077038  83.52 8.499195e-05    1.009    0.009
        78  -7.4341    204.3385    195.7167   1.0599089041e+02   1.2851297267e+00    0.1343875    0.1115242  76.77 0.0004058063    1.627    0.386
        79  -6.9293     92.6927    191.2808   1.2927766039e+02   2.3226544000e+01    0.1416219   0.09542576  72.74 0.0003033967    1.559    0.358
        80  -7.5515    106.1889    188.8313   1.2589243788e+02   2.1511906107e+01     0.171052    0.1644645 -37.94 0.0002355534    1.294    0.227
        81  -7.4734    176.3234    187.2681   1.1009745173e+02   8.3792950151e+00    0.1438089    0.1133566  10.91 0.0003429115    1.567    0.362
        82  -7.2078    160.3479    184.7125   1.1304825304e+02   1.2120294900e+01    0.1515209    0.1136151  75.25 0.0002704255    1.657    0.397
        83  -7.3314     71.5209    182.4322   1.3275722603e+02   2.8503266204e+01    0.1378441    0.1126465  82.04 0.0001714548    1.075    0.070
        84  -7.5198    136.7837    181.3172   1.1766817278e+02   1.7537377068e+01    0.1919442    0.1319194  38.15 0.0002363889    1.495    0.331
        85 -10.3313    100.9898    175.9865   1.2500236811e+02   2.5349677180e+01    0.2047024    0.1832682  85.23  0.001163695    1.004    0.004
        86  -7.2732     32.5729    175.4389   1.4051541288e+02   3.5000828510e+01    0.1246763   0.09803712 -87.07  0.000129357    1.007    0.007
        87  -8.5432    176.6872    170.7897   1.0668906379e+02   1.1654008187e+01    0.3161562    0.1334198 -38.50   0.00109909    2.717    0.632
        88  -7.6630     58.4623    168.4944   1.3383283116e+02   3.3548233606e+01    0.1344015    0.1125638 -85.67 0.0001008672    1.003    0.003
        89  -7.3195     93.4369    166.4590   1.2518588786e+02   2.8856856935e+01    0.1445462    0.1278671  89.86 0.0001637675    1.027    0.026
        90  -7.2539     20.3421    163.6577   1.4193802862e+02   3.8903399665e+01    0.1303508   0.07492323  73.29 0.0007048113    1.780    0.438
        91  -7.4268     73.6041    158.2142   1.2864490414e+02   3.3902322428e+01    0.1780705    0.1186492 -56.70 0.0002645935    1.411    0.291
        92  -7.5357     87.4283    154.1465   1.2449715561e+02   3.2765111889e+01    0.1935685    0.1288734 -74.29 0.0004754148    1.551    0.355
        93  -9.1059    115.5158    152.7767   1.1718921413e+02   2.8182488940e+01    0.3100833    0.2299104  46.31 0.0006134721    1.363    0.266
        94  -7.5388     50.5116    151.5736   1.3332078483e+02   3.8536592769e+01    0.1326854    0.1113053 -83.19 0.0002292182    1.037    0.036
        95  -7.2883     81.2714    150.3090   1.2536213854e+02   3.4648545833e+01    0.1361182    0.1061147 -36.51 0.0001855818    1.545    0.353
        96  -8.3911    181.1229    145.8312   1.0023839086e+02   1.5918016731e+01    0.2275553    0.2019725 -89.62 0.0003488105    1.246    0.198
        97  -7.2606     81.5325    143.4727   1.2403086325e+02   3.6244960999e+01    0.1446282    0.1271946 -83.72 0.0001071217    1.074    0.069
        98  -7.7208     42.2459    140.3997   1.3372413594e+02   4.2114809939e+01    0.1614332    0.1142882  52.02 0.0003985652    1.553    0.356
        99  -8.9404    227.7356    139.0601   8.9492028824e+01   7.1155714986e+00    0.2928894    0.2122869  51.80 0.0007581575    1.484    0.326
       100  -7.5447    131.4798    139.4663   1.1032806010e+02   2.8134793317e+01    0.1533995    0.1493049 -77.55 0.0001532543    1.030    0.029
       101  -7.1562     75.6808    139.2891   1.2477628349e+02   3.8124852156e+01    0.1418621    0.1034227  77.77 0.0002614977    1.598    0.374
       102  -8.4007    113.9121    137.6887   1.1438837155e+02   3.2035689872e+01    0.2333625    0.1978469 -44.03 0.0005681874    1.212    0.175
       103  -7.6545     61.4684    129.4457   1.2674223347e+02   4.2426429300e+01    0.1368746    0.1193611 -74.86 0.0001195823    1.061    0.058
       104  -7.8127    173.8759    123.1664   9.6389964696e+01   2.2341118895e+01    0.2116295    0.1885445  10.71 0.0004691225    1.316    0.240
       105  -8.4492    245.9629    120.7943   8.2341498583e+01   6.6870665463e+00    0.2269224    0.1844229 -40.80 0.0003366967    1.112    0.101
       106  -7.7058    230.2870    120.5686   8.4838539280e+01   1.0013091784e+01    0.2061248    0.1373098  40.77 0.0005447597    1.722    0.419
       107  -7.7212    134.4962    106.4757   1.0138845164e+02   3.4862770627e+01    0.1546482    0.1490131 -80.02 5.841002e-05    1.047    0.045
       108  -7.9296     98.9481     94.3101   1.0774303870e+02   4.4603056883e+01    0.1993915    0.1873392  26.26 0.0005714991    1.107    0.097
       109 -10.2880    144.8049     80.8337   9.1676955912e+01   3.7654545985e+01    0.7762756    0.4633264  -7.79  0.002526439    3.781    0.736
       110  -9.0413    184.3019     76.6068   8.2133530939e+01   2.8839955350e+01    0.2971055    0.2455931 -32.01 0.0005647356    1.305    0.234
       111 -10.0323    151.8656     66.3589   8.5836396862e+01   3.8527728421e+01    0.6574861    0.3608935 -25.44  0.002640514    2.293    0.564
       112  -8.2638    102.0086     67.4431   9.8865837985e+01   4.9269481427e+01    0.2113895    0.1350943  43.20  0.001020755    1.574    0.365
       113  -9.8220    239.9031     64.9052   7.0633060473e+01   1.7487354159e+01    0.2693503    0.2415919 -69.56 0.0003542894    1.062    0.058
       114  -8.6907    125.8412     61.9640   9.0640583163e+01   4.5270967249e+01    0.2304286    0.2028536  67.61  0.001264218    1.242    0.195
       115  -9.2017    244.1735     60.7463   6.9181795552e+01   1.7178369945e+01    0.2346064    0.1842378 -45.44 0.0006753708    1.221    0.181
       116  -9.6822    217.0572     58.4412   7.2165801912e+01   2.3795628005e+01    0.3859099     0.211109  29.71  0.001240307    4.739    0.789
       117  -9.2227    146.5633     52.0333   8.2710016108e+01   4.2051306230e+01    0.3748973     0.271477  76.96  0.000967589    1.609    0.378
       118  -9.9606    233.7207     57.0277   6.9629622306e+01   2.0104245226e+01    0.4210029    0.1854653 -37.35  0.001792512    2.196    0.545
       119  -8.8493    212.0024     50.5009   7.0944512936e+01   2.6202180295e+01    0.2009608    0.1030735  44.25 0.0008105387    2.557    0.609
       120  -7.8774    182.4428     49.4999   7.5170774042e+01   3.3621469022e+01    0.1430743    0.1318406  82.29 -0.001344329    1.013    0.013
       121 -10.5874    161.4568     46.1885   7.7967911546e+01   3.9287051705e+01    0.6186769    0.4828374  86.24  0.002465461    1.394    0.283
       122 -10.2116    136.8241     39.0975   8.0804703684e+01   4.6152320104e+01    0.2689646    0.2325251   0.54            0    1.279    0.218
       123  -7.2857     40.5047     39.5421   1.1013568285e+02   6.3348068230e+01    0.1178902   0.09668126 -17.89  0.000133875    1.047    0.045
       124  -8.5951    165.8316     35.5775   7.4124469208e+01   3.9630112954e+01    0.3854386    0.2294443  87.26  0.001631205    2.204    0.546
       125  -8.1986      5.3239     32.3118   1.2209775476e+02   6.7579934513e+01    0.1152694   0.05951903 -28.33 0.0007039671    1.657    0.396
       126  -7.5038    243.3459    249.6694   1.0838365955e+02  -1.3356034743e+01    0.1032257   0.09262653  58.13 0.0007050033    1.758    0.431
       127 -10.2104    174.9438     19.9623   6.8341730092e+01   3.9239961295e+01    0.7675596    0.2412497  61.02  0.002944984    2.585    0.613
       128  -9.5733    171.3152     18.3187   6.8422195216e+01   4.0305864298e+01    0.4520698    0.2082999  47.95   0.00189664    2.208    0.547
       129  -9.2172      4.5577    247.4939   1.5103556219e+02   2.2991678662e+01    0.2526105    0.1839617 -75.57  0.001990162    1.533    0.348
       130  -9.5451      8.4037    239.9703   1.5004031614e+02   2.4001232805e+01    0.2004806    0.1551671  71.67  0.001046016    1.227    0.185
       131  -8.0681    146.8886    247.2174   1.2593477270e+02   2.7563639196e+00    0.1911883    0.1433459  55.41 0.0003976257    1.188    0.158
