#   1 NUMBER                 Running object number                                     
#   2 MAG_AUTO               Kron-like elliptical aperture magnitude                    [mag]
#   3 X_IMAGE                Object position along x                                    [pixel]
#   4 Y_IMAGE                Object position along y                                    [pixel]
#   5 X_WORLD                Barycenter position along world x axis                     [deg]
#   6 Y_WORLD                Barycenter position along world y axis                     [deg]
#   7 A_WORLD                Profile RMS along major axis (world units)                 [deg]
#   8 B_WORLD                Profile RMS along minor axis (world units)                 [deg]
#   9 THETA_WORLD            Position angle (CCW/world-x)                               [deg]
#  10 FWHM_WORLD             FWHM assuming a gaussian core                              [deg]
#  11 ELONGATION             A_IMAGE/B_IMAGE                                           
#  12 ELLIPTICITY            1 - B_IMAGE/A_IMAGE                                       
         1 -14.4582    194.5374     31.9144   5.7086116776e+01   3.2563037084e+01      1.74847     1.204239  22.18  0.008054321    1.939    0.484
         2 -14.5167    205.1695     18.6059   5.2057706904e+01   3.1442626783e+01     1.305614    0.9189193  25.23  0.006656308    1.883    0.469
         3 -11.0798     42.5881      7.2037   8.5533932313e+01   6.9148336361e+01    0.1787816   0.09693095 -21.07 0.0009601339    1.729    0.422
         4 -10.0106    150.9028     23.3187   6.1166827013e+01   4.4696829274e+01    0.2283451    0.1736527  88.56  0.001156675    1.507    0.336
         5 -10.5534    174.1719    249.6668   1.0948717921e+02   1.3288811397e+00    0.2156759    0.1663884  67.27  0.001436121    1.827    0.453
         6 -15.8644    113.2417    247.0998   1.2004723580e+02   1.0792329795e+01     7.612637     1.942813  38.19   0.03050813    3.436    0.709
         7 -11.0733    207.7971    183.8141   9.2733193752e+01   5.1325038899e+00    0.2815151    0.2359919 -44.29  0.001155463    1.446    0.308
         8 -11.3985    210.9573    181.1856   9.1633001964e+01   4.9704522328e+00    0.3544198    0.2508031  -9.46  0.001921691    1.522    0.343
         9  -9.7093    146.9920    185.5002   1.0528693710e+02   1.5910247426e+01    0.1831495     0.108616  61.33 0.0004063374    2.229    0.551
        10 -11.9602     73.2590    181.4476   1.2080284474e+02   2.8569209646e+01    0.3687766    0.2532986 -41.86  0.001259415    1.978    0.494
        11 -11.9815     77.2016    175.9945   1.1925157391e+02   2.9190425621e+01     0.317508    0.2263099 -49.64 0.0006794376    1.622    0.384
        12 -10.0746     99.6425    180.7985   1.1487966018e+02   2.4855984641e+01    0.2184137    0.1699748  36.95 0.0008119167    1.326    0.246
        13 -10.4718    197.9074    176.7274   9.3248192460e+01   8.0527701059e+00    0.3255326    0.2569943 -42.75  0.001196628    1.427    0.299
        14 -10.9571    196.5447    171.5134   9.2478413682e+01   9.1659934416e+00    0.3265989    0.3052869  11.98   0.00127969    1.076    0.071
        15 -13.9602     57.7119    129.1656   1.1729451319e+02   4.2373733060e+01     2.397516    0.7565879 -73.31  0.006150705    6.532    0.847
        16 -12.5012     91.2831    158.8129   1.1349692510e+02   3.0888570003e+01    0.7323624    0.5367439  -1.38  0.001482062    2.283    0.562
        17 -14.0939     86.0726    165.9301   1.1582892862e+02   3.0103054012e+01     3.989157    0.2443134  43.86  0.001603941    9.883    0.899
        18 -13.6832     73.6482    161.2684   1.1809992295e+02   3.2911572056e+01     0.731648       0.5389 -52.83  0.002853433    1.447    0.309
        19 -14.9595     67.8897    144.1009   1.1698916938e+02   3.7596399481e+01     3.813087     1.180374  51.30  0.007710664    4.664    0.786
        20 -10.4807     46.0924    172.8611   1.2584038014e+02   3.3789845265e+01    0.2557129    0.1753175  42.99  0.001580624    1.472    0.320
        21 -11.5264    138.1557    170.4981   1.0458481750e+02   2.0409432009e+01    0.3970558    0.1984519  27.87  0.001507354    2.813    0.645
        22 -10.2149    193.8266    165.2656   9.1742591476e+01   1.0738690585e+01     0.259754    0.1893221 -60.90  0.001274283    1.946    0.486
        23 -10.5611     37.7577    161.5707   1.2656103604e+02   3.7170956903e+01    0.2026532    0.1209031  27.52 0.0009566525    2.056    0.514
        24 -10.4259    141.1643    158.1322   1.0156908360e+02   2.2348596030e+01    0.2451018    0.2118691  79.33  0.000435515    1.309    0.236
        25 -11.0942    134.0000    144.0220   1.0036676017e+02   2.6673498179e+01    0.8976319     0.268337 -56.45  0.002220696    5.880    0.830
        26 -12.0554     53.5787    147.2434   1.2106920428e+02   3.8661486412e+01    0.3648107    0.2596102 -73.99  0.002133504    1.246    0.198
        27 -12.2813     47.4075    146.6804   1.2253597728e+02   3.9497189444e+01    0.3961138     0.250144 -36.28  0.002045919    2.258    0.557
        28 -11.1788    104.4900    142.4840   1.0734367212e+02   3.2407262494e+01    0.5448342    0.3266451 -31.01  0.002257901    2.516    0.603
        29 -12.3046     92.1796    142.9730   1.1057061836e+02   3.4321097946e+01    0.2722922    0.2495951 -40.26 0.0004237482    1.214    0.176
        30 -15.0498     11.6694    206.4643   1.3524319833e+02   3.0415948151e+01    0.8543872    0.5877325  36.72  0.003446184    1.656    0.396
        31 -10.9006     76.9518    133.9244   1.1291513994e+02   3.8709819669e+01    0.2148686    0.1540254  73.88 0.0005465363    1.609    0.378
        32 -10.3460    113.0476    131.7877   1.0296250502e+02   3.3302555991e+01    0.3086324    0.2565262  12.68 0.0009886472    1.471    0.320
        33 -10.3814    105.8780    130.6400   1.0458260581e+02   3.4844931267e+01    0.3177957     0.237018 -60.94   0.00155166    1.337    0.252
        34 -12.3263     46.6885    129.6311   1.2036220789e+02   4.3533849937e+01    0.3686745     0.260746  48.06  0.002146176    1.505    0.336
        35 -11.0068    100.3934    128.4359   1.0556581663e+02   3.6296662515e+01    0.2915323    0.2293854 -31.85 0.0006457454    1.470    0.320
        36 -11.7442     67.5057    129.1483   1.1461702639e+02   4.1132104870e+01    0.2861396    0.1606978  53.14  0.001338744    2.019    0.505
        37 -10.3955    174.8648    149.0559   9.2191921304e+01   1.7435903017e+01    0.2197993     0.205496  89.80 0.0006313213    1.260    0.206
        38 -13.0916     39.6429    123.4150   1.2136606328e+02   4.5727124997e+01      1.12677   0.06789442 -57.01  0.003140695    5.539    0.819
        39 -12.5192     39.9977    115.7707   1.2008764276e+02   4.7485138626e+01    0.4081723    0.2650199 -17.14  0.002082554    2.399    0.583
        40 -11.1033    117.8813    126.6616   1.0057535194e+02   3.3549657402e+01    0.3519388    0.1859878 -42.08  0.001304045    1.984    0.496
        41 -10.0667    167.5985    112.5422   8.5031645540e+01   2.6055072183e+01    0.3325582    0.2324248 -77.11  0.001221994    2.320    0.569
        42 -16.0618     54.0868    204.8673   1.2716620426e+02   2.6233966303e+01     3.958841     1.991326  57.78   0.01708406    1.781    0.439
        43  -9.7589    108.9696    120.2888   1.0146210626e+02   3.6632391092e+01     0.195886    0.1844037  41.68  0.000308516    1.102    0.093
        44  -9.8759    205.4129    110.1136   7.6760881514e+01   1.7948704212e+01    0.2464936    0.1989877  34.59 0.0005765173    1.288    0.224
        45  -9.2366     95.2927    200.5992   1.1841000326e+02   2.1531941028e+01    0.1342055   0.08450609  72.38 0.0006996291    1.804    0.446
        46  -9.4753     25.0008     82.4819   1.1888486086e+02   5.6545801017e+01    0.1522344    0.1253039  17.94 0.0003369296    1.482    0.325
        47  -9.4071     63.2828     69.6628   1.0216254403e+02   5.5298976420e+01    0.1298891    0.1062671 -83.45 0.0007010993    1.624    0.384
        48 -11.9114    159.7290     61.3926   7.2002872708e+01   3.7213983521e+01    0.6745874    0.4151379 -80.40  0.001798157    3.143    0.682
        49  -9.6753    161.3275     54.8656   6.9613189616e+01   3.7841527009e+01    0.2378909    0.1787844 -52.79 0.0008394007    1.459    0.315
        50 -10.8368     20.5155     52.0177   1.1346852384e+02   6.3563500452e+01    0.1956877   0.09763497 -56.47  0.001037512    1.606    0.377
        51 -13.1736    185.3360     38.8991   6.0452348987e+01   3.4011853842e+01    0.8344662    0.5156735  41.08  0.001110009    1.809    0.447
        52 -13.4732     31.5578    206.2172   1.3158330565e+02   2.8505881784e+01    0.7463595    0.2435029  52.70   0.00161277    2.584    0.613
        53 -14.8370     47.8629    235.9397   1.3063250315e+02   2.1223345780e+01     1.869281    0.7696472  68.85   0.00561167    2.654    0.623
        54  -9.6801     95.3240     41.8937   8.1549283476e+01   5.5104108853e+01    0.2869457    0.1151821 -41.40  0.001090489    2.569    0.611
        55 -12.6992    195.4278    194.9830   9.7158953719e+01   5.6062445130e+00    0.7081758     0.592757  72.59  0.004140467    1.748    0.428
        56 -17.6901      8.1322    240.3244   1.3739632957e+02   2.4642864061e+01     13.70853     1.670618 -78.21   0.03656345    7.521    0.867
