#   1 NUMBER                 Running object number                                     
#   2 MAG_AUTO               Kron-like elliptical aperture magnitude                    [mag]
#   3 X_IMAGE                Object position along x                                    [pixel]
#   4 Y_IMAGE                Object position along y                                    [pixel]
#   5 X_WORLD                Barycenter position along world x axis                     [deg]
#   6 Y_WORLD                Barycenter position along world y axis                     [deg]
#   7 A_WORLD                Profile RMS along major axis (world units)                 [deg]
#   8 B_WORLD                Profile RMS along minor axis (world units)                 [deg]
#   9 THETA_WORLD            Position angle (CCW/world-x)                               [deg]
#  10 FWHM_WORLD             FWHM assuming a gaussian core                              [deg]
#  11 ELONGATION             A_IMAGE/B_IMAGE                                           
#  12 ELLIPTICITY            1 - B_IMAGE/A_IMAGE                                       
         1 -15.2672      8.5188    151.2261   1.4374657453e+02   4.3010853491e+01     10.79316     3.960128  65.87    0.0453487    3.469    0.712
         2 -13.3745    194.9626     29.8352   6.7446390557e+01   3.2173903466e+01     1.286786     1.172223  76.92  0.006471491    1.063    0.060
         3 -13.6598    210.4660     11.0012   6.0781112221e+01   3.0388684217e+01      1.34862    0.9773653  35.12  0.007349626    1.832    0.454
         4 -11.6701      2.3636      3.5047   1.1569374347e+02   7.4009679913e+01    0.6092244    0.1731073 -48.01  0.002921456    2.941    0.660
         5 -11.5771     98.7662    248.8760   1.3388944450e+02   1.2309960955e+01    0.3740147    0.2413355  48.93  0.002413636    1.181    0.153
         6 -12.1473    247.0839    248.7818   1.0709568054e+02  -1.0631058850e+01    0.6086751    0.2688606  42.04  0.003352122    2.210    0.548
         7 -10.0651     66.8116    250.0600   1.3973916259e+02   1.6623681540e+01    0.1897175    0.1225019  51.87 0.0003719022    1.174    0.149
         8 -10.8325     33.1974    248.9604   1.4544033921e+02   2.0983009691e+01    0.2816535    0.2134589  44.89  0.002187937    1.442    0.306
         9 -12.5292     35.3932    244.3474   1.4481183768e+02   2.1529226625e+01    0.6274925    0.3650777  51.61  0.004357563    1.312    0.238
        10 -10.8965     28.9632    249.7667   1.4618585744e+02   2.1325592537e+01    0.3879699    0.1401797  36.06  0.002068506    2.777    0.640
        11  -9.9094     30.0047    246.4961   1.4584065392e+02   2.1771435915e+01      0.16543    0.1350913 -76.13 0.0008302633    1.547    0.354
        12 -12.4764     12.0450    240.6476   1.4853100371e+02   2.4723227236e+01    0.6232011    0.2884151  77.57  0.003344535    1.809    0.447
        13 -11.2207     14.4434    249.8492   1.4854899092e+02   2.2883957305e+01    0.7142727    0.1766739  35.66  0.003328074    3.950    0.747
        14 -11.8397      2.6667    246.4057   1.5027748591e+02   2.4659260483e+01    0.7473273    0.2788049 -82.26  0.004562953    2.386    0.581
        15 -10.8114     81.4736    248.9557   1.3703988025e+02   1.4800525091e+01    0.2443759    0.1482208  56.86  0.001332907    1.282    0.220
        16 -11.0053     45.9872    248.3692   1.4324280074e+02   1.9570998124e+01    0.3316387    0.1296599  63.64  0.001285773    2.391    0.582
        17 -11.3716    106.4092    247.2300   1.3232151833e+02   1.1429838444e+01    0.2659242    0.1846132  70.46  0.001277791    1.450    0.310
        18 -11.3545     20.8331    243.6890   1.4722380626e+02   2.3270014444e+01    0.4195435    0.1454726  63.63  0.001571941    2.472    0.596
        19  -9.5864    141.3321    250.3180   1.2617223006e+02   5.4737638059e+00     0.115885   0.08513023  19.18  0.000704787    1.690    0.408
        20  -9.6541    186.0000    238.9701   1.1635186418e+02  -2.0007066047e-01    0.1662389   0.07098949 -41.73 0.0004234725    2.900    0.655
        21 -10.7805     22.2030    236.5644   1.4663307633e+02   2.4383917710e+01    0.2588229    0.1630954 -54.20  0.001709096    2.442    0.591
        22 -13.8918      8.2949    205.3742   1.4744722542e+02   3.1663675948e+01     2.096505    0.7570586 -81.36  0.005704567    2.401    0.584
        23 -11.3282    124.6422    249.9249   1.2922263036e+02   8.1809636674e+00    0.4432631    0.1111522  40.29  0.001711559    3.173    0.685
        24 -11.3891    234.3718    238.8484   1.0767734867e+02  -7.7559876658e+00    0.2880195    0.1924665 -54.66  0.001572804    3.225    0.690
        25  -8.8985    152.5499    212.9323   1.1898652675e+02   9.5399483112e+00    0.1660701     0.133728 -51.44 0.0003103211    1.477    0.323
        26  -9.9194    193.1223    194.9998   1.0779756507e+02   5.0825239528e+00    0.6831329    0.3440937 -62.97  0.001578843   10.712    0.907
        27 -11.5329     61.5561    197.4928   1.3619820143e+02   2.7248550250e+01    0.2891767    0.2357478 -49.95 0.0006492205    1.620    0.383
        28 -14.3959     40.8330    223.2226   1.4250304693e+02   2.4740655612e+01     1.210145     1.103414  31.87  0.005423578    1.589    0.371
        29 -11.8705     67.6357    189.4121   1.3401814852e+02   2.8119661619e+01     0.268388    0.2363609 -62.96 0.0006959076    1.340    0.254
        30 -10.9226     77.6580    176.8668   1.3020202320e+02   2.9395293061e+01     0.238964     0.210891 -84.99 0.0004142962    1.113    0.102
        31 -13.1821     64.4782    174.7825   1.3301088691e+02   3.1729664321e+01    0.4787947     0.279923 -45.67  0.001596337    2.264    0.558
        32  -9.0028     97.7153    173.1255   1.2493688761e+02   2.7055106418e+01    0.2637267    0.1676256 -57.19  0.001099055    1.637    0.389
        33 -11.7839     85.0711    167.6824   1.2714066530e+02   3.0302163425e+01    0.6114188     0.544805  65.93  0.003715579    1.049    0.047
        34  -9.9691     98.1406    151.7428   1.2125661182e+02   3.1756542047e+01    0.2811406    0.2550391  47.06  0.000799834    1.128    0.113
        35  -9.1614    100.9692    147.6826   1.1978143675e+02   3.2187612625e+01     0.241031    0.1969814 -29.44   0.00103393    1.542    0.352
        36 -12.0694     86.4745    150.9481   1.2411015614e+02   3.3876754635e+01    0.2802069    0.2549506 -48.11 0.0007738698    1.237    0.192
        37 -12.3958     67.5356    143.8556   1.2788976990e+02   3.8360016381e+01    0.7295441    0.4631464  65.49  0.003159717    1.775    0.436
        38  -8.5061    192.2295    143.9635   9.7574447908e+01   1.4120957871e+01    0.1815451    0.1225903 -39.17 0.0003475018    1.516    0.340
        39  -9.7300    109.6290    136.9445   1.1538261388e+02   3.3052400634e+01    0.3746666     0.244172 -26.73  0.001556219    2.346    0.574
        40  -9.9934    228.9445    228.4662   1.0693928163e+02  -5.7202408800e+00    0.1983256    0.1681708 -42.36  0.001235511    1.687    0.407
        41 -10.5003     96.7884    134.2047   1.1824121715e+02   3.6009541659e+01    0.2594545    0.2271043 -34.69 0.0005190591    1.299    0.230
        42 -11.4382     57.3112    131.2075   1.2860580967e+02   4.2682635521e+01    0.6471755    0.2720546 -77.76  0.002232138    3.668    0.727
        43  -9.0474    106.7595    123.7550   1.1326142854e+02   3.6583987041e+01    0.1901516    0.1638304  74.95 0.0003580455    1.235    0.190
        44 -10.2062    167.9471    112.9194   9.5245500352e+01   2.5561854456e+01    0.3594934    0.2898097 -84.22  0.001005997    1.548    0.354
        45  -9.3962    203.4859    111.4832   8.7672399076e+01   1.7457210948e+01    0.1485113    0.1433341   3.84 0.0008097548    1.051    0.049
        46  -9.6317    157.5486     76.5275   8.7509744368e+01   3.4921999619e+01    0.1534879     0.149073  66.03 0.0002056467    1.008    0.008
        47  -9.7511     43.5146     67.7356   1.1941266471e+02   5.8677612433e+01    0.2146138    0.1900735  49.92 0.0006163121    1.369    0.270
        48  -9.3874     36.6630     64.2853   1.2108528645e+02   6.0122112436e+01    0.2229223    0.1363216  38.96 0.0007495058    1.935    0.483
        49 -10.1092     16.1876     55.9151   1.2707969255e+02   6.3594083780e+01    0.1816258    0.1636031  -7.72 0.0006243578    1.232    0.188
        50 -12.7464     34.9165    231.1691   1.4410605851e+02   2.3948373673e+01    0.2828155    0.2375977  88.51 0.0007765542    1.310    0.237
        51  -9.6007    177.6694    249.6996   1.1938929686e+02  -2.8717765694e-01    0.1203021   0.07985543  18.99 0.0003088751    1.646    0.393
        52 -10.1428    163.0519    249.4993   1.2204922193e+02   2.0932300142e+00    0.1971812   0.09434045  40.86  0.001039187    1.608    0.378
