#   1 NUMBER                 Running object number                                     
#   2 MAG_AUTO               Kron-like elliptical aperture magnitude                    [mag]
#   3 X_IMAGE                Object position along x                                    [pixel]
#   4 Y_IMAGE                Object position along y                                    [pixel]
#   5 X_WORLD                Barycenter position along world x axis                     [deg]
#   6 Y_WORLD                Barycenter position along world y axis                     [deg]
#   7 A_WORLD                Profile RMS along major axis (world units)                 [deg]
#   8 B_WORLD                Profile RMS along minor axis (world units)                 [deg]
#   9 THETA_WORLD            Position angle (CCW/world-x)                               [deg]
#  10 FWHM_WORLD             FWHM assuming a gaussian core                              [deg]
#  11 ELONGATION             A_IMAGE/B_IMAGE                                           
#  12 ELLIPTICITY            1 - B_IMAGE/A_IMAGE                                       
         1 -14.1356     20.4832     24.5020   8.3612032564e+01   6.9394832518e+01     1.158841    0.6114464 -21.78  0.006297346    1.864    0.463
         2 -13.4382      3.5192     36.6437   9.7358397451e+01   6.8634652578e+01    0.9301973    0.5528995 -41.70   0.00417526    1.307    0.235
         3 -13.5781    232.7353     29.2347   3.3542247738e+01   2.5197554219e+01    0.8087863    0.6338839 -54.91  0.002970742    1.135    0.119
         4 -12.6378    109.2774     16.7118   4.7350287393e+01   5.4750921440e+01    0.8196318    0.6236879 -27.11  0.004903649    1.487    0.327
         5 -13.3640    132.6394      5.0434   3.9048078271e+01   5.0384290684e+01     1.384922    0.4820668  54.31  0.006023004    2.308    0.567
         6 -13.0846    114.3440      3.8318   4.1794560158e+01   5.4725978074e+01     1.422868    0.5219125  63.89  0.006197133    2.277    0.561
         7 -12.5307    192.0907     15.7317   3.4398275312e+01   3.5501984568e+01    0.7441149    0.3511491  57.46  0.003711251    2.075    0.518
         8 -12.9376    208.2381      7.9651   3.1141845433e+01   3.2736389072e+01    0.6062065    0.3313178 -56.99  0.003449044    1.674    0.403
         9 -13.0048    177.0710      6.0335   3.3608470574e+01   3.9898232273e+01     0.707733    0.4661766 -86.74  0.004157543    1.408    0.290
        10 -12.4646      3.3810      4.9210   8.4459990211e+01   7.3906555841e+01    0.6320788    0.2655127 -36.06  0.003582489    1.998    0.499
        11 -11.8620    219.6476      7.0680   3.0046521224e+01   3.0400979624e+01    0.4822884    0.2679396 -71.24  0.002766162    1.659    0.397
        12 -13.5633     36.6524     20.7939   7.3731969310e+01   6.8023708237e+01    0.7836529    0.6462665 -26.09  0.005344452    1.342    0.255
        13 -11.2933    243.8497      5.4509   2.8065252543e+01   2.5696190335e+01    0.6244058    0.2581047 -69.95  0.003158718    2.483    0.597
        14 -12.4931    192.9557      3.3488   3.1428874694e+01   3.6549488698e+01    0.5464329    0.3619854  74.36  0.003335009    1.317    0.240
        15 -12.4512    185.5605      8.5992   3.3362755226e+01   3.7710154953e+01    0.5277367    0.3778282 -35.83  0.003289828    1.526    0.345
        16 -10.5728     88.6409    206.1446   1.0195653277e+02   1.9440337193e+01    0.3591835     0.286808  41.33  0.001383063    1.177    0.150
        17 -10.4825     61.0499    250.0404   1.1273834081e+02   1.3889556227e+01    0.2027794    0.1152316  61.00 0.0008283523    1.676    0.403
        18 -10.5704     48.0177    250.5074   1.1537707816e+02   1.5379660183e+01    0.1802212   0.09867878  38.33 0.0007249094    1.584    0.369
        19 -15.7287      6.4752    129.5982   1.1444497718e+02   4.7441068166e+01     15.94583     3.669373 -77.67   0.04591507    5.128    0.805
        20 -13.5837      9.1103    207.3517   1.2040473917e+02   2.8555792825e+01    0.6637884    0.4611778 -25.95    0.0012761    2.348    0.574
        21 -15.0521     14.8789    201.7797   1.1878343918e+02   2.9295844096e+01     1.318362    0.8789075  55.82  0.004442062    1.352    0.260
        22 -11.4244     56.5003    201.0073   1.0908587515e+02   2.4998265707e+01      0.45104    0.2700265  56.04  0.002247807    1.649    0.394
        23 -11.3569     52.3524    198.3271   1.0979244741e+02   2.6136579025e+01    0.3896267    0.3681148  20.29   0.00161192    1.261    0.207
        24 -10.9006     71.6080    208.8117   1.0636721310e+02   2.1233398777e+01    0.3665908     0.259064  41.51  0.001250274    1.320    0.242
        25 -11.4962     42.7780    180.3967   1.1019042177e+02   3.1574514315e+01    0.2736776    0.2482184 -37.25 0.0005586574    1.309    0.236
        26 -11.6271     50.6164    173.9061   1.0736558518e+02   3.2286999190e+01    0.2733095    0.2389638 -51.21 0.0004664541    1.221    0.181
        27 -14.7299     20.1482    223.6452   1.1913707628e+02   2.3946727834e+01     2.173545     1.532011  87.66   0.01278521    1.232    0.188
        28 -10.5718     63.6014    163.7288   1.0239757312e+02   3.3235074962e+01    0.2428755    0.2316664 -77.66 0.0003920144    1.042    0.040
        29 -12.9051     48.6605    160.2410   1.0607454417e+02   3.5959979025e+01    0.5301177    0.3075689 -36.07  0.001381398    2.223    0.550
        30  -9.5949    133.2664    160.2250   8.2701756882e+01   2.2699981645e+01    0.2035849    0.1794208  88.74 0.0004470485    1.336    0.252
        31 -11.5940     72.4570    156.9714   9.8795887364e+01   3.3746182846e+01    0.5017948    0.4175036 -25.57  0.002638519    1.392    0.282
        32 -12.0681     67.8559    143.4387   9.7751327089e+01   3.7840375365e+01    0.7301823    0.4305428  60.53  0.002843621    2.274    0.560
        33 -12.8371     32.2789    142.9033   1.0839283417e+02   4.2092447311e+01    0.6884217    0.5425742  55.24  0.002952679    1.365    0.267
        34  -9.8954     88.9591    143.9799   9.1547951126e+01   3.4539361995e+01    0.2358516    0.2265645 -56.21 0.0007697658    1.006    0.006
        35 -11.5819     76.5447    141.8457   9.4824768597e+01   3.7004747548e+01    0.2989006    0.2500813 -52.26 0.0003792645    1.138    0.121
        36 -10.5015    105.1514    131.3392   8.4002596756e+01   3.4875785280e+01    0.4014118    0.3182456   7.39  0.001889685    1.508    0.337
        37 -11.4191     89.0240    128.8513   8.8268944479e+01   3.8306092297e+01    0.5468788    0.3667424   7.41  0.001284096    2.088    0.521
        38 -11.3384     26.8190    128.4917   1.0799335109e+02   4.6238181740e+01    0.2804838    0.1931873 -53.57  0.001298287    1.285    0.222
        39 -12.1162     80.7811    118.9688   8.8572296775e+01   4.2081291296e+01    0.5015401    0.4027921 -47.76  0.002544763    1.178    0.151
        40  -9.3977    102.7179    119.9241   8.1967101434e+01   3.8065401474e+01    0.2108416    0.1906005 -47.60 0.0002676344    1.083    0.077
        41 -10.1586     66.0306    118.4673   9.3278493698e+01   4.4405204148e+01     0.245451    0.1898418 -54.72  0.001021334    1.204    0.169
        42 -12.0672     25.8423    114.0318   1.0601050436e+02   4.9945058051e+01     0.779123    0.3630466 -81.76  0.003055168    2.826    0.646
        43 -11.2624     17.5111    109.3693   1.0809139195e+02   5.1729451460e+01     0.436947    0.2257791  24.42  0.002160359    2.191    0.544
        44 -11.4437     32.6128    110.6679   1.0307768003e+02   5.0193831341e+01    0.3886968    0.2799875 -36.67   0.00212094    1.362    0.266
        45 -13.0728     59.3491     99.5356   9.1117964737e+01   4.9909240846e+01     1.404792    0.7223132  52.98  0.005288191    3.083    0.676
        46 -12.3632     65.4167     97.2849   8.8373457954e+01   4.9596625275e+01    0.5580156    0.3770887 -52.21  0.002726307    1.406    0.289
        47 -11.8005     81.4513    106.6784   8.5315028443e+01   4.4927959127e+01    0.4588907    0.3608689  85.11  0.002182977    1.763    0.433
        48 -11.8399     43.4395     93.0692   9.5376765497e+01   5.3365227907e+01    0.8759131    0.4576646 -65.08   0.00380497    2.080    0.519
        49 -11.3391     43.5630    105.7266   9.8219409551e+01   5.0321271672e+01    0.4812921    0.3738261 -59.45   0.00179125    1.187    0.158
        50 -11.1875     42.9755    100.6059   9.7305850877e+01   5.1625088029e+01    0.4729168    0.2519243  24.95  0.002147372    2.052    0.513
        51 -12.1318     19.0388    103.7085   1.0660124858e+02   5.3005431256e+01    0.6577867    0.3210856   4.83  0.002971593    2.689    0.628
        52 -11.6450     30.2757    100.3644   1.0190332248e+02   5.2922580119e+01    0.3835324    0.2940598 -49.82  0.002205914    1.114    0.102
        53 -11.4930     25.3546     91.2697   1.0185888910e+02   5.5508308603e+01    0.7551041    0.3943411 -31.67  0.003544546    2.034    0.508
        54 -13.5493      2.2384    180.9399   1.2018847136e+02   3.5193794064e+01     2.583088    0.4194451 -77.44  0.007612882    5.454    0.817
        55 -12.7292     61.0287     85.4465   8.6743941419e+01   5.2908786850e+01    0.6723912    0.6167004 -88.92  0.003866772    1.374    0.272
        56 -12.2528     63.4181     75.8631   8.3008050813e+01   5.4627070560e+01    0.9410118    0.4659401  16.79  0.003535905    2.993    0.666
        57 -12.5679     77.4337     83.2832   8.0152953773e+01   5.0849230227e+01    0.8208598    0.7619123 -32.89  0.004682395    1.084    0.078
        58 -11.3170     46.8966     84.2782   9.1811244868e+01   5.4994671582e+01    0.4213697    0.2814557  18.85  0.002177389    1.609    0.378
        59 -12.3338     23.0104     75.0360   9.9073701282e+01   5.9417656046e+01    0.6940708    0.6805208 -29.82  0.004066525    1.221    0.181
        60 -12.3395      3.1426     68.9584   1.0610483279e+02   6.2028813140e+01    0.8913937    0.2808985 -59.42  0.003082943    2.309    0.567
        61 -11.3301     19.5304     62.5433   9.7316741441e+01   6.2395207997e+01    0.3905421    0.2728457 -15.33  0.002326391    1.386    0.279
        62  -9.9008     13.4787     58.5182   9.8962517381e+01   6.3675773736e+01    0.2681294     0.102988 -57.13  0.001221494    2.211    0.548
        63 -11.6828    243.6169    248.9098   7.5753160577e+01  -1.0841007826e+01    0.3101871    0.1643893  27.57  0.001869315    1.743    0.426
        64 -12.0670    160.1686    246.3595   9.1497804902e+01   5.9492264693e-01    0.3806282    0.3238539  12.02  0.001829078    1.063    0.059
        65 -13.3708      5.8884     48.1052   9.9658852203e+01   6.6276119411e+01     1.057542    0.6092821 -13.19  0.004980815    1.728    0.421
        66 -12.8470     14.1615     38.5531   9.2430564851e+01   6.7550826684e+01    0.6316289    0.4902237 -31.17  0.003790112    1.081    0.075
        67 -11.8863     89.1014     44.0668   6.2878320544e+01   5.5791346872e+01     0.691988    0.4779522  -6.10  0.003474488    1.719    0.418
        68 -11.8062     32.5993     41.3670   8.4304026448e+01   6.5285554881e+01    0.6105615    0.3594004  23.13  0.003166501    1.679    0.404
        69 -12.0536     81.1459    247.2490   1.0835231756e+02   1.1828568905e+01    0.4081217    0.2826863  16.59  0.002209144    1.834    0.455
        70 -11.7757     37.7917    249.1564   1.1728580003e+02   1.6822145152e+01    0.3831688    0.1186051  41.37  0.001799227    2.419    0.587
        71 -12.5167     28.5042    243.4464   1.1872379756e+02   1.8973415192e+01    0.3515485    0.2324153  60.24  0.001959459    1.228    0.186
        72 -10.3694    132.4837    247.4990   9.7492431606e+01   4.4776090677e+00    0.1289765    0.1095971  30.76 7.841698e-05    1.005    0.005
        73 -12.5158    203.3696     23.9822   3.5160679368e+01   3.2063833906e+01    0.5297398    0.2477802 -65.23  0.002390499    2.511    0.602
        74 -10.6311     59.5472    246.0211   1.1271151026e+02   1.4864414664e+01    0.1688386    0.1128159 -78.20 0.0005774049    1.569    0.363
        75 -12.6088     85.3761    230.5470   1.0569472432e+02   1.4600542693e+01    0.4845899    0.4054506  62.03  0.001816849    1.112    0.101
        76 -15.1061     98.1106    226.1868   1.0232281011e+02   1.3685557375e+01     3.009053    0.9172313  38.47   0.01134113    2.746    0.636
        77 -13.3463     65.7911    218.7485   1.0881733749e+02   1.9777028922e+01     1.148895    0.6369011 -84.69    0.0055277    2.113    0.527
        78 -13.0242     74.7113    221.0253   1.0703421859e+02   1.8093350283e+01    0.8378825     0.542585  30.63  0.003535732    1.555    0.357
        79 -12.3313     63.4513    227.4885   1.1022002618e+02   1.8183096225e+01    0.7250149    0.3597004  50.51  0.002425688    1.843    0.457
        80 -11.5901     49.7400    215.6224   1.1213681696e+02   2.2474451483e+01    0.3948004    0.2806392  83.78  0.002086789    1.351    0.260
        81 -10.7064     84.5447    210.3037   1.0347830363e+02   1.9094896640e+01    0.3269654    0.2483103 -48.87  0.001163986    1.469    0.319
