#   1 NUMBER                 Running object number                                     
#   2 MAG_AUTO               Kron-like elliptical aperture magnitude                    [mag]
#   3 X_IMAGE                Object position along x                                    [pixel]
#   4 Y_IMAGE                Object position along y                                    [pixel]
#   5 X_WORLD                Barycenter position along world x axis                     [deg]
#   6 Y_WORLD                Barycenter position along world y axis                     [deg]
#   7 A_WORLD                Profile RMS along major axis (world units)                 [deg]
#   8 B_WORLD                Profile RMS along minor axis (world units)                 [deg]
#   9 THETA_WORLD            Position angle (CCW/world-x)                               [deg]
#  10 FWHM_WORLD             FWHM assuming a gaussian core                              [deg]
#  11 ELONGATION             A_IMAGE/B_IMAGE                                           
#  12 ELLIPTICITY            1 - B_IMAGE/A_IMAGE                                       
         1 -14.5239     68.3359    144.6382   9.7826755461e+01   3.7467818979e+01     5.067652     2.709064  79.53   0.00289672    4.363    0.771
         2 -13.7130    229.8735     23.0532   3.2519821318e+01   2.6518719629e+01    0.8494714      0.79018  86.36  0.002600939    1.290    0.225
         3 -13.8467    203.6846     44.4814   3.9879337537e+01   2.9441834233e+01     1.334808     1.024222  28.80   0.00304728    1.903    0.475
         4 -13.9320    212.2544     38.6248   3.7546444057e+01   2.8326654958e+01     1.575657     1.123517 -24.95   0.00694357    1.727    0.421
         5 -11.9071    249.1407      3.7729   2.7434233775e+01   2.4860782877e+01    0.4158284    0.2239774 -50.35  0.002367055    1.488    0.328
         6 -10.1494    119.5145    219.4890   9.6524700895e+01   1.1831235673e+01    0.2378008     0.119584 -43.46 0.0007559108    2.317    0.568
         7 -13.3997     45.2022    217.0597   1.1328072767e+02   2.2688286230e+01     1.393553    0.8291411  17.71  0.001178142    2.287    0.563
         8 -12.9590     83.6617    217.5918   1.0458385605e+02   1.7604246760e+01    0.9887441     0.624561  82.43  0.001475518    2.013    0.503
         9 -15.3413      9.4868    207.8577   1.2035654864e+02   2.8409492096e+01     2.657871     1.268623 -82.03    0.0130599    1.842    0.457
        10 -16.3271     34.7330    186.4658   1.1285442793e+02   3.0960583426e+01       11.597     4.711408  69.89   0.03962705    4.047    0.753
        11 -10.5792     55.6868    192.5643   1.0833264275e+02   2.7101256750e+01    0.2759439    0.2040469  69.80 0.0006789056    1.333    0.250
        12 -13.2595     28.8968    201.6398   1.1562357722e+02   2.7973048558e+01    0.5062441     0.452585 -18.45  0.001341636    1.515    0.340
        13  -9.3994     99.3276    180.9672   9.5500724666e+01   2.3701167905e+01     0.201382    0.1856341 -65.12 0.0004683455    1.093    0.085
        14  -9.5816    189.2999    177.7358   7.3272189242e+01   8.5224079643e+00    0.3207449    0.2196342  87.69  0.001150496    3.983    0.749
        15 -16.0445     19.6946    248.3482   1.2069078565e+02   1.8925440067e+01     8.681087     2.572494  23.75   0.02596741    6.974    0.857
        16 -12.1302     58.1889    175.4680   1.0555719710e+02   3.0975903221e+01     0.447345    0.3121353 -28.22  0.001853361    1.941    0.485
        17 -12.0419     63.5703    170.3835   1.0339832791e+02   3.1559279453e+01    0.3498778    0.2822109 -33.16  0.001408926    1.455    0.313
        18 -10.0793     86.7995    173.5175   9.7585767435e+01   2.7479776681e+01    0.4430258    0.2753072   9.41  0.001806064    2.458    0.593
        19 -13.4727     60.8627    156.9188   1.0211426578e+02   3.5322880410e+01    0.5441938    0.3430796 -38.61   0.00129551    1.843    0.457
        20 -11.9511     73.7597    161.2120   9.9140757775e+01   3.2485435648e+01    0.3860336    0.3472301 -59.60 0.0003076531    1.080    0.074
        21 -12.6598     81.4578    154.7941   9.5825536170e+01   3.2982605422e+01     1.070657    0.6883075 -44.83  0.001734625    1.600    0.375
        22 -12.9433     56.8827    238.9881   1.1267035917e+02   1.6607651305e+01    0.4449258    0.3197719 -88.46 0.0003772266    1.392    0.282
        23  -9.8441    174.8321    149.1177   7.0271351687e+01   1.7048282298e+01    0.2281212    0.2106506 -76.49 0.0007786612    1.262    0.207
        24 -10.3816    133.7900    145.2511   7.9290983125e+01   2.6090796768e+01    0.9942052    0.2215877 -53.93  0.001945508    7.795    0.872
        25 -10.8820     47.5667    169.0397   1.0755794512e+02   3.3860541891e+01    0.3350303    0.2699272 -88.72  0.001012618    1.172    0.147
        26 -10.8097    111.6536    204.9972   9.6233387608e+01   1.6171581767e+01    0.3011559    0.2355363 -86.78 0.0008467223    1.538    0.350
        27 -10.9202    193.2565    195.5210   7.5949613136e+01   4.4655199960e+00    0.8985778    0.4809269 -64.67  0.002482622    6.892    0.855
        28  -8.9717    147.3097    144.6960   7.5718694192e+01   2.3527509118e+01    0.1539829    0.1259207  85.79 0.0002932053    1.609    0.378
        29 -10.1179     28.6157    143.0785   1.0950354172e+02   4.2384358387e+01    0.2282735     0.207276 -13.04    0.0013151    1.296    0.228
        30 -10.2872     96.5734    141.2611   8.8741154906e+01   3.3953291998e+01    0.3349179    0.2843412 -35.27  0.000822383    1.211    0.174
        31  -9.9373     99.3165    138.3750   8.7310578263e+01   3.4195250266e+01    0.3172905     0.239069 -17.00  0.001439635    1.666    0.400
        32 -12.4217     84.3445    139.6779   9.2038286697e+01   3.6359542251e+01    0.3122754    0.2698121 -46.34 0.0004464683    1.124    0.110
        33 -11.9412     69.0626    130.4498   9.4853206311e+01   4.0977017154e+01     0.885131    0.5565838  88.86  0.003048506    2.482    0.597
        34 -10.8540    107.0173    130.6929   8.3305989774e+01   3.4689164226e+01    0.4505517    0.3366427  28.34  0.001521324    1.426    0.299
        35  -8.6774    110.5497    167.5195   9.0134361170e+01   2.5079036893e+01    0.1489354    0.1470506  79.03 0.0001122158    1.017    0.016
        36  -9.1531     82.1955    129.1404   9.0446834726e+01   3.9342139751e+01    0.2037271    0.1768131  84.23 0.0004485617    1.319    0.242
        37  -9.5558    161.3194    128.6724   6.8544602287e+01   2.4153316648e+01     0.156724    0.1245648 -84.12 0.0007047123    1.683    0.406
        38  -9.0552     96.0016    126.0097   8.5477578725e+01   3.7811215038e+01    0.2586347    0.1877538 -14.47  0.001130359    1.801    0.445
        39  -9.4215    135.7513    130.0074   7.5181746491e+01   2.9211037275e+01    0.2181753     0.132621 -46.49  0.000896132    1.619    0.382
        40  -8.6928    163.2930    121.2899   6.6274906802e+01   2.5290485192e+01    0.1515994     0.121546  -0.37 0.0002071671    1.548    0.354
        41  -9.6348    105.7937    119.1277   8.0846935010e+01   3.7679404393e+01    0.2099975    0.2035764 -63.06 0.0002810363    1.074    0.069
        42  -9.9331    249.3416    114.3059   4.9351442598e+01   9.4644900490e+00     0.124853   0.09694072  -5.88 0.0005249648    1.684    0.406
        43 -10.1876    135.0000    112.5011   7.0929968810e+01   3.3272034636e+01    0.3513054   0.08823138 -44.66 0.0009343111    3.931    0.746
        44  -8.8670     75.9942    111.5039   8.8341278314e+01   4.4647118238e+01    0.2076444    0.1480607  32.46 0.0004537652    1.468    0.319
        45 -12.1548     34.0431    158.0144   1.0986932093e+02   3.8085235285e+01    0.6906172    0.3430537  69.81  0.002772383    2.792    0.642
        46 -11.1448    247.0006    110.0201   4.8781855140e+01   1.0578754445e+01    0.2025125     0.156028  -6.96  0.001150046    1.728    0.421
        47 -10.1916    205.2944    110.5667   5.5280515429e+01   1.8463160545e+01    0.3189409    0.2529381  28.51  0.001101594    1.526    0.345
        48 -10.0884    242.3287     94.6744   4.6190691582e+01   1.3927229453e+01    0.1355694   0.08895171 -64.56  0.000384717    1.701    0.412
        49 -11.0382     53.0442     92.2819   9.1577058144e+01   5.2421133791e+01    0.4596015    0.2038566 -59.31   0.00174235    2.338    0.572
        50 -10.0550    235.4596    155.4497   5.9946010638e+01   4.7708189467e+00    0.1343743    0.1142031 -29.06 6.015097e-05    1.027    0.026
        51  -9.8202    161.7227     83.4164   5.6721074910e+01   3.3055455947e+01    0.2047095    0.1376015  43.79 0.0006656419    1.557    0.358
        52 -10.9167    243.2867     78.0297   4.2586472020e+01   1.6363036335e+01    0.1836746    0.1449334 -50.02 0.0004956305    1.064    0.060
        53  -8.7893    184.3298     77.3386   5.0813485131e+01   2.8893861843e+01    0.1434745    0.1134653  16.44 0.0007051867    1.737    0.424
        54 -10.4356     30.8230     61.0082   9.1823148056e+01   6.1726896657e+01    0.4801326    0.2077014  42.62  0.001949675    3.475    0.712
        55 -11.5834     12.7846     59.8361   9.9637226244e+01   6.3446577248e+01     0.364486    0.2579547  42.33 0.0008172352    1.911    0.477
        56  -9.6583    172.5183    239.1313   8.7842966817e+01  -1.6408002937e-02     0.262087    0.1297662 -53.33  0.001193107    2.753    0.637
        57 -12.5516    220.3688     31.7112   3.5190625766e+01   2.7457500368e+01    0.4680862    0.3808882  36.76  0.001147382    1.756    0.431
        58 -11.9247    162.0729    224.2902   8.7711833834e+01   4.1657295413e+00    0.3505652    0.2328223  31.88  0.001862706    1.358    0.263
        59  -9.1816     89.2392    211.2656   1.0248678523e+02   1.8201106490e+01    0.1851756    0.1436453  63.43 0.0003761748    1.299    0.230
        60 -10.4957     33.9085     55.3293   8.8635908408e+01   6.2547386358e+01    0.2425601    0.1984618  26.31 0.0007872044    1.376    0.273
        61 -10.9031     11.3213     52.5708   9.8307388485e+01   6.5041659215e+01    0.2641614    0.1517727  43.26  0.001369526    2.599    0.615
        62  -9.8556      1.5888     48.8107   1.0196912008e+02   6.6365852005e+01    0.1588681    0.1046047 -68.13 0.0009456661    1.685    0.407
        63 -10.1796    131.0220     38.2871   4.9886704460e+01   4.7296281953e+01    0.2283281    0.1955515 -50.84 0.0003230023    1.286    0.223
        64  -9.4027    187.3618     31.3104   3.8706593180e+01   3.4820065582e+01    0.1301087   0.09402384  40.38 0.0007040755    1.747    0.427
        65  -9.0901    131.2533     30.7939   4.7444506611e+01   4.8156693339e+01    0.1759479    0.1407966  39.12 0.0003006811    1.251    0.201
        66  -9.3874    189.4212     15.2850   3.4568884663e+01   3.6154125915e+01    0.1634898    0.1044109 -48.57 0.0005890867    1.518    0.341
