#   1 NUMBER                 Running object number                                     
#   2 MAG_AUTO               Kron-like elliptical aperture magnitude                    [mag]
#   3 X_IMAGE                Object position along x                                    [pixel]
#   4 Y_IMAGE                Object position along y                                    [pixel]
#   5 X_WORLD                Barycenter position along world x axis                     [deg]
#   6 Y_WORLD                Barycenter position along world y axis                     [deg]
#   7 A_WORLD                Profile RMS along major axis (world units)                 [deg]
#   8 B_WORLD                Profile RMS along minor axis (world units)                 [deg]
#   9 THETA_WORLD            Position angle (CCW/world-x)                               [deg]
#  10 FWHM_WORLD             FWHM assuming a gaussian core                              [deg]
#  11 ELONGATION             A_IMAGE/B_IMAGE                                           
#  12 ELLIPTICITY            1 - B_IMAGE/A_IMAGE                                       
         1 -13.0889     80.4579     57.4454   3.9003293250e+01   5.5886556171e+01     1.758378     1.174639 -12.12   0.00718428    2.564    0.610
         2 -14.0239     56.3072     64.5853   5.1327307891e+01   5.9409735427e+01     1.901523     1.235428 -21.15  0.007835622    2.302    0.566
         3 -15.0154      6.2579     71.2392   8.0868755054e+01   6.4130491376e+01     1.435423    0.9631229 -63.22  0.005899156    1.400    0.286
         4 -13.1424    119.6269     26.7619   1.7885562360e+01   5.1154397436e+01     1.148554    0.7332599  30.87  0.005406579    2.365    0.577
         5 -14.1382    122.3266     36.8181   2.0873594060e+01   4.9225426122e+01    0.9979553    0.5724323  36.61  0.003898795    2.610    0.617
         6 -13.6430    131.1708     33.6084   1.8359582378e+01   4.7518317460e+01    0.9714848    0.5136027 -48.88  0.004615226    1.817    0.450
         7 -14.0584     41.8449      4.5938   2.7982595938e+01   7.2614989599e+01     1.079561    0.6759702  29.84  0.005192083    1.808    0.447
         8 -13.1089      6.2136      3.4714   5.3662335257e+01   7.9538290344e+01    0.7781292    0.4082092  23.20  0.003864095    1.903    0.475
         9 -15.9690     11.1816     23.2613   6.1834739333e+01   7.5243620613e+01     2.307575     1.368576 -24.42   0.01116011    1.971    0.493
        10 -13.8517     26.2764     13.4980   4.3310863750e+01   7.4690326909e+01    0.8353668    0.4301769  30.07  0.003530839    2.181    0.542
        11 -14.9464    217.6559     17.4329   6.2630448765e+00   3.1173843364e+01     1.616318    0.7018453 -35.79   0.00943116    1.804    0.446
        12 -13.1761     43.7837     32.7903   4.3935222909e+01   6.8177584658e+01      1.06658     0.711208  40.72  0.005381853    1.390    0.280
        13 -14.7357    189.8558     24.0411   9.4407971673e+00   3.5698709170e+01     1.295819    0.6909573 -53.60  0.006691706    1.534    0.348
        14 -14.8191    166.6682     29.2949   1.2727852188e+01   3.9927293663e+01    0.9585771     0.788417 -78.35  0.003830994    1.096    0.088
        15 -13.4437     57.9019     26.7201   3.4083142174e+01   6.6162529757e+01     1.168715    0.3505583  50.25  0.002999821    2.916    0.657
        16 -14.7548    147.8650     29.4228   1.4801419720e+01   4.4115097869e+01     1.238964    0.7279407  74.23  0.005143692    1.646    0.393
        17 -15.3753     99.3757     11.6921   1.5596696088e+01   5.7832903720e+01     1.569941      0.91158  65.06  0.003778878    1.520    0.342
        18 -11.7078     71.1026     16.2300   2.4062976870e+01   6.4413460719e+01    0.3880454    0.2589278 -12.65  0.001760284    1.941    0.485
        19 -11.9293     74.7241     10.3768   2.0149560988e+01   6.4148222493e+01    0.3309044    0.2873711  18.61 0.0009295392    1.357    0.263
        20 -12.3763     60.2062     15.3734   2.7151965078e+01   6.7140577111e+01    0.5851815    0.3254774  39.97   0.00239022    1.922    0.480
        21 -11.5018    175.9576     13.8408   7.9088877756e+00   3.9622142617e+01    0.1984717    0.1367062 -54.77 0.0002587877    1.178    0.151
        22 -12.0506     46.7979     12.9986   3.1183168493e+01   7.0528053809e+01    0.3497175    0.2782787  67.77  0.001376559    1.286    0.222
        23 -12.3966    123.3102     10.8318   1.1829399495e+01   5.1968756210e+01    0.2904085    0.2028591 -66.84 0.0005652145    1.328    0.247
        24 -12.4716     85.5504     13.8367   1.9220184826e+01   6.1090390788e+01     0.411333    0.3916714  -9.84  0.002029177    1.237    0.191
        25 -11.9909    152.8336      8.5044   8.1895393974e+00   4.5212356147e+01    0.2270947    0.2225281  84.76  0.001075118    1.287    0.223
        26 -10.6401     80.5072      7.0866   1.7194689038e+01   6.3018496877e+01    0.1827368    0.1325876 -29.41 0.0008031509    1.546    0.353
        27 -11.8061    232.4015      2.5416   2.6163563325e+00   3.0096183098e+01    0.2728089    0.2200116  44.18  0.002148105    2.002    0.500
        28 -12.2540    120.3290      3.3067   9.5442939365e+00   5.3382797870e+01    0.5562975    0.2282837 -77.01  0.002206276    2.911    0.657
        29 -13.3040    187.9787     11.6980   6.6039713245e+00   3.7365000362e+01    0.6021045    0.4724418 -44.31  0.003475903    1.190    0.160
        30 -11.1299     67.8308      2.6337   1.7885965202e+01   6.6582465835e+01    0.3235253     0.175626  46.54  0.001574326    1.804    0.446
        31 -11.9090     79.9191      1.7374   1.4748191876e+01   6.3630259465e+01    0.7212249    0.1118761  66.81  0.002188827    4.179    0.761
        32 -11.3493     61.1013      1.5846   1.9092137397e+01   6.8334483004e+01    0.4407639    0.1209277  64.93  0.001594656    2.915    0.657
        33 -11.0164     25.7955     44.1204   6.0261579600e+01   6.8954734845e+01     0.215867    0.1970218  57.07   0.00124288    1.247    0.198
        34 -11.7098    209.7102    249.2964   4.9950771913e+01   5.2705931472e-01     0.212746    0.1224708 -10.10   0.00151914    1.385    0.278
        35 -12.6564    107.8176    247.6373   6.9428891126e+01   1.0158441815e+01    0.6701316    0.4029572  51.46  0.003670852    2.347    0.574
        36 -11.3779    109.4143    243.0659   6.8590124316e+01   1.0767292703e+01     0.403059    0.2309139  36.98  0.001939562    1.690    0.408
        37 -13.7915     97.3000    239.3337   7.0960314641e+01   1.2656533104e+01    0.8881297    0.8076602 -29.53  0.006284277    1.263    0.208
        38 -14.1710     90.9147    231.5363   7.1662298959e+01   1.4747818029e+01    0.6879385    0.6183457 -81.69  0.004641791    1.442    0.306
        39 -12.6175     57.4807    246.6255   8.0993590196e+01   1.5234642234e+01    0.6251273    0.3034622  16.44  0.003185711    1.828    0.453
        40 -11.2517     41.1950    250.1533   8.5072845754e+01   1.6035431526e+01    0.2679466    0.1787517  46.26  0.001684656    1.355    0.262
        41 -11.1212     40.7695    245.7188   8.4926508057e+01   1.6908750862e+01    0.2127325    0.1560446 -75.32  0.001370567    1.666    0.400
        42 -13.4051     28.0655    246.5370   8.7999236067e+01   1.7828085854e+01     1.397672    0.4751799  52.76  0.006149608    2.908    0.656
        43 -11.6458     27.8184    235.6377   8.7545302610e+01   1.9995065273e+01    0.2977509    0.2177819 -19.63  0.001801313    1.684    0.406
        44 -12.7735     24.2553    216.7434   8.7498873816e+01   2.4282563131e+01     1.397791    0.2072039  34.59  0.004800986    3.443    0.710
        45 -13.6066     26.2322    226.5345   8.7490397868e+01   2.2006859307e+01    0.9556488    0.4706337 -44.73  0.004547502    2.661    0.624
        46 -12.2193      2.8518    249.6448   9.4002277160e+01   1.9166617243e+01    0.3906885    0.2483374  35.97  0.001755783    1.182    0.154
        47 -13.8925      9.4329    245.5287   9.2365824581e+01   1.9479500718e+01     1.011445    0.3821418  39.83  0.004212736    1.901    0.474
        48 -12.2463     48.6343    181.3841   7.7844538957e+01   3.0306706110e+01     0.546241    0.3225267 -47.78  0.002361575    1.864    0.464
        49 -11.2091    109.3403    183.3186   6.0843797357e+01   2.2290746791e+01    0.1472277    0.1007566 -14.65 0.0007049402    1.712    0.416
        50 -13.1424    197.8714    180.1498   4.1543363733e+01   1.1269309333e+01      0.45959    0.3446757 -68.96  0.002622717    2.678    0.627
        51 -11.4172    121.8751    180.7641   5.7276341954e+01   2.1108655285e+01    0.4207146    0.2695955  71.52  0.001663964    3.476    0.712
        52 -13.5495     85.0945    179.4763   6.6827773632e+01   2.6396034075e+01    0.9645667    0.3854295  45.76  0.003457708    2.897    0.655
        53 -13.0149    124.6108    167.7841   5.4371770267e+01   2.3422572237e+01    0.6989863    0.2760051 -51.21  0.002726634    2.561    0.609
        54 -10.6406    101.9853    161.0000   5.9099889064e+01   2.8304732231e+01    0.2457353   0.08007831  31.29 0.0008057458    2.965    0.663
        55 -11.5258     27.8520    158.8414   8.2324955518e+01   3.8204616573e+01    0.2373555    0.2099781  53.75  0.000911004    1.072    0.067
        56 -12.0956     23.9273    158.6935   8.3658026753e+01   3.8590527965e+01    0.3992258    0.2734389 -77.53  0.001966929    1.477    0.323
        57 -12.0252     85.8002    152.9091   6.2380727693e+01   3.2655626477e+01    0.6816239    0.5409928  -9.83  0.003395986    1.437    0.304
        58 -12.3441     76.8919    156.8740   6.5804009252e+01   3.2963712872e+01      0.55189    0.4324474 -22.18  0.001810813    1.444    0.308
        59 -13.4946     73.9982    153.4828   6.6159531452e+01   3.4221950457e+01     0.896758    0.5740065  31.24  0.002411539    1.481    0.325
        60 -11.5627     54.9820    156.3076   7.2807755204e+01   3.5991168670e+01    0.4236049    0.2335448   2.59  0.001608442    2.499    0.600
        61 -12.6122    208.4005    154.4843   3.5329075478e+01   1.3938313269e+01    0.5137198    0.2917298  29.40  0.002983645    2.103    0.525
        62 -12.0565     89.5682    170.0902   6.4137355332e+01   2.7984990612e+01    0.3080363    0.1911831   7.44  0.001335815    1.969    0.492
        63 -12.9316      8.6814    149.3604   8.8286903038e+01   4.2283748461e+01    0.9865564    0.3995063  43.22  0.003874431    2.271    0.560
        64 -11.1367     12.6595    148.6777   8.6807975035e+01   4.2196416262e+01    0.2864011    0.2146072 -41.10  0.001127505    1.462    0.316
        65 -11.8013    103.4505    149.7406   5.6607971562e+01   3.0684565627e+01    0.4033367     0.285786 -17.36  0.001504787    1.764    0.433
        66 -12.5772     59.9600    148.5013   6.9983009875e+01   3.7412649149e+01    0.2987539    0.2602146 -18.86  0.001553333    1.248    0.199
        67 -11.0261     38.0816    145.6977   7.7280171445e+01   4.0760723081e+01    0.2112469    0.1916571  18.31 0.0005631883    1.112    0.101
        68 -12.3952    111.5646    155.5559   5.5483408328e+01   2.8072266951e+01    0.5410285    0.3756792  84.21  0.002317845    2.473    0.596
        69 -12.7079     43.8620    132.8774   7.3342608886e+01   4.3624877887e+01    0.5200759    0.3487794 -70.41  0.002122276    1.518    0.341
        70 -12.2800    245.8098    133.6698   2.6654992252e+01   1.2321386658e+01     0.230129    0.1882322 -60.14   0.00175086    1.618    0.382
        71 -10.4280     10.7664    133.8671   8.6339826605e+01   4.6427097191e+01    0.2041128     0.151903  53.03 0.0004135041    1.315    0.239
        72 -13.6705    233.1430    125.4178   2.6633430930e+01   1.5018449990e+01    0.5008793    0.3066741 -43.35  0.003286521    1.361    0.265
        73 -12.7555    222.7563    127.5579   2.8311000222e+01   1.6084898051e+01    0.3849421    0.2149952 -53.00  0.002158451    2.077    0.518
        74 -11.0679      5.4853    128.5341   8.8005813719e+01   4.8252306465e+01    0.3510532    0.1653116 -41.03  0.001379726    2.373    0.579
        75 -14.5457    105.6428    120.9227   4.9829518758e+01   3.6999061634e+01     1.725569     1.249892  32.66  0.008250466    1.429    0.300
        76 -14.8126    105.9566    104.4378   4.5639451180e+01   4.0660204123e+01     1.389131      1.11671  38.93   0.00641986    1.271    0.213
        77 -10.4026     58.7553    125.0038   6.6343375081e+01   4.3819727386e+01    0.1970886    0.1311342 -63.23 0.0005308049    1.525    0.344
        78 -13.0008    180.3605    120.7771   3.3150496112e+01   2.3524002181e+01    0.4223651    0.2525192  38.30  0.001607795    1.976    0.494
        79 -11.9578     42.5273     90.3641   6.5585785944e+01   5.5344046635e+01    0.3915817    0.2834341 -64.55 0.0004532911    1.411    0.291
        80 -13.0613     20.7169     86.1233   7.5510525597e+01   5.9006903475e+01    0.8437439    0.5697909   4.90  0.003951929    1.598    0.374
        81 -12.5874     36.7627     92.8884   6.8904700225e+01   5.5430848524e+01    0.6246238    0.4171382  10.35  0.001861347    1.676    0.403
        82 -14.1384     18.4839    111.2906   8.0685485660e+01   5.2209532083e+01     1.059593    0.7523865 -34.41  0.003586383    1.511    0.338
        83 -13.5506      2.2531     96.9277   8.6615528477e+01   5.7304267864e+01     1.053069    0.4008777 -78.77  0.003602452    2.519    0.603
        84 -14.3040     23.1556     95.2371   7.5987061927e+01   5.6282979560e+01     1.535802    0.7545027  14.26  0.005961049    2.185    0.542
        85 -12.6217     29.6511     89.4090   7.1604574805e+01   5.7206490934e+01    0.8388945    0.4497846  83.24  0.002865437    2.934    0.659
        86 -12.0898     78.6997    110.9865   5.6015955205e+01   4.4263688641e+01    0.4376399    0.3806689  67.79  0.002211367    1.246    0.197
        87 -13.0579     85.1651    114.8847   5.4746317916e+01   4.2158442687e+01     1.090918    0.5822116  21.59  0.003659075    2.600    0.615
        88 -11.9430     88.3332    109.1867   5.2299771466e+01   4.2961551443e+01    0.5213574     0.331324 -57.49  0.002195595    1.639    0.390
        89 -12.3817    121.3436    111.9368   4.3371394053e+01   3.6003710430e+01    0.3668673    0.2940461  80.10  0.001246799    1.569    0.363
        90 -12.0024     62.7657    110.3376   6.1734416154e+01   4.7092515659e+01    0.5283259    0.3799908  68.15  0.002339547    1.713    0.416
        91 -11.0630     64.6723    101.6871   5.8917727486e+01   4.9011276666e+01    0.2906259    0.2388199  -9.60 0.0005636556    1.439    0.305
        92 -12.0836     61.8343     98.2279   5.9169005944e+01   5.0362584051e+01    0.5485052    0.3805447  79.91  0.002035826    2.017    0.504
        93 -11.4235    176.8645    110.2586   3.1437842484e+01   2.5908883163e+01    0.2593106    0.1663023 -17.51  0.001259621    2.131    0.531
        94 -11.1871     45.8795    110.0877   6.8501877363e+01   4.9612085633e+01    0.3298263    0.2176828 -51.26  0.001469975    1.512    0.339
        95 -10.9698     43.2214    106.6069   6.8926258444e+01   5.0904359240e+01    0.2677533    0.2229859 -56.33  0.000967711    1.194    0.163
        96 -12.5484    136.4079    132.1109   4.4392191917e+01   2.8982478457e+01    0.6083243    0.2415536  41.61  0.002318755    2.625    0.619
        97 -14.1912     10.6449    102.8314   8.3214943510e+01   5.5167296807e+01     1.065807    0.8062226  31.57  0.005436306    1.335    0.251
        98 -12.6347    136.1547    103.0211   3.7572620335e+01   3.4897231329e+01    0.5869375    0.3207147  49.37   0.00186036    1.936    0.483
        99 -13.5619    120.1659    102.2313   4.1200307270e+01   3.8277846009e+01    0.6597469    0.3459882  44.42  0.002754473    1.963    0.491
       100 -11.9040     49.1186     93.3977   6.3333037746e+01   5.3606387427e+01    0.4603798    0.3286666  78.03  0.002027626    1.818    0.450
       101 -11.5012    249.4125     99.2062   2.0089206110e+01   1.6429045670e+01    0.1646533   0.07121193 -43.08  0.000956893    1.725    0.420
       102 -12.2829    163.2248     97.9333   3.0918428174e+01   3.0523682813e+01    0.3436838    0.2861538  66.65 0.0006177691    1.352    0.260
       103 -13.1793    137.4164     95.2326   3.5291820452e+01   3.6142669440e+01    0.4753021    0.3934087  87.11  0.001461172    1.395    0.283
       104 -13.1811      5.4040    117.2510   8.7110406428e+01   5.1427788553e+01     1.339027    0.5832468 -59.44  0.005342329    2.122    0.529
       105 -12.5918     49.8319     98.6749   6.4308507687e+01   5.2119121997e+01    0.8859701    0.5516724   7.27  0.003413108    2.117    0.528
       106 -13.0815     32.4203    111.6129   7.4559907662e+01   5.0804967386e+01    0.7564725    0.4309781 -56.29  0.003229966    1.691    0.409
       107 -10.3901     42.3178     96.2680   6.7087020486e+01   5.3808768406e+01     0.154416    0.1152228 -22.87 0.0002052684    1.556    0.357
       108 -12.9117     28.1619    122.2045   7.8006013894e+01   4.8279922832e+01    0.6500708    0.4455791 -49.12  0.002533536    1.482    0.325
       109 -14.1369    214.4187     77.0386   1.9176706122e+01   2.4553587891e+01    0.9154721    0.6640152 -60.57  0.006129555    1.335    0.251
       110 -14.6101    188.5453     82.8889   2.3491599291e+01   2.8214417624e+01     1.255134    0.8308036 -81.31   0.00677447    2.054    0.513
       111 -14.6319    164.4261     71.3319   2.4100323976e+01   3.4671149903e+01     1.206107    0.9162152  76.66  0.006963084    1.432    0.302
       112 -14.0342    160.7076     80.7732   2.7103723883e+01   3.3923445071e+01     1.048566    0.5551217  37.36  0.002990955    2.875    0.652
       113 -14.4392    169.2848     76.8907   2.4772540911e+01   3.2819146873e+01    0.7687241    0.5791919  39.10  0.002858677    1.678    0.404
       114 -14.4670    198.9212     69.9835   1.9301865583e+01   2.8203807074e+01     1.034104     0.769366  40.22  0.006466571    1.833    0.454
       115 -10.3874     78.8232     86.9066   4.9482724899e+01   5.0023978260e+01    0.2060556    0.1787383  84.57   0.00040404    1.291    0.226
       116 -11.0624     35.0957     86.4018   6.8201937772e+01   5.7366839640e+01    0.2916588    0.1958463 -44.69 0.0007721521    1.513    0.339
       117 -12.5120    242.2823     83.5780   1.7824446558e+01   1.9413731104e+01    0.3338915    0.1791765  65.62  0.002115906    2.554    0.608
       118 -12.9074    237.3522     79.8279   1.7542115687e+01   2.0607287805e+01    0.3592885    0.2446502 -81.24   0.00244881    1.932    0.482
       119 -10.9985     98.0858     83.7129   4.2130946067e+01   4.6765462683e+01    0.2157372    0.1949452  53.81 0.0006368454    1.095    0.086
       120 -11.8841     40.2217     67.6971   6.0318658738e+01   6.1409642547e+01     1.063669    0.3805622  30.38  0.003632188    2.774    0.640
       121 -14.1752    170.2561    242.1967   5.5899726369e+01   4.8786818174e+00    0.9964228    0.6083325   5.25  0.006521211    1.386    0.279
       122 -12.9440    148.4785    239.5372   5.9811494472e+01   7.3797811416e+00    0.4398202    0.3056078  53.74  0.002417966    2.642    0.621
       123 -13.2983     66.0818     49.0009   4.1035842142e+01   6.0626907186e+01    0.7375163    0.6970552 -70.34  0.003497966    1.125    0.111
       124 -13.9092     74.1619     73.7776   4.7076910656e+01   5.3900643975e+01     2.926649      1.12678  29.35  0.006627969    6.796    0.853
       125 -13.8951     88.6532     62.5599   3.8149897563e+01   5.3081341792e+01     1.235136    0.7826506 -20.53    0.0037946    2.468    0.595
       126 -12.9048     55.0257     81.3567   5.7397169280e+01   5.5716203341e+01    0.6964574    0.4648921 -35.89  0.003081171    1.709    0.415
       127 -13.7547     61.1889     75.8275   5.2986979111e+01   5.5951083934e+01    0.8318278    0.5343813 -39.79    0.0020532    1.705    0.413
       128 -11.9161    114.2402     79.7133   3.6423498102e+01   4.4063289647e+01    0.4657414    0.3224331 -52.56  0.002229956    1.458    0.314
       129 -12.9752    135.2436     79.1453   3.1403524872e+01   3.9565199760e+01    0.7710298    0.3770064  58.19  0.003226519    2.201    0.546
       130 -11.2747     42.6671     79.3092   6.2593068359e+01   5.8175633648e+01     0.265147    0.2444136 -57.85  0.001030428    1.102    0.093
       131 -11.1417     41.7593     75.9870   6.2085328987e+01   5.9143725221e+01    0.3293983    0.2444657 -65.01  0.001059984    1.427    0.299
       132 -13.0762    237.5522    231.7353   4.3312365471e+01   4.4367674845e-01    0.5098137     0.351022 -38.36  0.004003356    1.782    0.439
       133 -14.0048      5.2042     63.4051   8.0048285823e+01   6.6261706993e+01    0.7569001    0.6130774  13.42  0.003342967    1.247    0.198
       134 -11.4421     27.2659     75.3692   6.9555069944e+01   6.1198248721e+01    0.6244968    0.3145096 -79.98  0.002300091    2.732    0.634
       135 -12.9851    134.8690     65.8845   2.7676820820e+01   4.1924926414e+01    0.5923864    0.4839265  22.38   0.00206027    1.646    0.393
       136 -14.2514    177.8453     56.7765   1.8606272726e+01   3.4067026098e+01    0.8595346    0.4997371 -49.89  0.002937129    1.499    0.333
       137 -11.9390     36.4512     54.1788   5.7644993994e+01   6.5145556121e+01      0.61452     0.353662  12.07  0.002447505    2.439    0.590
       138 -11.0782     34.5892     60.5005   6.0999788766e+01   6.3961844014e+01    0.4467664    0.2198286 -48.63  0.001836776    2.025    0.506
       139 -11.8031     38.9538     59.6800   5.8270494863e+01   6.3499675839e+01    0.4379825    0.2943907  66.11  0.001908726    2.133    0.531
       140 -11.8762     24.6888     59.0860   6.6417008408e+01   6.5609077609e+01    0.4616372    0.3200144 -42.45  0.001951887    1.440    0.305
       141 -14.6687    119.3550     54.2055   2.7227030481e+01   4.7394346187e+01     1.037143    0.6556386  53.84  0.002322238    1.581    0.368
       142 -13.0283    136.0663     50.9942   2.3006457597e+01   4.3978821631e+01     0.614918    0.4882762 -36.51  0.001968944    1.302    0.232
       143 -12.4770    248.3226     52.0344   1.1384614733e+01   2.2380850830e+01    0.5622202    0.2209281 -33.78  0.003197896    1.994    0.499
       144 -14.1465    100.8158     49.3560   2.9903820326e+01   5.2573934556e+01    0.9458587    0.8189035 -63.57  0.005153314    1.164    0.141
       145 -11.8884    236.0086    248.0039   4.5743725064e+01  -1.3146160244e+00    0.2073305    0.1194549  21.34  0.001609232    1.775    0.437
       146 -12.4063    110.1445     41.9531   2.5037667213e+01   5.1462030158e+01    0.4351644    0.2212724  61.20 0.0007942514    1.855    0.461
       147 -13.1823    113.6662     37.9030   2.2872609861e+01   5.1179274371e+01    0.4106559    0.3425316 -68.79  0.001412506    1.162    0.139
       148 -13.0371     57.5490    201.7701   7.7287890380e+01   2.4507984185e+01     1.302343     0.524258 -71.24  0.005254203    2.902    0.655
       149 -13.5606     66.2704    222.9626   7.6940870709e+01   1.9009589784e+01    0.9045892    0.6639215  22.29  0.005347871    1.157    0.136
       150 -10.3769     47.6248     56.3061   5.2422019129e+01   6.2808984611e+01    0.1535619    0.1135976  68.10 0.0007029916    1.771    0.435
       151 -11.1336     17.7980     55.2207   6.9630198196e+01   6.7320296792e+01     0.345123    0.2062883 -71.82  0.001568181    1.897    0.473
       152 -11.1763    231.6967     55.1313   1.3138624833e+01   2.4564428986e+01    0.1824156    0.1327892 -70.71  0.001328696    1.384    0.278
       153 -10.5970     23.5506     49.9812   6.4039442548e+01   6.7919359774e+01    0.2008322    0.1371276 -55.68 0.0004590432    1.488    0.328
       154 -13.4569    157.2774     43.4066   1.7637408349e+01   4.0231933505e+01     0.781074    0.5875663  34.46  0.004369868    1.869    0.465
       155 -11.4005     38.8317     46.1275   5.3008760487e+01   6.6510226761e+01    0.2133228    0.1979959  62.64 0.0009805347    1.197    0.164
       156 -13.2600      6.3131     42.8839   7.4112830544e+01   7.1338199987e+01      1.07632    0.4328627  16.93  0.004375096    2.411    0.585
       157 -13.3164     59.3858    212.7918   7.7819705422e+01   2.1865897906e+01    0.7343013    0.4011158 -12.21  0.001498319    2.703    0.630
       158 -11.6762    127.1436    232.5490   6.3439338960e+01   1.0707228890e+01    0.1959555    0.1374673 -36.40  0.001221272    1.479    0.324
       159 -13.6123     64.5254    214.2995   7.6594614931e+01   2.1005593482e+01    0.4876812    0.4170138  13.43  0.002352133    1.092    0.084
       160 -13.4827     95.5246    218.3357   6.9090720865e+01   1.6781845126e+01    0.6450656    0.2557629  24.35  0.002780187    2.183    0.542
       161 -10.5646      5.5723    219.2710   9.2501722369e+01   2.5169758303e+01    0.1554235    0.1148063 -70.40 0.0007058594    1.557    0.358
       162 -10.0425     38.0000    216.9211   8.3855463745e+01   2.3046413131e+01    0.1901557   0.07511449 -75.17 0.0007972381    2.907    0.656
       163 -12.1134     40.4348     40.2029   4.9429815136e+01   6.7429707841e+01      0.54856    0.3101673  37.74   0.00250016    1.669    0.401
       164 -12.6924     32.9720     40.3809   5.3966150279e+01   6.8674628443e+01    0.3833123     0.303248  24.61 0.0006444044    1.214    0.176
       165 -12.0351    182.3439     39.8273   1.3915238390e+01   3.5372678005e+01     0.336825    0.1508185 -56.96   0.00160321    2.186    0.542
       166 -12.4891     51.3880    248.1792   8.2544757918e+01   1.5502196757e+01    0.4949058    0.3603846   2.22  0.003131145    1.402    0.287
       167 -12.6291     75.9868     37.0145   3.2256880154e+01   6.0431887531e+01    0.5157887    0.3200653  48.79  0.001309754    1.521    0.342
       168 -11.8592     70.9410     36.2228   3.3644286933e+01   6.1732811047e+01    0.3249656    0.2668144  85.11  0.001051296    1.361    0.265
       169 -12.0961    104.8326     36.9605   2.4385873345e+01   5.3466977587e+01    0.3162874    0.2043819 -35.59  0.001144766    1.629    0.386
       170 -12.8664    241.8285     35.6410   8.6459741539e+00   2.5209193204e+01    0.4143947    0.2608461 -88.24  0.002149214    1.780    0.438
       171 -12.1909      5.4413    209.6653   9.2214923810e+01   2.7315711017e+01    0.2836035    0.1880198 -28.47  0.001531407    1.943    0.485
       172 -11.2374    245.6250     29.9110   7.3501819193e+00   2.5237804746e+01    0.2629132   0.09460337 -34.56  0.001483628    2.069    0.517
       173 -12.1636     85.6314    215.6180   7.1257581938e+01   1.8435575288e+01    0.2648427    0.2118645  38.05  0.001589181    1.215    0.177
       174 -13.1566     72.4633    206.9360   7.3741846102e+01   2.1734089346e+01    0.5116565    0.3207426  29.73  0.002659055    1.375    0.273
       175 -10.9582     97.8854     26.4920   2.1876810710e+01   5.6562107088e+01    0.3713226    0.2328441 -58.68  0.001798299    1.761    0.432
       176 -12.1965     30.7648     25.3198   4.7658772357e+01   7.1930298948e+01    0.4883874     0.252602  29.29  0.001766491    2.127    0.530
       177 -12.3820     36.5731     22.3222   4.2249694747e+01   7.1353707567e+01    0.3102868    0.2397484 -14.92 0.0004389618    1.504    0.335
       178 -11.5096    136.7179    210.9132   5.8446278516e+01   1.3405655431e+01    0.2023743    0.1815322 -65.39  0.001142698    1.537    0.349
       179 -10.7510     51.2277     20.4093   3.3552870576e+01   6.8562164080e+01    0.3851607    0.1594605  56.36  0.001539504    2.292    0.564
       180 -12.1930     46.2463     20.0350   3.5666322468e+01   6.9708142979e+01    0.4742406    0.2500432  42.52  0.002175543    1.784    0.440
       181 -13.6513     20.7776    224.1779   8.8774601153e+01   2.2953902323e+01    0.6632522    0.5530739   8.55  0.002884492    1.245    0.197
       182 -12.7239     46.4995    208.8094   8.0964166265e+01   2.4041595073e+01    0.5103785    0.2424325  60.66  0.002153523    2.618    0.618
       183 -11.2604     80.5458    208.3159   7.1751732254e+01   2.0527821090e+01    0.2858385    0.1674473  44.80  0.001344253    1.742    0.426
       184 -10.9477    151.4775    206.1897   5.4571005466e+01   1.2499951603e+01    0.2427136    0.1317319   3.08  0.001147266    2.312    0.567
       185 -12.3531     41.4039    205.3001   8.2093966200e+01   2.5328632717e+01    0.2584737     0.161084  32.27  0.001341733    1.362    0.266
       186 -13.7070     39.0538    194.8859   8.1938136609e+01   2.7987923651e+01     1.054376     0.401404  40.83    0.0042627    2.262    0.558
       187 -13.0181     22.3079    166.1592   8.4822897432e+01   3.6741656759e+01    0.6806459    0.3145066  29.83  0.002075884    1.906    0.475
       188 -12.9592    140.3590     21.3802   1.3257005052e+01   4.6783240419e+01    0.6803542    0.3079147  70.65  0.001287307    2.060    0.514
       189 -14.5434     30.0516    169.1838   8.2531090477e+01   3.5268105244e+01     2.614541     1.066114 -39.82  0.009028491    3.393    0.705
       190 -13.8491     22.3844    181.0229   8.5889316573e+01   3.2897607692e+01     1.005535     0.531793 -54.89  0.003967355    2.044    0.511
       191 -15.1615      8.4354    183.1808   9.0281379160e+01   3.3426150831e+01     1.333723     1.285907 -36.57  0.008459921    1.183    0.154
       192 -14.5777    212.2675     40.7663   1.1598654561e+01   2.9560650837e+01     1.567998     0.561293  81.10  0.006913626    3.954    0.747
       193 -15.2804     15.3651    174.8992   8.7683531145e+01   3.5019745135e+01     2.620188     1.095949  51.24     0.010607    2.289    0.563
       194 -13.2269     15.8309    198.2720   8.8856293334e+01   2.9194191168e+01     1.083964    0.2649567 -58.82  0.003676983    4.189    0.761
       195 -10.5036    212.6575    199.6714   4.2326235126e+01   6.7788153523e+00    0.1184738   0.06772348 -12.37 0.0007051179    1.744    0.426
       196 -13.2373    164.4368    194.4280   5.0073237133e+01   1.2965500124e+01    0.5662557    0.3628497 -62.08  0.002883959    2.603    0.616
       197 -12.1905    201.1743    191.1580   4.2825455429e+01   9.2200148096e+00    0.2907989    0.1987414 -12.79  0.001374747    1.293    0.226
