#   1 NUMBER                 Running object number                                     
#   2 MAG_AUTO               Kron-like elliptical aperture magnitude                    [mag]
#   3 X_IMAGE                Object position along x                                    [pixel]
#   4 Y_IMAGE                Object position along y                                    [pixel]
#   5 X_WORLD                Barycenter position along world x axis                     [deg]
#   6 Y_WORLD                Barycenter position along world y axis                     [deg]
#   7 A_WORLD                Profile RMS along major axis (world units)                 [deg]
#   8 B_WORLD                Profile RMS along minor axis (world units)                 [deg]
#   9 THETA_WORLD            Position angle (CCW/world-x)                               [deg]
#  10 FWHM_WORLD             FWHM assuming a gaussian core                              [deg]
#  11 ELONGATION             A_IMAGE/B_IMAGE                                           
#  12 ELLIPTICITY            1 - B_IMAGE/A_IMAGE                                       
         1 -11.4138    241.1210     18.1026   5.9700933798e+01   2.2395132107e+01    0.5894262    0.3318513  -3.20  0.002634536    2.121    0.529
         2 -10.3841    141.1654     19.5541   7.4066806103e+01   4.7850049266e+01    0.5143858    0.2816278 -12.23   0.00186366    1.998    0.499
         3  -9.5126    201.5803     11.9117   6.1963825267e+01   3.2805709878e+01     0.246809    0.1866899  52.63 0.0003835441    1.315    0.239
         4  -8.7097    160.5848     10.3204   6.6981250671e+01   4.3787282105e+01    0.2008514     0.139776  -1.34 0.0008372039    1.526    0.345
         5  -9.5575    229.3507      8.9527   5.8254597533e+01   2.6081898081e+01    0.2408407    0.1944742  56.43 0.0004771795    1.291    0.225
         6  -9.9079    248.9425      4.5929   5.5474050448e+01   2.1851833646e+01    0.3126689    0.1788364 -17.75  0.001567314    1.696    0.410
         7  -9.5081    211.8580      8.4949   5.9801442962e+01   3.0483551744e+01    0.2120759    0.1827462 -20.89 0.0006072071    1.138    0.121
         8  -8.6466    139.4142      5.7410   6.8834472373e+01   4.9764333200e+01    0.2026567    0.1341938   2.27 0.0005805087    1.605    0.377
         9  -8.7867    240.6793      2.3261   5.5502042926e+01   2.3966740763e+01    0.1441679   0.08578945 -52.62  0.000336514    1.683    0.406
        10  -8.7129    201.5725    241.7184   1.1479100683e+02   2.5877454780e+00    0.1125907    0.1025507 -30.76 0.0009489724    1.600    0.375
        11 -10.2847    239.9912    221.7559   1.0596035893e+02  -1.0332876145e+00    0.4601808    0.3194085  54.43  0.002942907    2.375    0.579
        12 -11.6271    248.9885    243.1989   1.0770945325e+02  -4.0717644197e+00    0.5884976    0.2659416 -23.22    0.0036331    2.521    0.603
        13 -10.8804    248.1747    233.0323   1.0638346092e+02  -3.1489089513e+00    0.5840454    0.2110881 -29.94  0.003271675    3.223    0.690
        14 -11.0115    242.9782    246.6493   1.0907606016e+02  -3.5467095527e+00    0.3782881    0.2402068  -9.33  0.001832538    1.660    0.397
        15 -10.7494    241.4089    239.7940   1.0836837612e+02  -2.7855859929e+00    0.3327662    0.2175591  11.65     0.001366    1.291    0.225
        16  -9.7007     28.2158    242.4080   1.4243869884e+02   2.4442754736e+01    0.1351361   0.05371124  48.46 0.0009572226    1.700    0.412
        17  -8.7185    184.3448    241.6719   1.1753138412e+02   5.0446663628e+00    0.1014585   0.07160655  56.14 0.0007050577    1.748    0.428
        18  -9.8926     18.0192    239.9749   1.4385308693e+02   2.5741766906e+01    0.1130877    0.1061391 -79.90  0.001146311    1.699    0.411
        19  -8.6530    195.4066    239.2593   1.1546258375e+02   3.7113433927e+00    0.1138903    0.1035689 -41.55  0.000681748    1.637    0.389
        20 -10.0774    231.9888    237.8039   1.0952551778e+02  -1.3269386531e+00    0.2472065     0.231566 -82.18   0.00197999    2.218    0.549
        21  -8.8824    159.2383    237.9842   1.2118734887e+02   9.0407240176e+00    0.1097214   0.09197845 -43.90 0.0007715137    1.609    0.378
        22  -9.5509    204.2932    235.5480   1.1356425201e+02   2.8061045619e+00    0.2567109     0.193875 -55.00  0.001824806    2.385    0.581
        23  -8.7005    189.5347    237.1000   1.1613698476e+02   4.7792189502e+00    0.1232306    0.1054036 -24.39 0.0005940298    1.515    0.340
        24  -9.6168     49.8399    235.8535   1.3884425915e+02   2.3227812642e+01    0.1330802    0.1091282  59.81 0.0009297674    1.234    0.190
        25 -10.1227    215.7506    233.2656   1.1143401019e+02   1.3788570172e+00    0.3261522    0.2635139 -75.96  0.002139474    3.058    0.673
        26  -9.0497    195.1455    232.8685   1.1468890898e+02   4.4077816741e+00    0.2099557     0.176432 -89.16  0.001517564    2.227    0.551
        27 -10.2783    237.4158    230.7005   1.0768472225e+02  -1.4644187262e+00    0.3078116    0.2453139  69.56  0.001978043    3.071    0.674
        28  -8.9720    186.0916    230.2661   1.1583541641e+02   6.0172985774e+00    0.1724068    0.1417324  82.02  0.001226232    2.092    0.522
        29  -9.1423    157.2735    231.0145   1.2072749359e+02   1.0158034657e+01    0.1457573    0.1230896  40.04 0.0009247165    1.124    0.110
        30  -8.6331    226.4816    231.9568   1.0956232980e+02  -3.2984802458e-02    0.1120125   0.09571186 -59.60 0.0008075997    2.391    0.582
        31  -9.1103    223.2687    227.3781   1.0941764366e+02   8.5528889820e-01      0.13985    0.1371892  -8.86 0.0009321343    1.676    0.403
        32  -9.3459    149.6463    226.1421   1.2146079222e+02   1.1878003264e+01    0.1972308    0.1366632 -68.91  0.001326394    2.180    0.541
        33  -8.9723    161.6463    226.1877   1.1942206821e+02   1.0110651245e+01    0.1327772    0.1010104 -24.77 0.0009540478    1.737    0.424
        34  -9.4429    216.9962    223.7956   1.0990550419e+02   2.1212084149e+00    0.2440764    0.1831532 -42.10  0.001408756    2.021    0.505
        35  -9.1234    199.9145    224.7797   1.1282743376e+02   4.5591398904e+00    0.1745201    0.1499551   6.56  0.001166213    1.253    0.202
        36  -9.0206    181.1297    224.8540   1.1596249352e+02   7.3661579763e+00    0.1689441    0.1285629  48.81  0.001216264    1.352    0.260
        37  -9.5916    229.4859    222.5257   1.0772449403e+02   4.1252460992e-01    0.1952911    0.1644231  19.92  0.001535568    1.278    0.217
        38 -10.0562    226.2234    219.5605   1.0780121098e+02   1.1755638279e+00    0.2713507    0.2116668  18.26  0.001300812    1.106    0.096
        39  -9.4374    191.9878    220.5675   1.1356490810e+02   6.2162845586e+00    0.1724823    0.1646674 -86.48  0.001359951    1.586    0.369
        40  -8.9254    210.6735    219.7277   1.1034506056e+02   3.4788607563e+00    0.1856478    0.1523742  64.67  0.001284331    2.006    0.502
        41 -10.7524    248.4936    215.5146   1.0367689176e+02  -1.6890863703e+00    0.4275451    0.3061315 -31.85  0.003043541    1.925    0.480
        42  -9.7033    232.8955    214.3002   1.0593239146e+02   6.9884348852e-01    0.2765716     0.174101 -26.86  0.001853401    1.828    0.453
        43  -8.8630    168.6790    216.1848   1.1695648580e+02   1.0301754585e+01    0.1513075    0.1380865  71.07 0.0008963854    1.415    0.293
        44  -9.6031    241.1249    214.0143   1.0458631902e+02  -4.8604344244e-01    0.2526618    0.1859031  13.73  0.001470624    1.083    0.076
        45  -9.8174    185.5690    212.8904   1.1358467329e+02   8.0978729972e+00    0.2535029    0.2093667 -21.86  0.001254314    1.440    0.306
        46 -10.8802    215.0904    209.7321   1.0812002409e+02   3.8643342258e+00    0.4213627    0.3587337  -6.62  0.003025221    1.309    0.236
        47  -9.4026    211.0176    201.5006   1.0751007855e+02   5.4134618101e+00    0.2110847    0.1661569 -38.62   0.00143681    1.705    0.413
        48  -9.1664    131.4416    212.2058   1.2304996806e+02   1.6443593368e+01    0.1809443    0.1084225 -46.89  0.001130669    2.118    0.528
        49 -10.2360    204.7231    206.6618   1.0938741388e+02   5.8234977826e+00     0.266704    0.1694389 -11.18  0.001248778    1.898    0.473
        50 -11.0990    231.5147    186.8887   1.0160358501e+02   3.7514308459e+00    0.4485864    0.3287266  -2.08  0.002949978    1.267    0.211
        51 -10.6774    227.2987    205.4522   1.0543498264e+02   2.4316344766e+00    0.5891631     0.199007 -32.71  0.002806586    3.358    0.702
        52  -9.6856    229.0094    200.2691   1.0430872251e+02   2.7078090790e+00    0.3061098    0.1801763  -5.74   0.00155712    1.910    0.476
        53 -11.2181    224.4079    193.1199   1.0386917360e+02   4.2096098194e+00    0.4721201    0.4017249 -58.80  0.003103196    2.097    0.523
        54  -9.6991    236.5924    208.1007   1.0436139261e+02   7.5113676365e-01    0.4032964    0.2157104 -32.29  0.002373777    2.221    0.550
        55 -11.1879    244.8841    203.2220   1.0224716408e+02  -1.7997594668e-02    0.6388285     0.418356  51.92  0.003868657    2.224    0.550
        56 -10.6501    249.9418    179.7483   9.7322156202e+01   1.5576712281e+00    0.7585924    0.1943888 -27.30  0.002946796    4.048    0.753
        57 -10.9068    243.7364    182.6172   9.8839961209e+01   2.2451090427e+00    0.5495685    0.4975426 -87.69  0.003621501    2.198    0.545
        58 -11.6839    247.4184    192.7922   1.0006834898e+02   6.2124614750e-01    0.6313174    0.4333723 -31.97  0.004115554    1.823    0.451
        59 -10.7763    238.1750    189.1982   1.0091936371e+02   2.4339807058e+00    0.4958328    0.2991234 -17.00  0.003003319    1.676    0.403
        60  -9.9214    231.7950    195.0488   1.0297511205e+02   2.8229712331e+00    0.2407794     0.213877  12.14 0.0009022258    1.308    0.235
        61  -9.3546    175.4910    210.5726   1.1501010423e+02   9.9569272952e+00    0.2633067    0.1722504  68.59  0.001404679    2.806    0.644
        62  -9.0848    191.9807    208.4800   1.1184269181e+02   7.6217668745e+00    0.2056013    0.1481854  -3.67  0.000963426    1.606    0.377
        63  -9.5794    124.6130    206.2018   1.2359712337e+02   1.8330965573e+01    0.2879424    0.1333732  48.05  0.001567164    1.825    0.452
        64  -9.9923    197.2134    204.9989   1.1041818106e+02   7.2073150943e+00    0.3317535    0.2098027  55.88  0.001733492    2.103    0.524
        65  -9.1522    164.0248    202.5095   1.1592610543e+02   1.2827985190e+01    0.1656902    0.1574048   4.51  0.001242923    1.217    0.178
        66  -8.6406    184.4803    201.4921   1.1211245094e+02   9.6812321249e+00    0.1201667   0.09568715  30.91 9.454506e-06    1.003    0.003
        67  -9.3862    203.4868    198.5232   1.0832306026e+02   6.9702120142e+00    0.1811629    0.1111514 -46.20  0.001028861    2.350    0.575
        68  -8.6832    178.3553    199.6941   1.1293437736e+02   1.0904521538e+01    0.1152047    0.0869292  61.67 0.0007041257    1.718    0.418
        69 -10.1346    216.3953    195.0308   1.0554075653e+02   5.2870762538e+00    0.2790094    0.2321537 -41.86  0.001622753    1.715    0.417
        70  -9.6187    209.9758    195.5715   1.0672578043e+02   6.2657064737e+00    0.2391621    0.2175687  83.48  0.001133981    1.820    0.451
        71  -8.9914    210.2865    189.6835   1.0568722984e+02   6.9134703515e+00    0.1943986    0.1461333 -39.44  0.001235278    1.723    0.420
        72  -9.2677    148.5018    196.4980   1.1794543162e+02   1.6150414540e+01    0.1810107    0.1160702 -64.19 0.0008641313    2.229    0.551
        73  -8.8006    191.4426    187.5215   1.0865730449e+02   1.0341287448e+01    0.1243016    0.1013206  26.34 0.0001131241    1.010    0.010
        74 -10.4334    235.7860    181.6674   9.9960621659e+01   3.6327216536e+00    0.2734301    0.2669198  23.52  0.001465033    1.564    0.361
        75  -9.6594    147.5673    179.7885   1.1569887301e+02   1.8874747673e+01    0.2147522    0.1209455 -42.14  0.001137026    2.088    0.521
        76  -9.2572    218.1823    177.6050   1.0218935163e+02   7.0461091040e+00    0.2279209    0.2005132 -57.35  0.001467927    1.806    0.446
        77 -10.8432    237.0201    197.9392   1.0261564807e+02   1.7045578559e+00    0.4393717    0.3200369 -10.42  0.003025465    1.351    0.260
        78  -8.6587    211.5298    176.4556   1.0314045767e+02   8.3312607366e+00    0.1271526    0.1035706  21.22 0.0003940428    1.016    0.016
        79  -8.0284      9.6556    166.6820   1.4217023179e+02   3.8722829013e+01   0.09336446   0.07064623 -55.59 0.0007048989    1.721    0.419
        80  -8.4996    184.4045    164.8002   1.0596805978e+02   1.4750721501e+01    0.1716656    0.1205095 -19.30 0.0005577941    1.617    0.381
        81  -9.2315    132.2092    157.0147   1.1518431139e+02   2.5344625361e+01    0.1630513    0.1047824 -50.41   0.00040275    1.694    0.410
        82  -9.5306    229.0530    153.6784   9.5663988998e+01   8.0985570322e+00    0.1858539    0.1441194  27.61 0.0004948786    1.142    0.124
        83  -8.9905    118.1737    152.8162   1.1753873342e+02   2.8462713485e+01      0.19331    0.1687278  72.74 0.0008883446    1.161    0.138
        84 -10.0553    241.0677    149.3927   9.2767408303e+01   6.4645763360e+00    0.2479767    0.2284289  25.14 0.0007934198    1.329    0.247
        85 -10.7395    243.0190    139.0266   9.0233644313e+01   7.3712456420e+00    0.4271055    0.3149576  75.05  0.002127433    2.708    0.631
        86 -10.5286    244.9631    144.7068   9.1145275331e+01   6.3305748229e+00    0.3711154    0.1946919 -34.04  0.001563943    1.997    0.499
        87 -10.6286    248.4354    143.2833   9.0287017374e+01   5.8794915355e+00     0.475257    0.2088088 -16.85  0.002042724    2.524    0.604
        88  -8.7519    214.3275    149.7021   9.7411187446e+01   1.1338824419e+01     0.118885    0.1095719  89.29 0.0002609649    1.634    0.388
        89  -8.4103    216.2948    135.6734   9.4029370354e+01   1.2894338855e+01    0.1248374    0.1108993 -62.81 0.0003429618    1.626    0.385
        90  -8.6712    226.2998    134.0530   9.1916085530e+01   1.1162958651e+01    0.1935777    0.1598818  -3.85 0.0008882103    1.085    0.079
        91  -8.8331    113.4930    134.5448   1.1541496117e+02   3.2813067439e+01    0.1300569    0.1263632  60.22 0.0001542151    1.041    0.039
        92 -10.1387    235.9411    130.1213   8.9408797967e+01   9.8187828532e+00    0.2904332    0.1943148  52.74  0.001412767    1.764    0.433
        93  -8.9775    231.1675    129.8107   9.0131996202e+01   1.0781144206e+01    0.1997379     0.162984  17.26 0.0004942167    1.082    0.076
        94  -8.5337    186.6227    128.7496   9.8056587424e+01   1.9913451424e+01    0.1935335    0.1311595 -41.45 0.0009489253    1.604    0.377
        95  -9.4620    200.8840    125.8356   9.4613819606e+01   1.7431831389e+01    0.3860048    0.1937798 -29.26  0.001660399    2.039    0.510
        96  -8.5588    240.1257    123.1856   8.7140924314e+01   9.9023186562e+00    0.1737335    0.1603972 -30.57   0.00106508    1.340    0.254
        97  -9.3206    212.9220    123.2665   9.1788889454e+01   1.5333574218e+01     0.240726    0.1432629  23.00  0.001075346    1.920    0.479
        98  -8.0146    220.3040    121.6437   9.0097424644e+01   1.4054079123e+01    0.1339721    0.1107095 -57.98 0.0007039802    1.716    0.417
        99  -8.8310    171.6125    121.1928   9.9373998488e+01   2.4279215943e+01    0.2036507    0.1343606 -23.74 0.0008130259    1.686    0.407
       100  -9.5955    232.0562    121.0347   8.7955556263e+01   1.1768229290e+01    0.2138427    0.1810736   3.49 0.0004807173    1.008    0.008
       101  -9.5871    192.3821    118.4081   9.4481820373e+01   2.0364492053e+01     0.267669    0.2512934 -78.20 0.0008346566    1.370    0.270
       102  -8.9221    158.6542    119.3156   1.0173114405e+02   2.7292485267e+01    0.1438744    0.1169143  88.94 0.0007047936    1.719    0.418
       103  -8.2757    226.7251    117.2896   8.7959687417e+01   1.3347300090e+01    0.1256261    0.1093607 -51.76 0.0002454235    1.516    0.340
       104  -8.3830    165.7374    119.3108   1.0018192877e+02   2.5830212061e+01    0.1353102    0.1158249 -76.78 0.0003393887    1.534    0.348
       105  -9.6856    109.7464    114.2950   1.1227477103e+02   3.7615079626e+01    0.3201018    0.1773312 -57.22  0.001443467    1.890    0.471
       106  -8.8989    153.4106    114.2656   1.0169847758e+02   2.9296575203e+01     0.204789    0.1366284 -50.87 0.0009492607    1.673    0.402
       107  -9.1108    241.4660    112.4798   8.4409975010e+01   1.1012929836e+01    0.2072452    0.1382113  62.42   0.00065519    2.071    0.517
       108  -9.4689     25.9143    111.1079   1.3411814338e+02   4.8894705489e+01    0.1793164    0.1211847 -46.61  0.001121403    1.676    0.403
       109  -8.3521    201.6976    110.3116   9.0701159954e+01   1.9630292554e+01    0.1375168    0.1168389 -65.76 0.0007017998    1.610    0.379
       110  -9.4730    236.7845    107.5378   8.3953008570e+01   1.2600549153e+01    0.2781306    0.1666105  27.82 0.0008885151    1.772    0.436
       111  -8.7085    197.2869    106.9918   9.0694811830e+01   2.1104698838e+01    0.2068698    0.1764342 -10.71 0.0006812968    1.115    0.103
       112  -8.5717    205.5763    105.7578   8.8831093460e+01   1.9478182517e+01    0.2070542    0.1307347 -38.47 0.0007540656    1.643    0.391
       113  -9.0444    209.4641    114.1600   9.0223676894e+01   1.7386506874e+01    0.2053912    0.1995957 -38.36 0.0004880921    1.255    0.203
       114  -9.2000    214.0538    104.8063   8.7067558599e+01   1.7773369787e+01    0.2411522    0.1916419 -15.72 0.0004364483    1.181    0.153
       115 -10.0308    246.9312    102.7300   8.1219168624e+01   1.1162607697e+01    0.3006146     0.251397 -28.85 0.0006031452    1.242    0.195
       116  -9.5957    228.6747    104.1933   8.4432705444e+01   1.4732473869e+01    0.2390792    0.1934697  44.50 0.0005424475    1.308    0.236
       117  -8.3145    196.2791    102.3035   8.9678072348e+01   2.2060264752e+01    0.1501877    0.1084382  11.55 0.0003171036    1.548    0.354
       118  -9.9150    206.4367     98.6647   8.6841461522e+01   2.0353333994e+01    0.5515376     0.301073  42.84  0.002398766    1.810    0.447
       119  -8.1091    188.7005    100.7286   9.0734449765e+01   2.4003925099e+01    0.1500736    0.1093297  15.98 0.0003541319    1.528    0.345
       120  -8.1772    225.3271     99.7104   8.3852151509e+01   1.6060463138e+01    0.1351168    0.1128691 -60.18 0.0003372926    1.616    0.381
       121  -9.8196    234.1614     95.4645   8.1356259241e+01   1.4745985126e+01    0.3968466    0.2086829 -37.33  0.001761092    1.907    0.475
       122  -8.9433    171.7332     95.7839   9.2884847476e+01   2.8649473890e+01    0.3047264    0.1686818 -52.94  0.001159681    2.485    0.598
       123  -9.3613    150.8922     92.5232   9.6640609719e+01   3.3873571837e+01    0.2246306    0.2032035 -28.35 0.0009075817    1.087    0.080
       124  -8.3032    157.3367     91.2709   9.4805449682e+01   3.2678454183e+01    0.1545561    0.1145854  15.58  0.000471661    1.599    0.375
       125  -9.4582    245.0305     87.8710   7.7801155785e+01   1.3433830695e+01    0.3193001    0.1604736 -21.65  0.001198234    1.849    0.459
       126  -8.8326    250.5064     88.0555   7.7073254801e+01   1.2272918279e+01    0.2082755    0.1221216 -22.78 0.0003464167    1.515    0.340
       127  -9.0419    227.4341     88.2368   8.0545498178e+01   1.7174023035e+01    0.2078572    0.1235993 -35.51 0.0009509407    1.638    0.389
       128  -9.1973    236.0391     86.6619   7.8810290589e+01   1.5504793229e+01    0.1938208    0.1734253   8.61 0.0004902593    1.060    0.057
       129  -9.2561    171.8717     83.9701   8.9539159598e+01   3.0629780219e+01    0.2898122    0.2141932 -89.35  0.001247991    2.148    0.534
       130  -9.1594    245.0609     80.8715   7.6009602063e+01   1.4309824479e+01    0.2117309     0.178512 -44.00 0.0006046948    1.338    0.253
       131  -8.4470    175.6171     79.2883   8.7394879607e+01   3.0525476937e+01    0.1537101    0.1225208 -75.77 0.0007014064    1.744    0.426
       132  -8.8519    167.6079     78.2237   8.8757845786e+01   3.2597349694e+01     0.217783    0.1440291 -20.43 0.0009464814    1.614    0.380
       133  -9.3073    249.7087     76.7381   7.4314269738e+01   1.3835864245e+01    0.2493734    0.2334197 -10.66   0.00152496    1.118    0.106
       134  -9.5415    240.6896     76.4830   7.5482695861e+01   1.5805476976e+01    0.3505268    0.2339578  41.89  0.001771705    1.549    0.354
       135  -9.1162    189.4626     75.7603   8.3636255929e+01   2.7776771627e+01    0.3073274    0.1332603 -36.17   0.00113351    2.215    0.548
       136  -9.5104    139.9163     75.2731   9.4241563425e+01   3.9490876412e+01    0.4013548    0.1849485 -52.06  0.001343912    3.021    0.669
       137  -8.3554    207.6365     74.2129   7.9950845206e+01   2.3662347513e+01    0.2105421     0.135354 -14.43 0.0005343847    1.617    0.381
       138  -8.4486    107.6710     72.2710   1.0196000852e+02   4.6759504864e+01    0.1398862    0.1165543 -89.59 0.0003773882    1.584    0.369
       139 -10.3018    230.0526     71.3783   7.5644547199e+01   1.8830828773e+01    0.1966316    0.1840795  28.52 0.0005756383    1.123    0.109
       140  -9.5830    239.4174     68.2634   7.3487424066e+01   1.7119708725e+01    0.2566805    0.2127064 -24.56 0.0005827093    1.109    0.098
       141  -8.5482    219.9611     68.9911   7.6497134944e+01   2.1476229997e+01    0.1738048    0.1603692  30.19 0.0003615936    1.109    0.098
       142  -8.6163    187.9740     69.4703   8.2053888314e+01   2.9094084661e+01    0.1952869    0.1380508 -85.47 0.0004460364    2.259    0.557
       143  -8.5976    176.5450     67.4823   8.3649585293e+01   3.2192002962e+01    0.1551616    0.1442099   2.39 0.0001051921    1.016    0.016
       144  -9.5156     44.3290     67.5847   1.2116366139e+02   5.7072990229e+01    0.2188346    0.1196296  34.84  0.001134202    2.118    0.528
       145  -9.7399    245.4111     65.7558   7.2028028841e+01   1.6104197461e+01    0.2641965    0.2062076 -34.52 0.0007657612    1.235    0.190
       146  -8.9932    121.6687     65.3330   9.5816326796e+01   4.5305015674e+01     0.150951    0.1201577 -75.02 0.0004532088    1.726    0.421
       147  -9.0606    234.7605     66.5879   7.3677347249e+01   1.8375849316e+01    0.1772263    0.1432013  74.60  0.000379618    1.530    0.346
       148  -8.7228    220.7286     64.3434   7.5077749293e+01   2.1912189276e+01     0.149021    0.1064911 -50.40 0.0002814575    1.614    0.380
       149  -9.1777    214.5016     61.9587   7.5342512605e+01   2.3710666543e+01     0.226416    0.1377289 -26.32 0.0005200136    1.536    0.349
       150  -8.5000    202.2837     61.6664   7.7205312398e+01   2.6718340928e+01    0.1526839     0.112674 -54.38 0.0003061804    1.618    0.382
       151  -9.4641    232.2307     58.6922   7.1869568471e+01   1.9943454420e+01    0.2289327    0.1136603 -12.31 0.0006967861    2.321    0.569
       152  -8.9331    174.0923     59.3018   8.1567519731e+01   3.4055322865e+01    0.2116168    0.1967981  51.50 0.0007750633    1.134    0.119
       153  -8.7971    147.4728     57.0165   8.6506103483e+01   4.0939718609e+01    0.2402735    0.1477868 -30.48  0.001004191    1.582    0.368
       154  -9.8905    191.0768     53.2505   7.6533658514e+01   3.0669276657e+01    0.3965039    0.2010936  -5.81  0.001335428    2.990    0.666
       155  -8.7339    149.5280     52.4855   8.4485802670e+01   4.1175564030e+01    0.1562292     0.143736   5.68 7.651853e-05    1.041    0.039
       156  -8.0227    244.6710     51.6797   6.8384856904e+01   1.7946570774e+01    0.1461274   0.09954192  20.60  0.000419256    1.688    0.408
       157 -10.1835    238.1936     52.3860   6.9367138650e+01   1.9334884799e+01     0.287429    0.1066208 -21.48  0.001031028    2.642    0.622
       158  -8.5858     25.3272     46.6770   1.2315148828e+02   6.3411069867e+01    0.1173593   0.08878905  81.59 0.0007048742    1.691    0.409
       159  -9.0562    220.6947     44.9814   6.9548918633e+01   2.4363547924e+01    0.2084329    0.1820754 -19.82 0.0006120249    1.069    0.064
       160  -8.6274    189.5450     44.5221   7.4038199094e+01   3.2231201448e+01    0.1541606    0.1405469  12.53 0.0001655603    1.071    0.066
       161  -8.8224    132.4590     43.5053   8.5314579043e+01   4.6686097270e+01    0.2731557    0.1276219 -41.02 0.0008621368    2.204    0.546
       162  -9.3221      5.0134     41.3210   1.3032390587e+02   6.5841485451e+01    0.2126507    0.1433797  88.98  0.001339827    1.636    0.389
       163  -9.5728    105.5963     40.7954   9.1599763499e+01   5.3096584956e+01    0.2174127     0.128345 -42.94 0.0009583852    1.719    0.418
       164 -10.7035    248.8346     37.8492   6.4232443262e+01   1.8568466964e+01    0.3701787    0.2853542  -6.55  0.000694849    1.285    0.222
       165  -9.1034    173.5821     40.2486   7.5392695402e+01   3.6899968618e+01    0.2157854    0.1447887  -8.78 0.0009444206    1.621    0.383
       166  -9.8130     94.7392     39.1355   9.4302430136e+01   5.5556338172e+01    0.3725229    0.1780587  30.97  0.001403608    2.802    0.643
       167 -10.2754    242.6662     37.6730   6.4845097163e+01   1.9992060895e+01    0.2315042    0.1946302  11.38 0.0005081872    1.240    0.193
       168  -9.8288    229.4787     37.2012   6.6215521028e+01   2.3145752368e+01    0.2616787    0.2454863  30.53 0.0006249567    1.106    0.096
       169  -9.7052    218.4674     34.1546   6.6679459820e+01   2.6176221997e+01     0.309144     0.205071 -36.77 0.0007516356    1.441    0.306
       170  -9.0626    111.4271     35.1808   8.7665308700e+01   5.2780256630e+01    0.2135656    0.1290611 -41.21 0.0009461431    1.698    0.411
       171  -8.9599    104.4635     34.5024   8.9414235712e+01   5.4378514774e+01    0.1465246    0.1330114 -12.26 2.633917e-05    1.031    0.030
       172  -9.1631    243.4809     33.4807   6.3625242945e+01   2.0260780878e+01    0.1373864    0.1249766 -21.77 0.0001365708    1.006    0.006
       173  -9.7047    163.7516     31.2291   7.4058518314e+01   4.0613095841e+01    0.5548396    0.1907026 -40.55  0.001721995    3.130    0.680
       174  -8.5599    138.6334     32.2285   7.9573625413e+01   4.6864624511e+01    0.2130287    0.1397438 -13.15 0.0009394053    1.609    0.379
       175  -8.6056    194.3061     29.6704   6.8544256268e+01   3.2829062245e+01    0.1559059    0.1084592 -55.27 0.0004353173    1.657    0.396
       176  -8.4728    170.3918     29.1609   7.2143941184e+01   3.9137459396e+01     0.226359    0.1295141 -35.15 0.0009516697    1.728    0.421
       177  -9.9738    220.4057     23.7370   6.3395545257e+01   2.6830212417e+01    0.2490126    0.1736889  87.76 0.0007145734    1.679    0.404
       178  -9.2931    249.4136     22.7499   6.0182490018e+01   2.0019238780e+01    0.2599476    0.2165204  29.73  0.001529833    1.323    0.244
       179 -10.4033    233.7702    247.1491   1.1052158287e+02  -2.3577359556e+00    0.2709642    0.2020689   6.81  0.001435544    1.273    0.214
       180  -8.9139    191.2444     21.9934   6.6493844681e+01   3.4480694321e+01    0.1921014    0.1223691 -21.11 0.0004530003    1.543    0.352
       181  -9.6901    206.4312     20.4647   6.4045653805e+01   3.0701710418e+01    0.2508883    0.2326909 -14.01  0.000544925    1.051    0.049
       182  -9.2469     63.6674    249.6710   1.3745904978e+02   1.9780598731e+01   0.07828093   0.07038847  23.72 0.0007051848    1.719    0.418
       183  -9.4943     90.1480     18.8111   8.6995031192e+01   5.9725528542e+01    0.1982325    0.1512876   6.91 0.0004371187    1.306    0.234
       184  -9.7707    227.2417     17.9142   6.0986534712e+01   2.5738280347e+01    0.1930397    0.1722149 -14.24 0.0005056444    1.093    0.085
       185  -8.5737    174.6785     17.3239   6.7312599674e+01   3.9344054244e+01    0.1558979    0.1092373 -57.00 0.0007046539    1.679    0.405
       186  -9.3143    106.7921     15.7980   8.0638268422e+01   5.6586928119e+01    0.2597948    0.1329978  21.57 0.0009515273    2.809    0.644
       187  -8.4339    113.4978     15.4959   7.8721840210e+01   5.5091830666e+01     0.149461    0.1291227  13.29 0.0003249085    1.061    0.058
       188  -8.7333    212.7993     13.5520   6.1218615247e+01   2.9767558397e+01    0.1955016    0.1336754 -85.35 0.0009374905    1.698    0.411
       189  -9.2166    131.4881     13.5281   7.3643583643e+01   5.0975797464e+01     0.151202     0.133016  21.17 0.0002478225    1.054    0.052
       190 -10.1294    224.7483    245.6224   1.1168887779e+02  -1.0049436433e+00    0.2661635    0.1904163 -48.95   0.00188304    2.760    0.638
       191  -8.6754    218.4691     10.5691   5.9748683636e+01   2.8620898113e+01    0.1357016    0.1320537 -35.23 0.0001134646    1.008    0.008
       192  -9.5153     32.5159    248.5008   1.4204605869e+02   2.3166319865e+01   0.09183619   0.06046848  60.45 0.0002065267    1.015    0.015
       193  -8.7940    210.6779    246.6619   1.1398852605e+02   8.4352045751e-01    0.1601399    0.1288111 -63.55  0.001170942    2.616    0.618
       194  -8.5707    191.0000    246.9764   1.1710424409e+02   3.5620709521e+00     0.131352   0.06002637 -37.76 0.0007238993    2.945    0.660
       195 -10.7011      4.2748    244.5990   1.4597072952e+02   2.6283897142e+01    0.2140588    0.1068271  49.68   0.00180409    1.393    0.282
       196  -9.3387    146.4083    242.7305   1.2379063462e+02   1.0282666545e+01    0.1543749    0.1037817 -59.52 0.0009914536    2.110    0.526
