#   1 NUMBER                 Running object number                                     
#   2 MAG_AUTO               Kron-like elliptical aperture magnitude                    [mag]
#   3 X_IMAGE                Object position along x                                    [pixel]
#   4 Y_IMAGE                Object position along y                                    [pixel]
#   5 X_WORLD                Barycenter position along world x axis                     [deg]
#   6 Y_WORLD                Barycenter position along world y axis                     [deg]
#   7 A_WORLD                Profile RMS along major axis (world units)                 [deg]
#   8 B_WORLD                Profile RMS along minor axis (world units)                 [deg]
#   9 THETA_WORLD            Position angle (CCW/world-x)                               [deg]
#  10 FWHM_WORLD             FWHM assuming a gaussian core                              [deg]
#  11 ELONGATION             A_IMAGE/B_IMAGE                                           
#  12 ELLIPTICITY            1 - B_IMAGE/A_IMAGE                                       
         1 -12.1238    210.2288     34.1822   4.1473393724e+01   2.9184438113e+01     1.554997    0.7822028 -28.91  0.007271741    2.091    0.522
         2  -9.6946    134.3966     40.8217   5.5741631218e+01   4.6597367522e+01    0.4094206    0.2733037 -52.35  0.001166069    1.829    0.453
         3 -11.7081    229.5695     16.5912   3.5414629440e+01   2.6918485967e+01    0.7131202    0.5513757 -66.83  0.002760858    1.120    0.107
         4  -8.6375     33.0000      4.0756   7.3621993823e+01   7.0700316910e+01    0.3053617   0.05835597 -33.71  0.001051001    4.931    0.797
         5  -7.8074    124.2318      4.6315   4.5213952953e+01   5.2889921980e+01    0.1840894    0.1016678  54.90 0.0006152517    1.514    0.340
         6 -11.1977    217.9858     27.6838   3.9050418643e+01   2.8207112673e+01    0.5775728    0.4234439  33.87  0.002129899    1.871    0.465
         7 -11.6507     97.4616    244.3364   1.1013399799e+02   1.1394517097e+01    0.9680854    0.3460339  28.08  0.003512452    4.167    0.760
         8 -11.5739    125.9026    229.8226   1.0265053722e+02   9.8590663327e+00    0.4614656    0.3823188 -84.79  0.002878998    1.459    0.314
         9 -11.1195    134.8294    234.5557   1.0142517615e+02   7.6431333541e+00     1.700964    0.1783979 -51.19  0.004278401    9.116    0.890
        10 -11.9019     84.8579    227.9383   1.1097329800e+02   1.6212475046e+01     1.538749     0.896042 -78.47  0.008264931    2.006    0.502
        11 -11.3086     71.4909    248.3575   1.1552078018e+02   1.4134024798e+01    0.7057077    0.5777394  46.93  0.005087123    1.151    0.131
        12 -11.3222     84.3942    246.9751   1.1293894866e+02   1.2702399118e+01    0.6666286    0.3631719  35.96  0.002616732    1.653    0.395
        13 -10.3434     27.6391    230.3885   1.2243443515e+02   2.2619287608e+01    0.3730132    0.1530052  49.71  0.001654783    1.979    0.495
        14  -9.4255     27.1474    249.6380   1.2363492694e+02   1.9041936421e+01    0.2599463    0.1618999  43.10  0.001642651    1.431    0.301
        15 -10.7916     31.3210    247.5875   1.2279412508e+02   1.8975537748e+01    0.5493842    0.2967378  46.12  0.002572812    1.503    0.335
        16  -9.7269     40.2473    234.4114   1.2034436857e+02   2.0485375074e+01    0.2685051    0.1614706  70.98 0.0002801404    1.482    0.325
        17  -9.7018     37.9929    230.9893   1.2053392511e+02   2.1400414543e+01    0.2408386    0.1645095  79.77 0.0004015309    1.271    0.213
        18 -11.8174     18.5728    218.7656   1.2342647723e+02   2.5840761982e+01    0.6076527    0.4585379  88.46  0.001925021    1.137    0.120
        19 -14.2245      6.2378    141.2441   1.2031207789e+02   4.4209559854e+01     10.70223      1.91074 -78.24   0.02723863    7.145    0.860
        20 -11.1320     30.9822    218.7580   1.2103656132e+02   2.4601013124e+01    0.5841683    0.2700326  82.39  0.002430824    2.300    0.565
        21 -10.4410    120.4620    223.8454   1.0300829599e+02   1.1806649005e+01    0.3500774    0.2669609  -2.22  0.001951416    1.804    0.446
        22 -10.2919    165.7826    222.0902   9.3176340168e+01   4.9238944990e+00    0.3998049    0.1925255  24.72  0.001688527    2.445    0.591
        23  -9.7237     44.1376    217.9469   1.1836595499e+02   2.3341911850e+01    0.3264245    0.1608812 -81.59  0.001709747    2.027    0.507
        24 -11.2526     60.0804    247.9675   1.1762389071e+02   1.5624331747e+01    0.5387517    0.3420498  46.60  0.002174492    1.294    0.227
        25 -10.0206     50.6288    250.3139   1.1952425571e+02   1.6324171814e+01     0.607553    0.1665632  31.75  0.002417266    4.163    0.760
        26  -7.9972     44.5019    230.5555   1.1926208625e+02   2.0760010121e+01    0.1170133   0.09134347  66.80  0.000110986    1.023    0.023
        27 -10.2816     33.0000    226.4730   1.2117458204e+02   2.2831225563e+01    0.3730722    0.1310347 -76.56  0.001776402    2.765    0.638
        28 -10.0662     59.0817    179.6669   1.1127100515e+02   3.0036058732e+01    0.4282821    0.2519996 -41.19  0.001374549    2.227    0.551
        29 -10.0110     64.6208    173.9164   1.0918618119e+02   3.0697930551e+01    0.2978491    0.2364956 -41.78 0.0007768052    1.464    0.317
        30 -13.3383      4.2636    240.8176   1.2711112738e+02   2.2899512802e+01      1.91706     1.168559 -88.54   0.01387944    1.395    0.283
        31 -12.8630      8.5186    207.6567   1.2469965180e+02   2.9048441848e+01    0.9787714    0.9320422  41.58  0.004805097    1.424    0.298
        32 -10.7309     28.0966    165.8337   1.1723867805e+02   3.6634742154e+01    0.4021549     0.262155  52.28  0.002331954    1.541    0.351
        33  -9.9882     74.7623    164.2275   1.0522257404e+02   3.1673571148e+01     0.310849    0.2680493 -55.27 0.0004298882    1.166    0.143
        34 -11.2332     81.9391    158.1123   1.0234828280e+02   3.2138571318e+01     0.731176    0.6495525   2.89  0.002595253    1.337    0.252
        35 -11.6098     73.2808    154.2992   1.0403574857e+02   3.4290974562e+01     1.121852    0.5923385  71.18  0.003979282    3.468    0.712
        36 -10.4405     70.4827    145.4981   1.0331895976e+02   3.6835932352e+01    0.3985585    0.3663966 -20.69  0.001452089    1.236    0.191
        37 -10.8479     67.5138    142.5182   1.0363720279e+02   3.7967372267e+01     0.444737    0.4103581  73.46  0.001379582    1.116    0.104
        38 -11.6441     61.7384    160.3653   1.0804584627e+02   3.4317695685e+01    0.5308151     0.297539 -44.93  0.001477671    1.996    0.499
        39  -9.7642     32.9247    154.2628   1.1476937075e+02   3.8955917265e+01    0.3755566    0.1347486 -67.09  0.001584413    2.293    0.564
        40  -7.6110    125.3966    154.4066   9.0189109677e+01   2.5809051550e+01    0.1463315     0.144024  89.74 5.167166e-05    1.048    0.046
        41  -9.9972    134.4982    148.5100   8.6594076091e+01   2.5445947559e+01    0.7606055     0.150328 -48.89  0.001862139    5.044    0.802
        42  -9.2641     96.5808    143.3288   9.5611944876e+01   3.3474194715e+01    0.2856748    0.2383371 -21.10 0.0009840728    1.383    0.277
        43  -8.4184    100.2954    139.8383   9.3854556554e+01   3.3702842357e+01    0.3623755    0.2229732 -25.57  0.001087268    2.397    0.583
        44 -10.3578     84.9108    141.9401   9.8605162056e+01   3.5651240687e+01    0.3360811    0.2628871 -43.79 0.0004303829    1.282    0.220
        45 -10.4027     74.9516    136.1910   1.0034554502e+02   3.8522491415e+01    0.4810096    0.3415714  84.62  0.001331738    1.796    0.443
        46 -10.8056     58.7670    136.2350   1.0505629022e+02   4.0629656631e+01    0.5576365    0.2480738 -70.46  0.002176577    2.438    0.590
        47 -12.2008      3.9917    180.5590   1.2395785830e+02   3.5271016622e+01      2.02642    0.5176908 -81.59  0.007445754    3.700    0.730
        48  -8.9264     96.1252    127.7207   9.2392164211e+01   3.7332209825e+01    0.2953885    0.2240638 -31.64 0.0008835615    1.426    0.299
        49  -8.9898    107.7965    131.4131   8.9891951769e+01   3.4422722452e+01    0.4995458    0.2655693  39.11  0.001439016    1.937    0.484
        50  -7.6866    106.0402    120.0519   8.7690330974e+01   3.7430588271e+01    0.1777424    0.1708107 -30.49 0.0009504748    1.014    0.013
        51  -8.6584     53.5042    119.4914   1.0359187654e+02   4.5399060983e+01    0.1405987    0.1238082 -57.83 0.0008106185    1.004    0.004
        52 -10.7756    134.5956    109.7879   7.7057282381e+01   3.4115076824e+01     1.080246    0.1519649 -44.90  0.002168331    7.056    0.858
        53 -11.7196     30.9631    207.0472   1.2019282428e+02   2.7049178621e+01    0.6344804    0.3986308 -46.10  0.003660913    2.189    0.543
        54 -13.3551     40.1069    196.2307   1.1736826543e+02   2.8439398063e+01     2.491023     1.046365  65.08   0.01051334    2.974    0.664
        55  -8.4585    134.3102     74.3235   6.6737745771e+01   4.1305079797e+01    0.1572929    0.1179058   9.78 0.0007037889    1.652    0.395
        56 -10.0739    134.6551     56.9491   6.1065326685e+01   4.4179899827e+01    0.5306172    0.1340478 -34.56  0.001554133    3.951    0.747
        57  -9.9934     13.2224     60.6409   1.0531993315e+02   6.2655552509e+01    0.2825925    0.1463853 -50.08 0.0007758857    1.457    0.314
        58  -8.0374     40.0114     58.3068   9.3267037759e+01   6.0924868507e+01    0.1751849    0.1534583  -4.08  0.001115681    1.163    0.140
        59 -10.9236    202.5194     39.9843   4.3876682042e+01   3.0240056549e+01    0.4750627    0.3064546  49.10  0.001664362    1.693    0.409
        60 -11.7465     33.5198    236.5414   1.2173386407e+02   2.0809128024e+01      1.47414    0.5187775  81.85  0.005604208    4.697    0.787
        61 -11.7756    114.9871    240.1237   1.0617213216e+02   9.6398014352e+00    0.6241975     0.268524  37.76   0.00299149    1.961    0.490
        62  -7.8526     32.6921     28.3139   8.5455904125e+01   6.7269176987e+01    0.1025711    0.1002761 -57.46 0.0002807069    1.626    0.385
        63 -11.1559    101.8757    230.1793   1.0770108546e+02   1.3380064598e+01    0.4226716    0.3381553 -46.19  0.002664626    1.506    0.336
        64  -9.5556     60.4673    234.3047   1.1646574634e+02   1.8141762465e+01    0.3547188    0.2036726  70.86  0.001385827    1.778    0.438
        65 -11.7179    112.3072    230.1776   1.0553287236e+02   1.1848611571e+01    0.6531384    0.3705196  33.30  0.003417672    1.648    0.393
