#   1 NUMBER                 Running object number                                     
#   2 MAG_AUTO               Kron-like elliptical aperture magnitude                    [mag]
#   3 X_IMAGE                Object position along x                                    [pixel]
#   4 Y_IMAGE                Object position along y                                    [pixel]
#   5 X_WORLD                Barycenter position along world x axis                     [deg]
#   6 Y_WORLD                Barycenter position along world y axis                     [deg]
#   7 A_WORLD                Profile RMS along major axis (world units)                 [deg]
#   8 B_WORLD                Profile RMS along minor axis (world units)                 [deg]
#   9 THETA_WORLD            Position angle (CCW/world-x)                               [deg]
#  10 FWHM_WORLD             FWHM assuming a gaussian core                              [deg]
#  11 ELONGATION             A_IMAGE/B_IMAGE                                           
#  12 ELLIPTICITY            1 - B_IMAGE/A_IMAGE                                       
         1 -13.1470     25.8442     81.5047   1.0060381516e+02   5.7789972156e+01     1.965466     0.594157 -54.59  0.007897062    2.523    0.604
         2 -12.5411      2.7283     27.7761   9.5933325249e+01   7.0341722898e+01      1.81934    0.1442574 -54.47  0.005333251    7.008    0.857
         3 -13.8416      9.8772     65.7319   1.0346136927e+02   6.2459073654e+01     1.831508    0.9283556 -61.43  0.009738867    1.709    0.415
         4 -14.2310      6.9382     92.2955   1.0989405668e+02   5.6673497129e+01     1.878927    0.8994235 -67.53  0.008542067    1.734    0.423
         5 -14.6609      5.3567    120.5779   1.1445908614e+02   5.0008255962e+01     4.573792    0.5709434 -71.21   0.01250183    5.676    0.824
         6 -12.9129     70.8742     30.0557   6.5686504688e+01   6.1328874415e+01     0.938401    0.8030958  38.65  0.004739115    1.167    0.143
         7 -13.0455    231.3004     29.1050   3.5902306204e+01   2.5237446344e+01    0.7525727    0.6330926  45.50  0.004947201    1.681    0.405
         8 -12.2202     48.6377     19.6096   6.9752350351e+01   6.6479082465e+01    0.7966112    0.5217667 -13.63  0.004718794    1.559    0.359
         9 -12.0854     31.6713     21.6511   7.8332596357e+01   6.8583868781e+01     0.639264    0.4221985  -1.20  0.003911524    1.510    0.338
        10 -12.7768     20.8383     20.1018   8.3101794820e+01   7.0062090890e+01     1.058894    0.5695031 -10.89  0.005594871    2.251    0.556
        11 -11.6651     19.5864     12.9643   8.0507767333e+01   7.1238189152e+01    0.4784268    0.3983323  -6.21  0.003577835    1.146    0.128
        12 -13.0768    188.2907     15.3543   3.6965215832e+01   3.6429147197e+01     0.911584    0.7887685 -41.09  0.005992378    1.311    0.237
        13 -12.8174    199.7908      9.3783   3.4412683327e+01   3.4438335500e+01    0.7539434    0.3176964 -81.22  0.003082036    3.079    0.675
        14 -11.9440     95.9173     12.9682   5.1411387555e+01   5.8261279286e+01    0.7769259    0.4049383  28.38  0.003593951    2.411    0.585
        15 -12.3450     88.2269      9.4290   5.1993737097e+01   6.0240472501e+01    0.8498106    0.4887597  34.18  0.004483193    1.727    0.421
        16 -11.7639     37.8195     10.0695   7.0028089008e+01   6.9292252614e+01    0.4793772    0.3380073  28.44  0.003145535    1.266    0.210
        17 -12.1891    119.8989      7.6073   4.4336611689e+01   5.3369000005e+01    0.4882786    0.4154439  55.77  0.003159508    1.046    0.044
        18 -11.5882    113.2502      6.5587   4.5238504505e+01   5.4989461728e+01    0.2998969    0.2304744  66.68  0.001667069    1.167    0.143
        19 -13.1555    173.7119      5.2966   3.6019647040e+01   4.0874301332e+01     1.045947    0.4778596  74.88  0.005058285    1.922    0.480
        20 -12.4329    155.7933      2.8882   3.7451478881e+01   4.5328392520e+01     1.008329    0.2447261  68.95  0.003636566    3.340    0.701
        21 -11.7164    130.7907      2.4944   4.0815231038e+01   5.1270214379e+01    0.4820955    0.2631634  58.33  0.002561789    1.530    0.346
        22 -11.7794    103.7085      3.0053   4.5895211028e+01   5.7441718296e+01    0.5046692    0.2507301  50.25   0.00259638    1.676    0.403
        23 -11.3375     44.4684    181.1117   1.1071268327e+02   3.1420298271e+01    0.2764002    0.2460086 -47.55 0.0005314286    1.350    0.260
        24 -10.2641    185.0059    250.4804   8.8662779644e+01  -3.9184743731e+00    0.2890778    0.1036639  30.49  0.001220117    2.683    0.627
        25 -11.4545     52.2159    174.5411   1.0797372638e+02   3.2089271490e+01    0.2522789    0.2479725 -54.79 0.0004571576    1.226    0.184
        26 -10.5599     64.8250    164.3685   1.0325016103e+02   3.2968308008e+01    0.2488765    0.2200899 -73.61 0.0003411922    1.074    0.069
        27 -10.4938    134.8997    162.8297   8.4562336773e+01   2.1510218369e+01    0.2592603    0.2318161 -73.20 0.0003630747    1.172    0.147
        28 -12.8591     50.3745    160.6638   1.0663955598e+02   3.5781038616e+01    0.5327904    0.3079167 -39.77  0.001761638    2.254    0.556
        29 -11.6180     73.7163    157.3849   9.9716387162e+01   3.3456867943e+01    0.5139009     0.434686 -30.79  0.002752744    1.418    0.295
        30 -10.6071    144.2053    150.7789   7.9753205978e+01   2.2445742440e+01    0.3474469    0.2548157 -38.13  0.001478452    1.434    0.303
        31 -12.4562     67.8602    143.5077   9.8990652792e+01   3.7817480694e+01    0.7513027    0.4438714  61.28  0.002979689    2.113    0.527
        32  -9.7501    133.4285    143.7070   8.0875578344e+01   2.6241505800e+01    0.3093798    0.1509966 -54.53  0.001143166    2.151    0.535
        33  -9.6258     89.9646    144.0747   9.2715901902e+01   3.4246624682e+01    0.2329573     0.223165 -68.92 0.0007847229    1.038    0.036
        34 -11.8041     77.3004    142.0165   9.5961341598e+01   3.6796945735e+01     0.348567    0.3101368  78.33 0.0007035998    1.135    0.119
        35 -13.0408     60.5862    134.6004   9.9545809407e+01   4.1080282275e+01    0.8812845    0.7297819 -44.74  0.004816713    1.241    0.194
        36 -12.2446     68.6821    105.5304   9.0821344464e+01   4.7120948370e+01    0.9277764    0.5461291 -66.56  0.004035434    1.926    0.481
        37 -12.3278     61.8216    102.5428   9.2413256886e+01   4.8822469301e+01    0.6838198    0.4009536 -54.41  0.003180277    1.568    0.362
        38 -12.9994     64.6406    124.8250   9.6409562133e+01   4.2984060670e+01     1.200303    0.6768225  31.96  0.005371696    1.914    0.478
        39 -13.4115     63.0448    115.1431   9.4884902668e+01   4.5606701777e+01     1.012876    0.8277766 -53.31  0.004059964    1.131    0.116
        40 -10.3303    105.3011    131.6267   8.5703194532e+01   3.4602986642e+01    0.3694309    0.2952616  -8.75  0.001465661    1.647    0.393
        41 -10.1446     90.7259    128.3465   8.9188259514e+01   3.8022080293e+01    0.2604865      0.24269 -36.26  0.000427946    1.122    0.109
        42 -10.0452    103.0846    120.0208   8.3618992063e+01   3.7808307706e+01    0.2257677    0.2226567 -70.92 0.0003812318    1.019    0.019
        43 -12.6511     50.8709    111.4727   9.8124067414e+01   4.8099499314e+01    0.9361944    0.4071524 -63.61  0.003747693    2.230    0.552
        44 -12.6068     50.6682     97.6898   9.5137107759e+01   5.1439347487e+01    0.5760565    0.4968031  82.63  0.002682328    1.360    0.265
        45 -11.9133     40.9971     92.1962   9.7338748008e+01   5.3852442602e+01    0.6057866    0.4133287 -47.19  0.003263414    1.301    0.231
        46 -10.7795     52.9307     90.2252   9.2496044567e+01   5.2887321078e+01    0.2518452    0.1973079 -85.18  0.001332242    1.616    0.381
        47 -10.7892     79.2537     85.1402   8.1837865860e+01   5.0069169128e+01    0.4318188    0.2619886  48.31  0.001954137    1.852    0.460
        48 -12.2138     57.8058     78.3598   8.7479713833e+01   5.4865970608e+01    0.7135025    0.3611517 -56.99  0.003108671    2.090    0.521
        49 -11.0063     39.4823     75.4907   9.3719476744e+01   5.7781120704e+01    0.4485403    0.2765199  26.16  0.002357986    1.750    0.429
        50 -11.7996     61.5808     69.9958   8.3556482646e+01   5.6066610555e+01    0.7513051    0.4065232 -54.96  0.003399756    2.024    0.506
        51 -12.0969    104.0768     43.0898   6.0312907621e+01   5.2838597189e+01    0.4497422    0.3628258 -10.62  0.002514551    1.384    0.278
        52 -11.3788    125.8933    230.1331   9.7888898447e+01   8.5942930428e+00    0.2145245    0.1692828  57.16  0.001251826    1.265    0.210
        53  -8.7977     12.6896    249.3574   1.2264807059e+02   1.9916249865e+01    0.1245913   0.05799909  63.59 0.0007042823    1.735    0.424
        54 -11.7699     19.3444     33.8716   8.9464969268e+01   6.7968540906e+01    0.6029296    0.3585394  29.60  0.002991284    1.827    0.453
        55 -12.3556    134.4765    246.5622   9.8239771874e+01   4.2373499897e+00    0.5119862    0.2440635  32.95   0.00245423    1.897    0.473
        56 -10.7160     39.8573     22.0720   7.4683477961e+01   6.7442996513e+01    0.2843636    0.2016281 -17.90  0.001397996    1.302    0.232
        57 -13.4335      3.1555    189.7123   1.2119549650e+02   3.3538970955e+01     2.915202    0.7819138 -76.77   0.01173774    3.075    0.675
        58 -12.0224     78.4271    244.5006   1.0957864989e+02   1.2874443865e+01    0.5072968    0.2655866  47.49  0.002033586    1.580    0.367
        59 -14.8049     16.9463    134.6717   1.1269797585e+02   4.5712482253e+01     3.007633     1.079823 -63.74   0.01207143    2.176    0.540
        60 -12.3984     68.4305    240.1452   1.1122370706e+02   1.5102162489e+01     0.741267    0.4545516  60.20  0.002961601    1.467    0.318
        61 -12.3282    147.2264    239.5874   9.4674676434e+01   3.5029177981e+00    0.4784397    0.3038153  13.42  0.002400846    2.054    0.513
        62 -15.0157     75.6112    216.2234   1.0727443729e+02   1.9135819407e+01     2.825248      1.90707  38.47   0.01257002    1.408    0.290
        63 -14.1806     25.2083    183.0795   1.1561159674e+02   3.3056066224e+01     1.877061    0.8349562 -85.14  0.008433743    2.224    0.550
        64 -14.7302     43.3914    205.2390   1.1341621810e+02   2.5841456113e+01     1.924595      1.58666 -26.70  0.008985883    1.793    0.442
        65 -14.1679     18.9956    201.3594   1.1851952534e+02   2.9408247012e+01    0.9117368    0.8605438 -83.37  0.004522373    1.303    0.233
        66 -14.2172     58.5450    214.8418   1.1094251160e+02   2.1772325033e+01     1.456783    0.9230105  63.78  0.005425504    1.476    0.323
        67 -11.0821    135.6385    225.9053   9.5194079330e+01   7.8525117622e+00    0.2465742    0.1751014  28.04  0.001338232    1.378    0.275
        68 -14.2779     36.6459    190.5198   1.1358622102e+02   3.0059846495e+01     1.721668    0.9313998  70.33  0.006514925    1.926    0.481
        69 -12.9982     11.4920    207.9975   1.2057772322e+02   2.8649289554e+01    0.3824121    0.3228098  85.66 0.0009489355    1.152    0.132
