#   1 NUMBER                 Running object number                                     
#   2 MAG_AUTO               Kron-like elliptical aperture magnitude                    [mag]
#   3 X_IMAGE                Object position along x                                    [pixel]
#   4 Y_IMAGE                Object position along y                                    [pixel]
#   5 X_WORLD                Barycenter position along world x axis                     [deg]
#   6 Y_WORLD                Barycenter position along world y axis                     [deg]
#   7 A_WORLD                Profile RMS along major axis (world units)                 [deg]
#   8 B_WORLD                Profile RMS along minor axis (world units)                 [deg]
#   9 THETA_WORLD            Position angle (CCW/world-x)                               [deg]
#  10 FWHM_WORLD             FWHM assuming a gaussian core                              [deg]
#  11 ELONGATION             A_IMAGE/B_IMAGE                                           
#  12 ELLIPTICITY            1 - B_IMAGE/A_IMAGE                                       
         1 -13.7292     55.0041    146.0862   1.1100137845e+02   3.8637788615e+01     5.769532     1.094041 -64.46   0.01693011    4.489    0.777
         2 -14.7885     68.5618    144.2218   1.0708659202e+02   3.7336767778e+01     5.551079     2.249441  59.87  0.003725463    4.969    0.799
         3 -14.4167    198.5578     37.6545   4.7655543359e+01   3.0930818208e+01     1.590556     1.356617  -5.73  0.004475277    1.453    0.312
         4 -14.5636    209.2982     26.2524   4.3325190153e+01   2.9742917703e+01     1.429021     1.108511   5.47  0.003354811    1.833    0.454
         5  -9.8666    120.9123      8.7239   5.1397911403e+01   5.3658041062e+01     0.414373     0.220461 -83.32  0.001430322    4.284    0.767
         6  -9.0711    152.1732      8.8381   4.5862836590e+01   4.5968876736e+01    0.1853588    0.1414093  47.21 0.0003016051    1.270    0.213
         7 -10.5918     60.9844      7.7122   6.7975593904e+01   6.6254976599e+01    0.1759897    0.1390327  21.88 0.0003504739    1.091    0.084
         8 -12.6815    233.6124      2.8838   3.5483423369e+01   2.6692988976e+01    0.7885557    0.3216854  75.96  0.003691972    2.291    0.563
         9 -10.6895     62.4426      1.8176   6.4506594239e+01   6.6619971856e+01    0.2302439   0.08861389  51.95  0.001016713    2.716    0.632
        10  -9.0904    103.4884    213.4894   1.0861704397e+02   1.6465694893e+01    0.1310564    0.1112482  59.72 0.0008104882    1.000    0.000
        11 -11.2096    139.4764    249.4926   1.0580643888e+02   4.4024448113e+00    0.2551855    0.2055605  71.90   0.00147547    1.430    0.301
        12 -11.3947    117.3939    249.1205   1.0993351685e+02   7.8569785988e+00    0.3762929    0.2597681  64.19  0.002368537    1.451    0.311
        13 -13.0004     71.9289    173.7158   1.1059097714e+02   2.9827325952e+01    0.8831819    0.4493861 -35.58  0.003110811    4.360    0.771
        14 -13.9193     47.4372    222.0663   1.2076526001e+02   2.2564228977e+01     1.717506     1.298305  18.97  0.001241196    2.037    0.509
        15 -13.7024     44.8418    203.3324   1.1977573672e+02   2.6716880349e+01    0.6544559    0.5152047 -70.88  0.001848423    1.348    0.258
        16 -14.3968     55.2885    192.0240   1.1652485505e+02   2.7888080816e+01     1.979059     1.524831  82.33   0.01251075    1.110    0.099
        17 -16.7887      8.9548    243.1091   1.2877775942e+02   2.2800835698e+01     9.314457     1.524119 -78.55   0.03554155    5.616    0.822
        18 -10.6052    113.2662    207.5992   1.0578050400e+02   1.6071922449e+01     0.258318    0.2061075  73.39 0.0005771108    1.265    0.210
        19  -9.3862     34.9449    206.1030   1.2198695286e+02   2.7268552405e+01    0.2577646    0.0894028  54.43  0.001177649    2.591    0.614
        20 -12.1145    192.8650    194.4618   8.6769616818e+01   4.4495573126e+00     1.023766    0.5749096 -66.05  0.003259529    5.504    0.818
        21 -10.5985    108.2132    203.5912   1.0633106010e+02   1.7707629571e+01    0.2403757    0.1624928  35.78   0.00127881    1.475    0.322
        22  -9.8093    152.7316    197.8696   9.5770161097e+01   1.1137990595e+01    0.2995491    0.1247202 -51.94  0.001185116    2.760    0.638
        23 -11.1836    208.1936    196.6793   8.4158156600e+01   1.3701074652e+00    0.2882099    0.1780318 -34.47  0.001090174    1.666    0.400
        24  -9.3999    159.7449    196.9525   9.4108586204e+01   1.0036915354e+01    0.1803291    0.1775843  35.75 0.0003434068    1.096    0.087
        25 -10.5154    112.3219    196.7952   1.0447953364e+02   1.8438295688e+01    0.3756592    0.2645416  -7.81  0.001694611    2.728    0.633
        26  -9.7691     82.0931    194.9655   1.1095962390e+02   2.3585100130e+01    0.2368259     0.175587  49.36  0.001331669    1.236    0.191
        27 -10.0756     75.6630    190.3537   1.1183365451e+02   2.5526469308e+01    0.3072563    0.1765097  72.33 0.0009716762    2.003    0.501
        28 -10.3906     71.9870    186.4343   1.1219007292e+02   2.6917483986e+01    0.2329083    0.1736533 -86.22 0.0003770388    1.259    0.206
        29  -9.1127     97.4985    190.4821   1.0691649077e+02   2.2203857303e+01    0.1335872    0.1236646  67.06 0.0008090587    1.083    0.077
        30 -16.7170      6.7461    206.6209   1.2742433834e+02   3.0013230762e+01     8.407482     1.178579 -73.29   0.03076765    4.881    0.795
        31  -8.7278    100.2931    186.3508   1.0569056473e+02   2.2659538105e+01    0.1316045    0.1086728 -24.83 0.0007030542    1.677    0.404
        32 -10.8359    146.5672    182.6032   9.4470566560e+01   1.5293887685e+01    0.2872241    0.2623772  28.23  0.000775742    1.100    0.091
        33 -10.4298     99.4049    180.6909   1.0506099291e+02   2.4060287395e+01    0.2405773    0.2268265  64.48 0.0005867994    1.094    0.086
        34 -11.5134    140.8500    173.8014   9.4162272061e+01   1.8210849677e+01    0.6427105    0.4447582 -89.10  0.002815933    2.202    0.546
        35  -9.7607     40.9613    178.0650   1.1830032662e+02   3.2722509343e+01    0.1891402    0.1503005  79.78 0.0002869946    1.044    0.042
        36  -9.8532    204.2868    176.4116   8.0971010958e+01   5.4736393998e+00    0.2376579    0.1746745 -57.71     0.001189    1.823    0.451
        37  -9.8182     84.1485    174.6394   1.0779337095e+02   2.7833762778e+01    0.3434761    0.1599958 -52.43  0.001029072    2.249    0.555
        38 -11.0896    124.7215    243.9840   1.0797440201e+02   7.5818620687e+00    0.2871534    0.1453682 -62.14  0.001496991    2.519    0.603
        39 -10.3730    230.4809    166.4924   7.3961035687e+01   2.3471766529e+00    0.2465429    0.1187699 -45.67   0.00103839    2.350    0.575
        40  -9.1903     42.5182    167.5044   1.1684546979e+02   3.4982122005e+01    0.1929415    0.1224254  35.95 0.0006241519    1.709    0.415
        41  -9.7612     45.4960    166.0120   1.1597053940e+02   3.4994712857e+01    0.2038461    0.1124549 -75.12  0.001036999    1.621    0.383
        42 -10.4510    159.3094    162.6012   8.7701297704e+01   1.6952072742e+01     0.291086    0.2445308 -80.19 0.0008666389    1.453    0.312
        43 -13.8365     70.9222    157.1804   1.0850230582e+02   3.3873684996e+01    0.5947101    0.4966599 -39.98  0.001961791    1.440    0.306
        44 -12.2548     89.4445    154.9995   1.0338881441e+02   3.1630897957e+01    0.6414981    0.4577678 -29.56  0.003059053    1.966    0.491
        45  -9.3917    172.5204    238.2802   9.8014975512e+01   8.7012776288e-01     0.200891    0.1251731 -53.07  0.001119445    2.129    0.530
        46 -10.9060    174.4598    148.6092   8.1265306976e+01   1.6711823737e+01    0.3912095    0.2999942 -49.19  0.001178462    1.359    0.264
        47 -11.1658    133.6685    144.4762   8.9971321156e+01   2.6094449038e+01     1.061761      0.30036 -54.94  0.002740592    4.768    0.790
        48  -8.8652    112.4965    150.5508   9.6617869257e+01   2.8749713309e+01    0.1485097    0.1409469  81.33 0.0001012788    1.010    0.010
        49 -11.7389     41.2139    145.8923   1.1460365439e+02   4.0258481227e+01    0.4582116    0.2814425 -37.52  0.002293839    2.210    0.547
        50  -9.8936    143.5048    146.0025   8.7876646244e+01   2.3752931692e+01    0.2214764    0.1364902 -72.49 0.0008106601    2.598    0.615
        51 -10.9393     84.1781    143.6310   1.0277044202e+02   3.5198331625e+01    0.3307553    0.2407043  66.11  0.001034279    1.508    0.337
        52 -10.9206    103.0848    140.0809   9.6987338402e+01   3.2920138972e+01    0.5513836    0.3567501 -27.23  0.002278876    2.324    0.570
        53 -12.4643     90.4400    140.0869   1.0040859670e+02   3.5063211329e+01    0.2868989    0.2693925 -48.51 0.0005025838    1.135    0.119
        54 -12.6282     43.9058    129.0339   1.1148851812e+02   4.4064371462e+01    0.5867828    0.3462808  62.14  0.002858929    2.019    0.505
        55 -12.5318     39.0154    123.8652   1.1209319896e+02   4.5829624148e+01    0.4285842    0.3363544 -38.21  0.002545421    1.441    0.306
        56 -10.5298    105.8705    130.7234   9.4241402286e+01   3.4657474548e+01    0.3581076    0.3022949 -71.24  0.001163625    1.204    0.169
        57 -11.1887    135.8574    128.4854   8.5749066114e+01   2.9274997350e+01    0.5595827    0.1652268 -49.43  0.001612438    3.496    0.714
        58 -10.3200    112.0706    130.3079   9.2455355381e+01   3.3606723523e+01    0.3405963    0.2626258 -12.17  0.001562917    1.791    0.442
        59 -10.4122    160.5031    127.9931   7.9589833699e+01   2.4046434188e+01    0.4135538    0.2843707 -60.83  0.001775078    1.732    0.423
        60 -11.0988     99.1848    126.6024   9.5187042248e+01   3.6839886353e+01    0.2915861    0.2485061 -11.40 0.0005156535    1.445    0.308
        61 -11.2602    119.4714    122.7879   8.8687196385e+01   3.3935318258e+01    0.7549458    0.4560047 -13.12  0.002289774    4.239    0.764
        62  -9.9508    108.0661    119.1554   9.0960634255e+01   3.6993801060e+01    0.2149092    0.2096173 -85.05 0.0003335375    1.029    0.028
        63  -9.8044    168.2025    113.0938   7.4040792885e+01   2.5420792383e+01    0.3596613    0.2390512 -72.69  0.001380617    2.353    0.575
        64 -12.3516     43.3972    109.2917   1.0830317390e+02   4.8918010114e+01    0.4671096    0.3438247 -55.24  0.001503096    1.186    0.157
        65 -10.8375    134.6413    112.1230   8.1945981718e+01   3.3202291756e+01    0.4549252    0.1442758 -44.15  0.001362645    3.127    0.680
        66 -10.1245    134.6555    104.8528   7.9994308552e+01   3.4794068309e+01    0.5556117    0.1509638 -44.17  0.001546672    3.629    0.724
        67 -11.7363    117.6780    109.0540   8.5717699287e+01   3.7453382123e+01    0.6426501    0.4659246 -65.76  0.002902314    1.598    0.374
        68 -10.1985    205.4555    110.1679   6.5657075083e+01   1.7417540191e+01    0.3135179    0.2167008  41.70 0.0009754384    1.556    0.357
        69 -12.9522     82.6330    162.0503   1.0628014155e+02   3.1008011300e+01     1.210105    0.4917569  56.61  0.000402167    3.520    0.716
        70 -11.6192    241.6926    100.6699   5.7362938675e+01   1.1227290081e+01    0.3745573    0.1548854 -42.62  0.001501419    2.164    0.538
        71 -11.2945     32.6340    107.9861   1.1143968623e+02   5.0276184611e+01    0.3957594    0.1839421 -63.22    0.0018464    1.745    0.427
        72 -10.4706     32.3380     99.8339   1.1009240353e+02   5.2249510598e+01    0.4374888    0.1808195  42.10  0.001913977    2.879    0.653
        73  -9.8027     32.0137     96.0859   1.0949667785e+02   5.3165505013e+01     0.253336    0.1633389 -62.34  0.001405162    1.285    0.222
        74 -11.2492     52.7528     93.1734   1.0189380681e+02   5.1725508114e+01    0.6073046    0.3305323 -62.88  0.002840843    1.744    0.427
        75  -9.9945     41.6685     91.8904   1.0537920002e+02   5.3240053227e+01    0.1980362    0.1714628 -26.02 0.0003734512    1.231    0.188
        76 -16.1504     57.2797    247.0674   1.2078640934e+02   1.6633136832e+01     9.503492     2.992376  29.21   0.00995412   11.467    0.913
        77  -9.0717     75.7983     85.1556   9.2019215014e+01   5.0427281944e+01    0.1870435    0.1569322 -17.54 0.0004159539    1.266    0.210
        78  -9.8858    157.9766     81.2923   6.7534038455e+01   3.4143249146e+01    0.2236636    0.2032974  53.57 0.0005300542    1.101    0.092
        79 -10.0414     58.7391     67.4917   9.2851050870e+01   5.6717700863e+01    0.2270919    0.2122894  55.32 0.0006336903    1.317    0.241
        80 -11.3747     12.9401     59.3721   1.0869294157e+02   6.2863310127e+01    0.3526442    0.2451237  65.51  0.001541912    2.169    0.539
        81 -13.8448    188.8648     44.7763   5.1014739965e+01   3.2383189388e+01     1.285839    0.8565774  38.84  0.001536042    1.809    0.447
        82  -9.8577     72.6564    229.6588   1.1655498613e+02   1.7831999535e+01     0.322574     0.178448 -53.26  0.001638016    2.322    0.569
        83 -10.4152     34.2818    227.9677   1.2362608485e+02   2.2946579951e+01    0.1973318     0.139318  44.36  0.000643063    1.411    0.291
        84 -11.2751     11.3893     52.3297   1.0759264184e+02   6.4442424041e+01    0.2074416    0.1640124 -41.10  0.001119206    1.055    0.052
        85 -14.5090     29.0081    248.1878   1.2571947814e+02   1.9783430419e+01    0.6954457    0.5480599  21.41  0.005094521    2.071    0.517
        86 -10.9963    148.2568     44.4743   5.8210876833e+01   4.2710157637e+01    0.2855269    0.2519832 -88.89 0.0005230092    1.225    0.184
        87 -11.7473     20.8830     33.5903   9.7508645865e+01   6.7476142900e+01    0.3210389    0.1933764  28.67  0.001667894    1.934    0.483
        88 -11.8683    146.7913     51.0227   6.0657247447e+01   4.2097723822e+01    0.5533193    0.3638031 -83.49  0.001542187    2.383    0.580
        89  -9.3966    189.6718     15.0339   4.2638989973e+01   3.5884773347e+01     0.181782    0.1693667 -60.90 0.0006343646    1.119    0.106
        90 -12.8777     16.5289    191.1542   1.2460318251e+02   3.2338699981e+01    0.2962005    0.2202937  59.63 0.0004501108    1.218    0.179
        91 -14.6714     85.5603    228.6148   1.1394301530e+02   1.6222421875e+01       1.8544      1.28226 -79.71   0.01151714    1.521    0.342
        92 -10.2387    106.6113    210.6646   1.0760360043e+02   1.6534017954e+01    0.3951218    0.1690487  32.85  0.001625508    2.621    0.618
        93  -9.5182    130.9320    214.1234   1.0293067725e+02   1.1865517491e+01    0.1964103    0.1584093  63.06 0.0003342245    1.235    0.190
        94  -9.6128     37.4316    167.9675   1.1809194826e+02   3.5430322623e+01    0.2765838      0.11216  51.70  0.001240458    2.477    0.596
