#   1 NUMBER                 Running object number                                     
#   2 MAG_AUTO               Kron-like elliptical aperture magnitude                    [mag]
#   3 X_IMAGE                Object position along x                                    [pixel]
#   4 Y_IMAGE                Object position along y                                    [pixel]
#   5 X_WORLD                Barycenter position along world x axis                     [deg]
#   6 Y_WORLD                Barycenter position along world y axis                     [deg]
#   7 A_WORLD                Profile RMS along major axis (world units)                 [deg]
#   8 B_WORLD                Profile RMS along minor axis (world units)                 [deg]
#   9 THETA_WORLD            Position angle (CCW/world-x)                               [deg]
#  10 FWHM_WORLD             FWHM assuming a gaussian core                              [deg]
#  11 ELONGATION             A_IMAGE/B_IMAGE                                           
#  12 ELLIPTICITY            1 - B_IMAGE/A_IMAGE                                       
         1 -13.0653    173.7060     36.7052   7.7696985327e+01   3.6997814116e+01     1.209171    0.9033169   6.41  0.002702692    1.582    0.368
         2 -13.5526    183.0942     28.1333   7.3542102831e+01   3.5655017535e+01     1.981867     1.255835 -12.91  0.005986465    1.835    0.455
         3 -14.1091    191.7822     14.9459   6.8422733415e+01   3.4892711748e+01     2.908888     1.564406  67.12  0.004560824    1.748    0.428
         4  -9.6291    248.3708     47.2403   7.0248465928e+01   1.7441321836e+01    0.2210924    0.2152552 -41.50 0.0004387411    1.079    0.073
         5 -12.8971    173.8557    248.4341   1.2514514018e+02   2.1280231083e+00     2.474134    0.4096855  38.43  0.007013145    6.609    0.849
         6  -9.1593     87.0396    250.5068   1.4004817564e+02   1.4567320343e+01    0.2394316    0.1097107  48.24 0.0007110027    1.657    0.396
         7 -10.7672     94.7284    241.8988   1.3803154388e+02   1.4860606882e+01    0.3353071    0.1804767  69.96  0.001644513    2.160    0.537
         8 -11.1899     91.0157    247.1682   1.3911603569e+02   1.4547281791e+01    0.3264789     0.204204  72.68 0.0004815733    1.611    0.379
         9 -13.7006     83.6658    165.5650   1.3153810522e+02   3.0550571694e+01     3.436659    0.6832902  43.32  0.005195106    4.437    0.775
        10 -13.8031     67.3175    143.7139   1.3211668412e+02   3.7510829275e+01     3.100284      1.91724  69.33   0.01588624    1.940    0.484
        11 -13.4779     72.3363    202.5811   1.3831834522e+02   2.4689289096e+01     1.750788    0.9792724  78.77  0.009596147    2.061    0.515
        12 -15.3118     63.4046    213.6312   1.4100908444e+02   2.3785132444e+01     7.953458      2.71744  54.69   0.01035167    2.830    0.647
        13  -9.8661    178.9923    217.4979   1.1991070872e+02   5.4569622782e+00    0.1999605    0.1039011  41.02  0.001037684    1.604    0.376
        14  -9.5230    168.1233    213.0800   1.2126125376e+02   7.9515879696e+00    0.3906808    0.2576629  68.46  0.001379371    2.337    0.572
        15  -9.1226    112.4861    211.3457   1.3161777874e+02   1.7351161316e+01    0.2302812     0.192957  21.18 0.0008093526    1.513    0.339
        16  -9.0937     86.3234    207.8072   1.3619812434e+02   2.1825307753e+01    0.2204381    0.1335062  56.90 0.0007515513    1.466    0.318
        17 -13.6557     16.9573    231.6268   1.5001463864e+02   2.5759351467e+01    0.5884572    0.5596873 -83.71  0.002798952    1.641    0.391
        18  -8.0893    130.3163    206.6663   1.2757565798e+02   1.5338539723e+01    0.1277915   0.08856145  69.92 0.0007047403    1.690    0.408
        19 -10.5133    192.6052    195.1061   1.1366894007e+02   6.3865431375e+00    0.8280551    0.4312735 -60.93  0.002746563    5.694    0.824
        20 -15.9775     28.6043    243.9939   1.4885448141e+02   2.2543007219e+01     2.236409     1.641978  49.05   0.01024864    1.383    0.277
        21  -7.9607    141.2901    198.6251   1.2426305769e+02   1.4898267643e+01    0.1293416   0.09509676  76.11 0.0007021162    1.728    0.421
        22  -9.6304     20.2048    196.5342   1.4747753923e+02   3.1734430392e+01    0.2328577    0.1501111  53.12  0.001156713    1.383    0.277
        23  -9.9416    183.9993    194.9938   1.1529150287e+02   7.9503048369e+00    0.1909338    0.1665961  28.94            0    1.012    0.012
        24 -10.2090    105.5759    241.3336   1.3612714809e+02   1.3430802376e+01    0.2325788    0.1601581  67.24 0.0005643067    1.378    0.275
        25  -8.2221     98.8063    192.6363   1.3197342124e+02   2.2863498954e+01    0.1760686   0.09827283  50.91 0.0003906149    1.634    0.388
        26  -9.1779     87.1395    191.2643   1.3416364357e+02   2.4836401633e+01    0.2893135    0.1766659  85.02  0.001540525    1.977    0.494
        27 -11.4435     83.0580    185.3136   1.3427440503e+02   2.6585186652e+01    0.3755732    0.3054236 -27.97  0.001605664    1.835    0.455
        28 -11.1370     86.2515    179.6725   1.3289651357e+02   2.7264592364e+01    0.3681379    0.2633529 -59.63 0.0007709958    1.440    0.305
        29 -12.5742    149.2086    248.1018   1.2933682919e+02   5.9667164716e+00     1.654832    0.5278153  33.90   0.00619157    4.204    0.762
        30  -9.2067      7.7444    184.0011   1.4892911602e+02   3.5265575654e+01    0.2612038    0.1158458  54.35   0.00159802    1.975    0.494
        31 -13.5778     55.3825    237.7832   1.4426139883e+02   2.0575825004e+01     1.143678    0.5982237 -70.94  0.006267283    1.972    0.493
        32  -9.5976     57.2962    178.1891   1.3877243871e+02   3.1388335112e+01    0.3107154    0.1544869  56.77  0.001634795    1.997    0.499
        33  -8.4683     34.9809    173.9760   1.4292038278e+02   3.4735736903e+01    0.1431051     0.123542 -66.92 0.0003179691    1.327    0.247
        34  -8.2415     37.6613    171.7213   1.4216454655e+02   3.4923324374e+01    0.1033124   0.08425449 -46.26 0.0003116163    1.619    0.382
        35 -10.5874    136.1635    172.1690   1.2103791914e+02   2.0652897055e+01    0.5809274    0.3067245  38.46  0.002377787    1.848    0.459
        36  -9.6158    229.6193    166.7772   1.0133804956e+02   3.8232393863e+00    0.1868194    0.1194301 -39.33 0.0009548314    1.714    0.416
        37 -10.2212      4.8749    161.6404   1.4798915606e+02   3.9962058074e+01    0.2336287    0.1857026  26.31  0.000998077    1.712    0.416
        38 -10.6823     24.7297    156.6633   1.4345824563e+02   3.9336075684e+01    0.4196792    0.2386169  52.87  0.001824231    1.729    0.422
        39 -11.5912     97.3623    145.3583   1.2512645997e+02   3.2822839492e+01    0.2499873     0.246369   8.45 0.0004826081    1.161    0.139
        40  -9.6377    133.6050    144.4160   1.1634058272e+02   2.6676681734e+01    0.7773305    0.1689267 -52.43   0.00187216    6.341    0.842
        41 -10.0837    108.6578    144.4537   1.2224548497e+02   3.1163219395e+01    0.4883357    0.2900817 -35.58  0.002176558    2.198    0.545
        42 -10.4501    134.3956    249.6230   1.3204147030e+02   7.9942552137e+00    0.3500673     0.196073  48.92  0.001641586    1.420    0.296
        43  -9.3036    129.0430    141.2829   1.1675920067e+02   2.8187689379e+01    0.2224156    0.1961769 -49.84 0.0003691944    1.146    0.128
        44  -9.7866    115.4860    133.5652   1.1841157467e+02   3.2315740309e+01    0.2793029    0.2428203 -16.27 0.0007440453    1.359    0.264
        45  -8.4208    193.7537    131.0330   1.0017223193e+02   1.6807859596e+01    0.1989584    0.1815371 -19.22 0.0003403797    1.075    0.070
        46 -10.2900    103.5970    130.3251   1.2070006207e+02   3.5088988294e+01    0.2826733     0.232362 -35.73  0.000740448    1.328    0.247
        47 -14.5650     15.2208    241.9589   1.5076718541e+02   2.4222686701e+01     1.028678    0.5866531  37.57  0.007704328    1.934    0.483
        48  -9.8986    120.0092    126.5019   1.1576012409e+02   3.3006251114e+01    0.2863412    0.1954217 -35.02    0.0010356    1.631    0.387
        49  -9.0732    125.9995    126.1463   1.1419698755e+02   3.1951087759e+01    0.2103836    0.2091328 -41.22 0.0004068889    1.014    0.014
        50 -10.5309    239.7011    123.0233   8.9905282472e+01   8.4214336046e+00    0.2673215    0.2386108  34.94 0.0006227489    1.185    0.156
        51  -9.2912    134.8778    122.7092   1.1122571235e+02   3.0932332308e+01    0.4090072    0.1558275 -48.19  0.001425816    2.679    0.627
        52  -9.3822    110.8565    121.9081   1.1704139502e+02   3.5666703282e+01     0.226046    0.2021054  41.98  0.000395436    1.157    0.135
        53 -13.1999     47.9980    218.1743   1.4409988817e+02   2.4808677837e+01     1.187566    0.2252251  48.42  0.004849482    3.848    0.740
        54  -9.3128    168.4664    114.1254   1.0129961784e+02   2.5483395185e+01    0.3448344    0.2480633 -55.75  0.001053172    1.630    0.387
        55  -9.4274     25.4711    113.1406   1.3825877602e+02   4.8784761921e+01    0.1828544    0.1656953  44.31 0.0006193304    1.327    0.246
        56  -9.6292    116.4873    109.5496   1.1265869146e+02   3.7295219903e+01    0.2769839    0.1309946 -37.44  0.000819719    2.388    0.581
        57 -12.1193     66.7684    106.3431   1.2558119026e+02   4.5972195145e+01    0.8285877    0.5680219  17.82  0.004381503    1.905    0.475
        58  -9.4604     30.2997    107.9870   1.3617948691e+02   4.9528500114e+01    0.3213498    0.1745097   0.33  0.001503416    3.453    0.710
        59 -10.0655      3.9743    104.4622   1.4288909500e+02   5.2220003401e+01    0.3008737    0.2383315   9.43  0.002202336    1.718    0.418
        60 -12.7088     22.0841    215.0531   1.4829906030e+02   2.8134341176e+01    0.6193384    0.3916152  82.71  0.004627485    1.253    0.202
        61 -13.5896     11.9253    207.3846   1.4956241028e+02   3.0488224957e+01     1.031619    0.8557114 -73.45  0.008724743    1.464    0.317
        62  -7.9561    151.6773     77.2909   9.4844961310e+01   3.6188840378e+01    0.1511212     0.122893 -77.29 0.0002562634    1.609    0.379
        63 -10.7887     13.4898     66.1862   1.3387125803e+02   5.9947310231e+01    0.2263005    0.1997358  17.16  0.001687383    1.428    0.300
        64  -8.4712    193.2574     61.0050   8.1625463974e+01   2.8692603609e+01    0.1962067    0.1839213 -16.13 0.0002095573    1.067    0.062
        65 -10.0390    121.4483    248.7467   1.3415118634e+02   1.0030183828e+01    0.2171686    0.1833635  80.09 0.0009831956    1.285    0.222
        66  -8.9975      2.0042    220.2569   1.5180560244e+02   2.9091466491e+01    0.2133082   0.09021914  64.61  0.001387703    1.866    0.464
        67 -11.1211    170.4560    243.0414   1.2503969654e+02   3.3471715081e+00    0.3873452    0.2150132  52.42  0.001347837    1.817    0.450
        68  -8.1569    133.5773     50.4253   9.0500164606e+01   4.4912234315e+01    0.1462491    0.1379551   8.89 0.0001060397    1.010    0.010
        69 -10.4008    143.0500     26.6606   8.0093589270e+01   4.5916299451e+01    0.2394027    0.2075958  -6.95 0.0002235331    1.174    0.148
