#   1 NUMBER                 Running object number                                     
#   2 MAG_AUTO               Kron-like elliptical aperture magnitude                    [mag]
#   3 X_IMAGE                Object position along x                                    [pixel]
#   4 Y_IMAGE                Object position along y                                    [pixel]
#   5 X_WORLD                Barycenter position along world x axis                     [deg]
#   6 Y_WORLD                Barycenter position along world y axis                     [deg]
#   7 A_WORLD                Profile RMS along major axis (world units)                 [deg]
#   8 B_WORLD                Profile RMS along minor axis (world units)                 [deg]
#   9 THETA_WORLD            Position angle (CCW/world-x)                               [deg]
#  10 FWHM_WORLD             FWHM assuming a gaussian core                              [deg]
#  11 ELONGATION             A_IMAGE/B_IMAGE                                           
#  12 ELLIPTICITY            1 - B_IMAGE/A_IMAGE                                       
         1 -18.8981    222.9232     83.5555   6.7190887539e+01   1.8151483104e+01     6.001328     5.407669  17.47   0.01807003    1.119    0.106
         2  -9.4935    202.6082     18.3571   5.1544076707e+01   3.1884935770e+01    0.4080352     0.340512 -56.61   0.00220489    1.194    0.163
         3  -8.9943    191.1971     17.6990   5.2768067248e+01   3.4993143854e+01    0.4717359    0.2479433 -41.80  0.002001176    1.900    0.474
         4 -10.1629    208.5222      2.4726   4.6193742003e+01   3.1939978704e+01     0.247923    0.2137447  48.87 0.0005432195    1.230    0.187
         5 -10.8078    220.5155    159.8033   8.5320656684e+01   7.5765853890e+00    0.4438274    0.3993416  66.40  0.001030361    1.478    0.323
         6  -9.0328    229.7891    250.5837   9.8600490940e+01  -4.0588007922e+00    0.2008132   0.07216855  37.98 0.0007678291    1.989    0.497
         7 -10.0022     19.5099    249.2871   1.3191214433e+02   2.4215167228e+01     0.214077   0.07781073  57.28  0.001458954    1.803    0.445
         8 -10.7065      6.0322    247.9502   1.3383363469e+02   2.5697910634e+01    0.4167079     0.106948  52.63  0.002604231    2.211    0.548
         9 -10.6093    201.2037    201.3972   9.6185986206e+01   5.5601693443e+00    0.6587325    0.2023387  38.33  0.002662241    2.875    0.652
        10  -9.9793    195.4953    199.9665   9.6966810430e+01   6.7171963162e+00    0.2413268    0.1923193 -83.09  0.001218155    2.188    0.543
        11 -10.7748    191.7978    192.7528   9.6472255034e+01   8.3190378386e+00    0.8375571    0.4794472 -65.18  0.003149988    5.301    0.811
        12 -10.5477    179.8255    198.2410   9.9523775985e+01   9.6525889454e+00    0.4700309    0.2230135  55.07  0.002118912    2.577    0.612
        13 -10.4450    199.3887    194.0986   9.5328000913e+01   6.8108747730e+00    0.2705108    0.2350299 -63.45  0.001457511    1.667    0.400
        14  -8.7713    171.5389    194.1363   1.0042561599e+02   1.1683669456e+01    0.1926869    0.1454353  48.23 0.0003902026    1.184    0.155
        15  -9.4466    247.8779    241.9407   9.4666375215e+01  -5.8360690796e+00    0.1622468    0.1147356  24.57 0.0006401206    1.049    0.047
        16  -8.9192     91.9806    168.4472   1.1285734529e+02   2.9486581966e+01    0.1709242    0.1471976  78.25 0.0002284363    1.059    0.056
        17  -8.6925    248.5678    181.0853   8.4703363205e+01  -9.3983525583e-03    0.1996288     0.162034  50.31 0.0009720108    1.608    0.378
        18  -8.5079    158.1717    167.1675   9.8613809593e+01   1.8392505249e+01    0.1936527    0.1649651  29.43 0.0004016315    1.176    0.149
        19  -8.6002     40.3169    156.7371   1.2290629286e+02   3.8484751292e+01    0.2202631    0.1154636 -89.86  0.001225647    1.807    0.447
        20 -10.0276    160.4863    153.5053   9.5633442051e+01   2.0323472904e+01    0.3039419    0.1588056  39.10  0.001352178    1.839    0.456
        21 -10.1034    157.5226    149.4950   9.5482416048e+01   2.1623982766e+01    0.3157391    0.2499784 -85.69 0.0007616655    1.659    0.397
        22 -10.6380    241.5504    162.9936   8.2391639949e+01   3.3078258091e+00    0.3491151    0.2787086  12.26 0.0006644535    1.069    0.065
        23  -8.2825     91.1046    153.0895   1.1096390742e+02   3.2720556510e+01      0.16711    0.1571955  71.64  0.000275927    1.149    0.130
        24 -13.0805     11.2373    147.8332   1.2860618281e+02   4.3020966269e+01    0.5757625    0.3603752  10.68  0.002582222    2.675    0.626
        25 -10.7321    133.5075    145.4905   9.9976763954e+01   2.7025651672e+01     1.186641    0.3638554 -55.43  0.003733351    4.337    0.769
        26 -10.4123    144.5233    146.8839   9.7786841079e+01   2.4653704808e+01    0.6268836    0.3625632 -74.93  0.002325762    3.523    0.716
        27 -13.1027     46.2295    136.8602   1.1951067869e+02   4.2072378174e+01     1.135265     0.978816 -68.15  0.006468346    1.247    0.198
        28 -10.6960     67.6470    143.9978   1.1521349180e+02   3.7958117282e+01    0.9626305    0.4978936  75.89  0.004323364    2.618    0.618
        29 -10.9525    149.2442    132.9966   9.3923092593e+01   2.6363035593e+01    0.4535234    0.3078905 -29.24  0.001091973    1.832    0.454
        30 -10.3243    166.9861    149.7709   9.3550171378e+01   1.9690308830e+01    0.3407898    0.2097006  65.41  0.001487739    2.262    0.558
        31 -10.7284     32.5582    129.0852   1.2202756064e+02   4.5162650091e+01    0.2893154    0.1796945  88.08 0.0007626187    1.435    0.303
        32 -12.1635     65.0920    131.6145   1.1413803205e+02   4.0984663244e+01    0.6746351    0.4889097  84.68   0.00115024    1.335    0.251
        33  -9.4870    157.0432    174.9700   1.0017064105e+02   1.7285273001e+01    0.4821444    0.2631331  65.88  0.001940657    3.152    0.683
        34 -10.5403    144.2460    122.1994   9.2689640873e+01   2.9493640056e+01    0.4553302    0.2847102  53.67  0.001436665    1.621    0.383
        35 -10.6408    152.8032    143.8685   9.5383978197e+01   2.3591598977e+01    0.3093133    0.2538989 -53.43   0.00112652    1.329    0.248
        36 -12.9707     76.6991    128.4741   1.1069965978e+02   4.0111450407e+01     1.268721     1.154303  14.12  0.004487576    1.422    0.297
        37  -8.6034    101.5069    120.9674   1.0294158489e+02   3.7893312743e+01    0.2066806    0.1819592  54.68 0.0004604463    1.123    0.110
        38 -10.9913    223.4659    180.1653   8.8689876728e+01   4.3761110032e+00    0.5184934    0.2979917 -24.12 0.0003309328    1.909    0.476
        39 -10.1409    235.4023    175.5160   8.5814510862e+01   2.8615831176e+00    0.6011762    0.3656992  61.73 0.0006910963    2.899    0.655
        40  -8.0563    107.2257     94.6156   9.5441047976e+01   4.2593812243e+01    0.1450458    0.1082392 -76.80 0.0006882242    1.619    0.382
        41  -9.5299    126.9707     83.9155   8.7188397436e+01   4.0855053030e+01    0.2925697    0.2070213 -47.12 0.0005626073    1.408    0.290
        42  -9.2613    111.0263     79.4139   9.0231450995e+01   4.5068577487e+01    0.3154959    0.1976842 -49.38  0.000910143    1.572    0.364
        43 -10.0570    139.6058     78.7221   8.2441145107e+01   3.9066358781e+01    0.3539564    0.2888941  64.72  0.001074986    1.330    0.248
        44  -9.0033    127.0626     78.2134   8.5494127107e+01   4.1969715697e+01    0.3571693    0.2551143 -21.17  0.001582735    1.713    0.416
        45  -9.3933    120.3593     60.7659   8.1775755712e+01   4.6787648931e+01    0.2520263    0.2032016 -50.19 0.0003734058    1.285    0.222
        46  -9.6087    116.7616     60.3806   8.2642724343e+01   4.7642611463e+01    0.2725425    0.2442794 -15.00 0.0005440293    1.146    0.127
        47  -8.6268     97.9743     59.4659   8.7877064025e+01   5.1642895943e+01     0.221411    0.1821992 -41.68  0.000384274    1.153    0.133
        48 -10.2766    124.1950     57.3326   7.9575089029e+01   4.6561469440e+01    0.2631533    0.2419454 -21.60 0.0002641434    1.077    0.071
        49  -8.1012     38.7295     54.2366   1.0720386320e+02   6.1346976565e+01    0.1827393   0.08778524 -53.30 0.0006828444    1.684    0.406
        50  -8.7818    118.4054     51.3077   7.9044001677e+01   4.8933351919e+01    0.2891791    0.1428959 -31.60  0.001126654    2.124    0.529
        51  -8.5838     99.6494     51.9535   8.4762559734e+01   5.2760178125e+01    0.2021064    0.1705334 -36.12 0.0003331763    1.127    0.112
        52  -9.3630    100.4254     47.4100   8.2875504451e+01   5.3442508525e+01    0.4755251    0.2086303 -29.22  0.001509182    2.869    0.651
        53 -11.8937    232.1362    166.8054   8.4700804460e+01   4.5150230285e+00     1.277797    0.5538517  30.94  0.005465104    2.554    0.608
        54 -10.1821    103.2888     38.0562   7.8433620944e+01   5.4479025186e+01     0.330321    0.2390083 -23.88  0.001260424    1.390    0.281
        55 -11.2204    185.9763    170.3610   9.3691864419e+01   1.2614103390e+01    0.6459118    0.3467988 -58.55  0.002636496    3.461    0.711
        56  -9.7737    143.9758     33.4493   6.6215354388e+01   4.5607153731e+01    0.2863759    0.2221759 -23.06 0.0005910093    1.316    0.240
        57  -9.0215    237.0881    171.1863   8.4716379831e+01   3.0925246792e+00    0.1968414    0.1610287  -4.96 0.0003615986    1.156    0.135
        58  -8.8014    175.8163    181.9680   9.7664098750e+01   1.2735545014e+01    0.2550892    0.1570042  63.14  0.001229354    2.243    0.554
        59  -9.4829    122.3196     24.3954   6.7714827703e+01   5.2226305493e+01    0.2570956    0.2183787  -6.25 0.0006025418    1.185    0.156
        60  -9.1274    220.0215     23.9804   5.1174996774e+01   2.6740007650e+01    0.2451954    0.1950937  48.90 0.0004554415    1.333    0.250
        61  -9.8534    110.0968     22.6208   7.0144702643e+01   5.5329500882e+01    0.2497059     0.218962 -11.28 0.0002165472    1.103    0.094
        62 -10.0644    141.7755    228.6517   1.1039000458e+02   1.1649887502e+01    0.1916595    0.1581784  45.49 0.0003987751    1.101    0.092
        63  -8.1784     14.3099    218.6964   1.3159880671e+02   2.9515009204e+01     0.105078   0.04718816  62.75 0.0002747065    1.609    0.378
        64 -11.3796    175.0604    163.5437   9.4560473829e+01   1.5776928135e+01    0.5499177    0.3354167 -61.58   0.00250696    2.566    0.610
        65  -9.5440    202.4218    206.4064   9.6759137671e+01   4.7325760149e+00    0.2150681    0.1723826  41.43 0.0005822927    1.189    0.159
