#   1 NUMBER                 Running object number                                     
#   2 MAG_AUTO               Kron-like elliptical aperture magnitude                    [mag]
#   3 X_IMAGE                Object position along x                                    [pixel]
#   4 Y_IMAGE                Object position along y                                    [pixel]
#   5 X_WORLD                Barycenter position along world x axis                     [deg]
#   6 Y_WORLD                Barycenter position along world y axis                     [deg]
#   7 A_WORLD                Profile RMS along major axis (world units)                 [deg]
#   8 B_WORLD                Profile RMS along minor axis (world units)                 [deg]
#   9 THETA_WORLD            Position angle (CCW/world-x)                               [deg]
#  10 FWHM_WORLD             FWHM assuming a gaussian core                              [deg]
#  11 ELONGATION             A_IMAGE/B_IMAGE                                           
#  12 ELLIPTICITY            1 - B_IMAGE/A_IMAGE                                       
         1 -12.1493    173.6590     60.4021   3.7404216451e+01   3.3933085086e+01     1.659101     1.055357  28.67   0.00592758    2.922    0.658
         2 -12.3372    189.2402     47.6652   3.2354011196e+01   3.2365830304e+01    0.8432808    0.6610487 -64.40   0.00294454    1.110    0.099
         3 -12.7045    212.3023     20.2740   2.4313782027e+01   3.1005978718e+01    0.9013887    0.4440837 -48.32  0.004431799    1.673    0.402
         4 -12.2633    218.0610     17.1424   2.3287518437e+01   3.0238422192e+01     1.209052    0.2985728 -43.95  0.005609344    2.866    0.651
         5 -10.5357    119.2599     10.0155   3.1737282661e+01   5.2513737203e+01    0.5762432    0.3169743  48.29  0.002920605    1.804    0.446
         6  -9.9130    189.4383     11.1183   2.4147859183e+01   3.6609685448e+01    0.1947881    0.1611486  64.23 0.0006096385    1.415    0.293
         7 -11.2966      6.3159      8.3649   7.2464140784e+01   7.4858508575e+01    0.4668851    0.2594424   3.31  0.002608519    1.884    0.469
         8  -9.6256    233.8125      9.6401   2.0916353129e+01   2.8121470865e+01    0.2066431    0.1318253 -17.64  0.001257831    2.782    0.641
         9 -11.3881     54.0580    238.4763   1.0195690526e+02   1.6100719610e+01    0.3202358    0.2295653  -3.58  0.001738024    1.841    0.457
        10 -12.0685    249.2229    214.9321   5.6769828774e+01  -4.1438969968e+00    0.7249569    0.2821338 -38.05  0.003838163    2.042    0.510
        11 -12.3139    247.5326    244.9409   6.1775381377e+01  -8.1561074051e+00      1.02864    0.7138385 -34.75  0.007506491    1.500    0.333
        12 -18.2947     20.6440    233.4244   1.0945027303e+02   2.0756696284e+01     8.293358      6.48074 -57.97   0.03266215    1.482    0.325
        13  -8.6145     73.3850    206.0096   9.3646786655e+01   2.1130922566e+01    0.1837191    0.1638807  84.29 0.0004199738    1.183    0.154
        14  -9.8267     37.1137    203.1001   1.0305069533e+02   2.6190738045e+01    0.2395159    0.1976365 -61.58 0.0003850607    1.268    0.211
        15  -7.5385     36.3906    199.2267   1.0288088846e+02   2.7227098591e+01    0.3313379     0.142353  46.94  0.001363847    2.239    0.553
        16 -10.4627     62.2443    200.7770   9.6009695564e+01   2.3841258676e+01     0.320957      0.19848 -53.18 0.0005180892    1.688    0.407
        17 -10.2500    249.1358    197.7462   5.3930641814e+01  -1.5873591261e+00    0.3442328    0.1759322 -51.77  0.001733246    2.765    0.638
        18  -8.9904     53.8482    198.0835   9.7993695734e+01   2.5541380921e+01     0.213706     0.170179  60.31 0.0006092989    1.243    0.196
        19  -8.6885     81.9509    196.0456   8.9989494871e+01   2.2375717797e+01    0.2193346    0.1946737  49.18 0.0004659983    1.110    0.099
        20  -9.5747     66.7451    195.5972   9.4125538194e+01   2.4546226591e+01    0.2901398     0.235352  55.79 0.0006142745    1.233    0.189
        21  -9.5325     64.5054    191.5103   9.4220312047e+01   2.5859988555e+01    0.3033756    0.2060661  66.16  0.001057887    1.695    0.410
        22 -11.4137     60.0413    189.3502   9.5203346277e+01   2.6977279511e+01    0.3864335    0.3653831  45.93 0.0005754512    1.027    0.027
        23  -9.3382     57.2767    185.6080   9.5513044175e+01   2.8279442940e+01    0.2541156    0.2229324  70.42 0.0004520106    1.143    0.125
        24  -8.9017    191.6602    192.9417   6.3021463397e+01   6.4203244055e+00    0.3613755    0.2227707 -62.20  0.001616033    2.749    0.636
        25  -9.9305     71.1955    187.3312   9.1756637978e+01   2.6027620206e+01    0.5398636    0.4306549 -16.86  0.001587826    1.482    0.325
        26  -9.5457     91.1810    187.4078   8.6141236590e+01   2.3156934913e+01     0.327827    0.2066666  49.58 0.0008916717    1.711    0.415
        27 -14.4430     10.5138    207.8065   1.1030478155e+02   2.7596000446e+01    0.9768597    0.4989377  10.30  0.004505003    2.546    0.607
        28  -8.7793    249.3147    184.6453   5.1667762112e+01   3.9763183091e-01    0.1083845   0.08445688 -55.41 0.0007045381    1.739    0.425
        29  -9.0692     19.7733    182.1242   1.0591684265e+02   3.3192611293e+01     0.260864    0.1570706 -82.82 0.0007097782    1.600    0.375
        30  -9.4990     14.3957    184.5939   1.0763475675e+02   3.3023189203e+01     0.144646    0.1312699  11.76 0.0003921605    1.259    0.206
        31  -9.6821    221.2926    176.9562   5.4690606213e+01   5.1434184898e+00    0.2039495    0.1878048  88.79  0.001151897    1.621    0.383
        32  -8.9354     18.7053    177.3601   1.0579777115e+02   3.4520085407e+01    0.1559449     0.131536  11.29 0.0003443406    1.344    0.256
        33  -9.5667    180.2416    174.7960   6.1898211423e+01   1.1588403535e+01    0.3331386    0.1800177 -56.79  0.001396814    2.428    0.588
        34  -8.5286     59.1274    218.0415   9.8765171578e+01   2.0087912358e+01    0.1567711    0.1310472  82.07            0    1.244    0.196
        35  -9.7558     29.9002    175.5965   1.0234692748e+02   3.3946745624e+01    0.2361539    0.2070514  73.60 0.0006355162    1.090    0.082
        36  -9.8061    150.3025    174.1712   6.8369313640e+01   1.6639673441e+01    0.2481613    0.2348228  -0.19 0.0002476211    1.043    0.041
        37  99.0000     10.0766    174.8235   1.0807008351e+02   3.5887804011e+01    0.3959816    0.2188826  20.85  0.001909734    1.945    0.486
        38  -9.6160    235.4977    173.4939   5.1779638262e+01   3.8522442374e+00    0.1235791   0.09743458 -29.16 -0.0001364224    1.009    0.009
        39 -10.1272    145.0907    170.0121   6.8789227127e+01   1.8437769808e+01    0.4447256    0.2186493 -52.40  0.001600722    2.128    0.530
        40  -8.4424    155.9995    171.5056   6.6517337853e+01   1.6248992707e+01    0.2126505    0.1421129  34.58 0.0004219694    1.529    0.346
        41 -10.5556     58.8649    168.6254   9.2688137188e+01   3.2503514625e+01    0.5410902    0.3548883  65.56   0.00144022    1.833    0.454
        42  -8.8997     54.0415    165.5481   9.3724210349e+01   3.3928823197e+01    0.2278395    0.2107174  14.60 0.0003432997    1.139    0.122
        43 -10.4511     57.4720    211.7336   9.8529362312e+01   2.1774859011e+01    0.4127435    0.3002279 -70.75  0.002110081    1.437    0.304
        44 -10.9475    247.3813    167.9954   4.9032223932e+01   3.2411291564e+00    0.4429795    0.1664439 -38.54  0.002128719    2.099    0.524
        45 -10.2683    119.8809    165.4446   7.4304838269e+01   2.3860788567e+01    0.4552857    0.3150677 -85.90  0.001372789    2.315    0.568
        46  -9.9105    153.7106    163.5125   6.5432706583e+01   1.8359108993e+01    0.4308363    0.3104587  89.62  0.001835298    2.469    0.595
        47  -8.1514    126.0336    159.9765   7.1561465016e+01   2.4072253494e+01    0.1904258    0.1689349 -43.89 0.0003984892    1.117    0.105
        48  -9.9162    136.6132    155.5853   6.7915122141e+01   2.3180153280e+01    0.5186033    0.3309332 -74.01  0.001963709    2.594    0.614
        49 -10.3956    133.8980    146.1236   6.6557557537e+01   2.5841917200e+01     1.162566    0.3422977 -55.68  0.002858823    5.290    0.811
        50 -10.6459    119.2605    150.7926   7.1451194118e+01   2.7466943936e+01     0.470588    0.3632286  86.31  0.002112795    1.795    0.443
        51 -10.0355    144.5651    146.7878   6.4049972387e+01   2.3684551749e+01    0.4261789    0.2847753 -80.87  0.001648436    2.706    0.630
        52  -9.9110    139.7658    146.4726   6.5156508527e+01   2.4657692702e+01    0.4307743    0.2973899 -86.06  0.001711626    2.539    0.606
        53  -8.3875    235.4978    146.5055   4.6808718838e+01   8.3203152723e+00    0.1247165   0.09986946 -37.44 0.0008106217    1.015    0.015
        54 -11.0076    115.3843    143.9596   7.1036920045e+01   2.9813298140e+01    0.4455388    0.3565977 -20.58  0.001900509    1.417    0.294
        55 -10.1439     54.7057    206.4959   9.8696974585e+01   2.3368241414e+01    0.2507463    0.2046119  45.70 0.0008531834    1.137    0.121
        56  -9.8523    125.1424    141.0020   6.7703409915e+01   2.8680803626e+01    0.2625135    0.2246326  33.43 0.0005738843    1.184    0.155
        57  -9.8440     92.4139    131.0744   7.4953766636e+01   3.7144876069e+01    0.2732837    0.2207987  18.69 0.0006610517    1.328    0.247
        58  -9.1317    161.2493    128.8798   5.6195742087e+01   2.4299631878e+01    0.3028043    0.2419399 -43.10  0.000900974    1.183    0.155
        59  -9.0416     48.5757    209.2576   1.0060930336e+02   2.3418444785e+01     0.451609    0.1719305  37.24  0.001823893    2.253    0.556
        60  -9.4488    115.3085    127.9822   6.7375130718e+01   3.3613370446e+01    0.2910567    0.2313727  25.39 0.0006699332    1.348    0.258
        61  -8.2551    235.3895    125.2122   4.2784687061e+01   1.1852825746e+01    0.1810036   0.09327666 -48.50 0.0004789436    1.681    0.405
        62  -9.0007    120.5822    123.7269   6.4875062318e+01   3.3554044493e+01    0.2191629    0.1484866 -58.61 0.0009493005    1.620    0.383
        63  -8.1748    110.4939    118.0075   6.6300039572e+01   3.6869997059e+01    0.2199098    0.1524258 -47.87 0.0009808099    1.439    0.305
        64  -9.3318    104.7819    117.4410   6.7843700244e+01   3.8123943240e+01    0.3051386    0.2531976  87.90  0.001457585    1.499    0.333
        65  -9.3282     93.8886    115.6786   7.0769405662e+01   4.0620160583e+01    0.3770021    0.2211967  62.64  0.001346062    2.731    0.634
        66 -10.7913    117.9004    110.1845   6.2191078193e+01   3.7124877360e+01    0.6854825    0.4536253  72.43  0.002722719    2.346    0.574
        67  -8.6471     39.1436     88.6850   8.4240972651e+01   5.5726188144e+01    0.3201299    0.1506729  36.52  0.001316835    2.210    0.547
        68  -9.6325     87.2661    206.8492   9.0069133123e+01   1.9045699913e+01    0.3134969    0.2429926 -31.44 0.0004219348    1.461    0.315
        69  -7.8848    154.6712     84.7160   4.6782967575e+01   3.4196954783e+01    0.1375026    0.1129204  19.38 0.0002837225    1.608    0.378
        70  -8.6496     90.4365    202.1143   8.8563925410e+01   1.9714915157e+01    0.2610854    0.2096834 -50.23 0.0009855664    1.305    0.234
        71  -8.0382    136.1456     70.8325   4.6852643414e+01   4.0751808326e+01    0.1780159     0.163893  19.86 0.0002647858    1.266    0.210
        72  -8.0112    209.5223     68.5138   3.4575674347e+01   2.5326588746e+01     0.124615    0.1050216 -61.89 0.0003336975    1.025    0.024
        73  -8.8538     78.7361    248.7573   9.7097773119e+01   1.1005794798e+01    0.1239598    0.1086705 -52.66 0.0002118437    1.321    0.243
        74  -9.5105     75.8989    246.9989   9.7586220091e+01   1.1709347885e+01    0.2363362    0.1385578 -62.27    0.0010606    1.935    0.483
        75 -11.8355    194.8658     41.3746   3.0316747188e+01   3.2009621641e+01    0.5364682    0.4673429  51.50  0.001951382    1.473    0.321
        76  -8.4214     48.8483     67.5874   7.3736882396e+01   5.9104226209e+01    0.3486131    0.1064139  41.14  0.001139775    3.548    0.718
        77  -8.1652    106.0624     59.7175   5.0740777069e+01   4.9433864407e+01    0.1902066    0.1705446  48.80 0.0002953021    1.044    0.042
        78  -8.6883    167.2580    224.0662   7.3430236300e+01   4.0778318230e+00    0.2136154    0.1846842 -58.13 0.0009172085    1.551    0.355
        79  -8.8811    140.9445     42.6146   3.7908136784e+01   4.3844034604e+01    0.2893253    0.1669828  41.99  0.001358804    2.106    0.525
        80  -7.9843    153.7332     33.9991   3.3536961976e+01   4.1962156360e+01    0.1702471    0.1514056 -72.73 0.0003431174    1.089    0.082
        81 -11.2694     50.8289    247.6468   1.0347040223e+02   1.4528122556e+01    0.3137034    0.1573732 -63.28  0.001126985    2.182    0.542
        82  -7.9827     89.6384    246.7844   9.4346248365e+01   1.0041818375e+01    0.1270354    0.0915482   4.59 0.0006834436    1.563    0.360
        83  -9.8994     68.1871    246.1884   9.9313912991e+01   1.2810367463e+01     0.162125    0.1462265  37.91 0.0003426956    1.054    0.051
        84 -11.8620    245.9699    225.3104   5.8957634207e+01  -5.3119399753e+00    0.5570171    0.3564519  16.71   0.00380596    1.579    0.367
        85  -9.7189     58.2570    239.7329   1.0106826105e+02   1.5343308285e+01       0.1805    0.1191698 -66.32 0.0007214403    1.668    0.400
