#   1 NUMBER                 Running object number                                     
#   2 MAG_AUTO               Kron-like elliptical aperture magnitude                    [mag]
#   3 X_IMAGE                Object position along x                                    [pixel]
#   4 Y_IMAGE                Object position along y                                    [pixel]
#   5 X_WORLD                Barycenter position along world x axis                     [deg]
#   6 Y_WORLD                Barycenter position along world y axis                     [deg]
#   7 A_WORLD                Profile RMS along major axis (world units)                 [deg]
#   8 B_WORLD                Profile RMS along minor axis (world units)                 [deg]
#   9 THETA_WORLD            Position angle (CCW/world-x)                               [deg]
#  10 FWHM_WORLD             FWHM assuming a gaussian core                              [deg]
#  11 ELONGATION             A_IMAGE/B_IMAGE                                           
#  12 ELLIPTICITY            1 - B_IMAGE/A_IMAGE                                       
         1 -14.4599    248.5658    101.4956   8.8728474392e+00   1.2764588842e+01     1.726143    0.5204812 -36.62  0.007520372    2.488    0.598
         2 -12.8279    249.2625     52.7132   3.5867674741e+02   1.9122394144e+01    0.5634062    0.1849187 -36.31  0.002662126    2.199    0.545
         3 -12.2475      2.7993     53.4849   7.0424972246e+01   6.8328968671e+01    0.6271715    0.1844531 -54.57  0.002434094    2.572    0.611
         4 -12.5202    249.9718     25.6540   3.5298288208e+02   2.2192294213e+01    0.6894892    0.1053211 -31.79   0.00242248    4.465    0.776
         5 -13.3399    248.6162     10.5264   3.4992762087e+02   2.4060041985e+01    0.6320502    0.3131778 -26.91  0.003627913    1.994    0.498
         6 -12.3123    244.3020     22.7485   3.5268274839e+02   2.3538295594e+01    0.3111219    0.1188257 -56.29  0.001564808    2.234    0.552
         7 -13.0167    230.6546      5.7841   3.4970807096e+02   2.7923980662e+01    0.4664241    0.1728825 -56.72  0.002338252    2.164    0.538
         8 -11.0825      3.2772     10.9855   5.6105448566e+01   7.8144757102e+01    0.1806122    0.1474598 -34.94 0.0009406272    1.078    0.072
         9 -12.9523    221.5608      5.8563   3.5014786437e+02   2.9731488255e+01    0.4194211    0.1796256 -39.89  0.002240273    1.756    0.431
        10 -11.6609      8.9886     26.9976   5.8331695753e+01   7.4323746232e+01    0.3622978    0.1184328 -50.23  0.001489422    2.471    0.595
        11 -10.7561      6.8209      1.8293   4.6155087798e+01   7.9579145705e+01    0.1546581    0.1429873  25.27 0.0008002733    1.313    0.238
        12 -13.3764    163.5909    230.3301   4.6532538181e+01   5.3993870219e+00    0.7670623    0.6950012  19.34  0.005612303    1.286    0.223
        13 -12.6990    210.1870    248.9845   4.0536372947e+01  -2.3435429678e+00    0.4272059    0.2337267  17.59  0.002865497    1.474    0.321
        14 -12.4386     53.3075    249.4467   7.2088385547e+01   1.5618983231e+01    0.4529253     0.179874  32.55  0.001712477    1.829    0.453
        15 -12.5796     35.3862    247.5975   7.5850186157e+01   1.7814968794e+01    0.9610243   0.04340187  44.62  0.003311301    4.419    0.774
        16 -12.8803     18.4523    249.0900   7.9496649997e+01   1.9176363824e+01     0.930442    0.2288151  52.31  0.004193235    2.878    0.653
        17 -13.2857      9.0975    246.5570   8.1375162135e+01   2.0484191677e+01    0.9764664    0.5134403  58.54  0.006161916    1.506    0.336
        18 -10.5887     23.1338    247.8882   7.8471513656e+01   1.8957228074e+01    0.3291097    0.1593096  60.45  0.001320989    1.791    0.442
        19 -12.8510     26.6559    246.8549   7.7685399201e+01   1.8809742454e+01    0.8359998    0.3744811  70.93  0.004517985    2.326    0.570
        20 -10.5330     38.8093    235.2955   7.4496775102e+01   1.9771314341e+01    0.2018393    0.1066183  44.47 0.0008166792    1.431    0.301
        21 -12.2525     28.7865    232.5549   7.6620035255e+01   2.1315342535e+01    0.3141167    0.1387028  57.44  0.001630988    1.972    0.493
        22 -11.3028    106.0316    223.1800   5.7997699943e+01   1.4083876405e+01    0.4617283    0.1614413  34.64  0.001973597    2.243    0.554
        23 -11.8042     98.8033    225.3686   5.9899766693e+01   1.4622507306e+01    0.3362472    0.2456598   6.40  0.001065954    1.537    0.349
        24 -12.1373     99.8028    219.6556   5.9045820470e+01   1.5562563471e+01    0.7407762     0.397367  16.53  0.003465838    2.157    0.536
        25 -12.1313     95.2923    217.8283   5.9906048550e+01   1.6506862854e+01    0.6747326    0.3652977  22.48  0.002893766    1.805    0.446
        26 -12.2678     17.0619    195.6302   7.7745890263e+01   3.0287413183e+01    0.5317611    0.2766791 -52.99  0.002245261    2.439    0.590
        27 -12.0522     27.4402    225.0321   7.6583938039e+01   2.2948815981e+01    0.3694889    0.1630031  63.33  0.001839528    2.161    0.537
        28 -13.0506     21.9119    215.8607   7.7466333374e+01   2.5381856506e+01    0.9858907    0.1677652  42.77   0.00375038    3.159    0.683
        29 -10.9287     11.6242    210.2841   7.9705096968e+01   2.7508417110e+01     0.372168     0.163131  47.02  0.001567785    1.720    0.419
        30 -10.4765    126.4035    220.9745   5.3123962242e+01   1.1764787759e+01    0.2407269    0.1475352  42.37     0.000842    1.563    0.360
        31 -10.9034      2.1160    220.4013   8.2231599694e+01   2.6179887398e+01    0.2502591    0.1106554  67.39  0.001322383    1.952    0.488
        32  -9.9085     56.1437    216.8173   6.9250219126e+01   2.1578673759e+01    0.1475463    0.1391574   9.51            0    1.264    0.209
        33 -10.1643    170.8039    214.9660   4.2894987137e+01   6.8024035955e+00    0.1922465    0.1415444  -1.92 0.0009242923    1.270    0.212
        34 -11.4353     64.8303    213.8113   6.6879361712e+01   2.1178014185e+01    0.4586941    0.1982817  41.86  0.002135167    1.863    0.463
        35 -10.5032    100.6293    233.2290   6.0304454317e+01   1.2965565378e+01    0.1509226    0.1136449 -43.22 0.0006639975    1.619    0.382
        36 -11.9660     12.4081    203.7158   7.9267721665e+01   2.8876244883e+01    0.4601944    0.2574736  78.16  0.002435611    1.676    0.403
        37 -10.7502     82.0452    209.6920   6.2237352915e+01   1.9870387464e+01    0.2510742    0.1677749  63.70  0.001337851    1.676    0.403
        38  -9.6771     27.6525    209.3087   7.5756560706e+01   2.6233989617e+01    0.1421694   0.06931166  52.69  0.000645102    1.706    0.414
        39 -10.3271     22.4319    210.6902   7.7105275452e+01   2.6438026891e+01    0.2230676    0.1108875  87.98  0.001131605    2.084    0.520
        40  -9.9673    124.0157    205.9676   5.1672123226e+01   1.4826909056e+01    0.1814033    0.1411101  -2.67  0.001035457    1.412    0.292
        41 -10.5107    113.1681    213.3365   5.5171811022e+01   1.4956983290e+01    0.3202899    0.2013374   1.57  0.001546084    2.187    0.543
        42 -11.3665    249.8829    198.7365   2.6694984704e+01  -4.8055172238e-01    0.3150591    0.1457435 -44.37  0.001661831    2.985    0.665
        43 -10.0771    172.6526    195.1848   3.9394730775e+01   9.7182539644e+00    0.1770694     0.158664 -46.25 0.0006886754    1.407    0.289
        44  -9.5706     44.3410    198.7002   7.0840289638e+01   2.6848161075e+01    0.1461794   0.07882721  53.68 0.0007036043    1.669    0.401
        45 -11.4669     98.0939    189.2388   5.5710931298e+01   2.1991132163e+01     0.425644    0.2904783  60.30  0.001682842    1.685    0.406
        46 -10.1243    103.9336    189.8138   5.4293941665e+01   2.1007052099e+01    0.2544585    0.1797784  20.98  0.001310628    1.422    0.297
        47 -10.5506     11.0669    187.9130   7.8965166751e+01   3.2596994672e+01    0.1978718    0.1568168  58.38 0.0004523763    1.026    0.025
        48 -12.2906     16.0410    181.5848   7.7325940927e+01   3.3677752937e+01    0.5281628    0.2181547  60.19  0.002305028    2.231    0.552
        49 -12.1579     22.7687    180.0688   7.5378868606e+01   3.3439880205e+01    0.4165619     0.235191  65.54  0.002088611    1.642    0.391
        50 -12.7801      4.8707    173.4407   8.0046270584e+01   3.6558847452e+01    0.5566902    0.2963756  66.36 0.0004288792    1.648    0.393
        51 -12.0544      5.0031    166.4683   7.9716020202e+01   3.8271715581e+01    0.5988766    0.3480326 -47.02  0.002255998    2.160    0.537
        52  -9.8557     48.0000    176.9643   6.7982209613e+01   3.1559176754e+01    0.2182758   0.07746028 -72.61 0.0008006107    2.930    0.659
        53 -11.2413     28.5206    172.0677   7.3200392955e+01   3.4862278141e+01    0.3540043    0.1997604  75.23  0.001687298    1.774    0.436
        54  -9.3389     94.2989    181.2879   5.5599446578e+01   2.4310856041e+01    0.1369782    0.1088966 -12.00 0.0002304565    1.556    0.357
        55 -10.4935     15.6401    164.4585   7.6485462578e+01   3.7946609988e+01    0.3291714     0.148742  52.90  0.001464192    1.969    0.492
        56 -11.9920    248.8157    160.4022   2.0239617689e+01   4.5746409109e+00    0.4823692    0.1669492 -27.45  0.002071948    3.042    0.671
        57 -11.7484      4.7436    154.0912   7.9223806646e+01   4.1427851599e+01    0.4648041    0.2296317 -79.19  0.002187819    1.858    0.462
        58  -9.4860     40.5882    153.5046   6.7838245402e+01   3.8369071469e+01     0.143366    0.1291372  71.52 0.0001477713    1.017    0.017
        59 -10.4034     25.3694    147.7166   7.2207925438e+01   4.1445310385e+01    0.2455586    0.1358166  59.78  0.001053865    1.765    0.433
        60 -11.5775     20.3667    144.3900   7.3578131231e+01   4.2773485191e+01    0.4382324    0.1806998 -57.42   0.00176143    2.432    0.589
        61 -11.8375     17.8108    138.5772   7.3961178273e+01   4.4541354011e+01    0.5848339    0.3848968  -0.26  0.002862953    1.930    0.482
        62 -13.5153    245.7254    132.8713   1.5469824576e+01   8.7859441446e+00     1.108314    0.3399756 -39.34  0.004838733    2.621    0.618
        63  -9.4571    197.5122    136.4702   2.3425924646e+01   1.5795173544e+01     0.134685    0.1172891 -20.51 0.0001188698    1.033    0.032
        64 -11.7123     13.8630    134.1832   7.4973298190e+01   4.6030490542e+01    0.4433075      0.29072 -14.42  0.002155099    2.013    0.503
        65 -10.0492     45.8428    130.9356   6.3211046302e+01   4.3811979909e+01    0.5953457    0.2385294  88.34  0.001552924    5.222    0.808
        66 -10.9594     14.4328    126.1426   7.4098130925e+01   4.8167896929e+01    0.2358454    0.2213745  38.01 0.0003294577    1.151    0.131
        67 -11.7286    247.4905    248.4511   3.4538031519e+01  -5.8311705615e+00      0.28852    0.1594748  10.33  0.001281747    1.444    0.307
        68  -9.8024     53.3163    115.6764   5.7904652787e+01   4.7014709823e+01    0.1629154    0.1103487  65.05 0.0004428807    1.666    0.400
        69 -10.0106     17.9886    113.0000   7.1422018222e+01   5.1504123601e+01    0.2211539   0.08182503  17.67 0.0008013572    2.935    0.659
        70 -10.4064     50.9750    110.5285   5.7825002505e+01   4.8729288894e+01    0.2091073     0.131957 -10.85  0.000620182    2.453    0.592
        71  -9.9851     62.7061    107.3567   5.2594075760e+01   4.7895052754e+01    0.1639271     0.116297  72.01 0.0007031294    1.692    0.409
        72 -10.3432    132.5897    103.1183   2.9024969576e+01   3.5198559565e+01    0.5073693     0.195001  38.32  0.001564252    3.316    0.698
        73 -10.7438     17.9837    102.9946   7.0220270336e+01   5.4258780719e+01    0.2210049    0.1997982  82.66 0.0005249117    1.052    0.049
        74  -9.7273     85.6344    101.2483   4.2636808413e+01   4.5500544020e+01    0.1626633    0.1190851  66.22 0.0003313859    1.618    0.382
        75 -10.3397     30.1188    100.8881   6.4683151551e+01   5.3791141353e+01    0.2334542    0.1873805  66.84 0.0005598973    1.281    0.219
        76  -9.9710     53.3281     96.9629   5.3976184381e+01   5.2061455278e+01    0.2073296    0.1814426 -60.63 0.0003069427    1.109    0.098
        77 -11.2995      2.6968     95.3890   7.6043790463e+01   5.7264577370e+01    0.4400218    0.2338538 -80.67  0.002048173    1.675    0.403
        78 -10.7159    171.4101     94.8272   1.8348342850e+01   2.8252496726e+01    0.2323028    0.2155768   0.48 0.0002787012    1.213    0.176
        79 -10.0944     24.5442     92.0226   6.5671278478e+01   5.6735337014e+01     0.228072    0.1341792 -72.91 0.0006759717    1.594    0.373
        80  -9.9073    165.8493     88.0322   1.7593409985e+01   3.0703272698e+01    0.2023389    0.1524889  80.66 0.0004341287    1.586    0.369
        81 -10.7345     82.4133     87.0802   3.9788261585e+01   4.9601386747e+01    0.3882697    0.2818661  81.22  0.001280973    1.884    0.469
        82  -9.9493    158.1183     84.8186   1.8205433568e+01   3.3041410737e+01    0.1973965    0.1776769  13.04  0.000398991    1.325    0.245
        83 -11.8695      4.8471     77.8239   7.3082613260e+01   6.1899041163e+01    0.4741857    0.3144956  85.93  0.001933933    1.503    0.335
        84 -11.8463      8.6840     73.7038   7.0489255527e+01   6.2802713587e+01    0.4635096    0.2167522  11.41  0.001349772    2.371    0.578
        85 -10.2580    175.2986     78.1805   1.3276375733e+01   3.0293886268e+01    0.2647095    0.1775154 -79.05 0.0009915561    1.967    0.492
        86 -12.6991    249.8099     84.2220   5.1997157650e+00   1.4931932327e+01    0.8600361    0.1934567 -39.52   0.00338907    3.058    0.673
        87 -10.9592    234.7200     75.1985   4.7896419778e+00   1.8725853580e+01    0.2770911     0.118063 -37.63   0.00134883    1.823    0.451
        88 -13.0054    249.7262     65.5883   1.3346470065e+00   1.7409460032e+01    0.8883718    0.1724545 -32.50   0.00299394    4.353    0.770
        89 -13.4033    249.1452    238.7040   3.2919631366e+01  -4.9651727718e+00     1.088443    0.2953149 -31.75  0.005550837    3.233    0.691
        90 -10.6206     13.4605     65.7866   6.6436214799e+01   6.4596802489e+01    0.3627619    0.1796501 -23.55  0.001499062    2.487    0.598
        91 -10.7016     22.7569     70.0457   6.2200729398e+01   6.2769448987e+01    0.3334311     0.184036 -11.48  0.001383627    2.423    0.587
        92  -9.5133     93.8074     59.1259   2.6261323039e+01   5.3284327311e+01    0.2074612    0.1812691   9.54  0.000669419    1.354    0.261
        93 -10.5082     13.3308     58.6665   6.4964308562e+01   6.6438216932e+01    0.1420432    0.0982159  59.45 0.0007052137    1.726    0.421
        94 -11.2137     88.9876    248.8177   6.4321045142e+01   1.1691430721e+01    0.2119824   0.09573615  45.98  0.001085992    1.991    0.498
        95 -10.9568     45.5365     48.9457   4.2813886263e+01   6.5111209540e+01    0.2437014    0.2000094  30.45 0.0004685391    1.217    0.179
        96 -10.1513    232.3669     50.6582   3.5957814760e+02   2.2433405864e+01    0.1371995   0.07119425 -57.83 0.0001310115    1.853    0.460
        97 -11.1550    212.0942     39.4720   3.5871550750e+02   2.7886162102e+01    0.2686897    0.1862321 -50.04 0.0007598623    1.178    0.151
        98 -12.5528    216.7271     38.6015   3.5811093227e+02   2.7035756807e+01    0.5877286    0.2874969 -84.30  0.002735716    2.609    0.617
        99 -10.6752      1.5296     38.9815   6.8155368458e+01   7.1965554967e+01    0.2035618    0.1159888 -68.97 0.0008007822    1.605    0.377
       100 -11.1855    247.8044     37.7747   3.5564162119e+02   2.1188802036e+01    0.1700792      0.10102 -53.28 0.0006831322    1.343    0.255
       101  -9.6959    242.6646     38.3177   3.5609732388e+02   2.2049424560e+01    0.1286659   0.06568011 -56.17 0.0007048506    1.698    0.411
       102 -10.1749     31.7212     35.0262   4.4930583987e+01   7.0152889675e+01     0.194961     0.170661 -29.88 0.0004602318    1.082    0.076
       103 -11.2128    246.2746     32.9961   3.5473198553e+02   2.2020587001e+01    0.1706814    0.1183998 -45.57 0.0006168502    1.083    0.076
       104 -10.3880    216.4766     30.4938   3.5620450075e+02   2.8072909803e+01    0.1293892    0.0981193 -55.72 0.0002101933    1.056    0.053
       105 -12.1365     73.6519    244.2737   6.7300037811e+01   1.4268227337e+01     0.277356    0.2097342  54.01 0.0007288942    1.258    0.205
       106 -12.3908    107.0492    242.4998   5.9828472623e+01   1.0572289540e+01    0.6454068    0.2282562 -60.74   0.00288747    3.743    0.733
       107  -9.6141     44.0995     24.8078   3.1883705288e+01   7.0115506773e+01     0.179164     0.101751  43.11 0.0008335381    1.711    0.415
       108 -10.0539    220.5105     23.4962   3.5427388182e+02   2.8056800200e+01     0.127542    0.0941667 -55.83 0.0008097316    1.065    0.061
       109 -12.0644     68.8948    245.8414   6.8461426386e+01   1.4535601588e+01    0.2339018    0.1288209  35.61  0.001182083    1.361    0.265
       110 -10.8824    225.0937     24.2406   3.5414620979e+02   2.7047634037e+01     0.254317   0.09583307 -49.84   0.00121249    2.082    0.520
       111 -10.8390    231.1804     27.6664   3.5452728714e+02   2.5458137698e+01    0.2533529    0.1013169 -49.26 0.0008849112    1.937    0.484
       112  -9.6881     40.9809     13.5549   2.6783816558e+01   7.2494001192e+01    0.1876651    0.1217773  43.23 -1.961886e-05    1.446    0.308
       113 -12.3825     57.2949    246.9870   7.1074827981e+01   1.5625382580e+01    0.4193044    0.2013935  39.57  0.001890798    1.524    0.344
       114 -11.7172     97.8467    242.3837   6.1820138424e+01   1.1718946088e+01    0.3049381    0.1875458  19.38  0.001083388    1.535    0.348
       115 -13.4253    231.7161    235.0940   3.5065490633e+01  -2.9139599415e+00     0.448313     0.246569 -20.81  0.002436249    1.547    0.353
       116 -12.6527    222.0188    239.7676   3.7293519632e+01  -2.4791081282e+00    0.2730573    0.1753236  13.44  0.001996647    1.237    0.192
