#   1 NUMBER                 Running object number                                     
#   2 MAG_AUTO               Kron-like elliptical aperture magnitude                    [mag]
#   3 X_IMAGE                Object position along x                                    [pixel]
#   4 Y_IMAGE                Object position along y                                    [pixel]
#   5 X_WORLD                Barycenter position along world x axis                     [deg]
#   6 Y_WORLD                Barycenter position along world y axis                     [deg]
#   7 A_WORLD                Profile RMS along major axis (world units)                 [deg]
#   8 B_WORLD                Profile RMS along minor axis (world units)                 [deg]
#   9 THETA_WORLD            Position angle (CCW/world-x)                               [deg]
#  10 FWHM_WORLD             FWHM assuming a gaussian core                              [deg]
#  11 ELONGATION             A_IMAGE/B_IMAGE                                           
#  12 ELLIPTICITY            1 - B_IMAGE/A_IMAGE                                       
         1 -13.8897    216.1326      8.4369   3.8446921783e+01   2.9953282160e+01     2.283802     1.420557  38.34  0.009962792    2.270    0.559
         2 -13.5455    191.2941     39.4086   4.9486387748e+01   3.2389572461e+01      1.16625     1.077334 -19.80  0.004184025    1.205    0.170
         3 -12.7732    196.0657     33.8133   4.7267661988e+01   3.1921373393e+01    0.6785352    0.6095911 -10.96  0.001171948    1.301    0.231
         4 -10.5766    189.7610     14.7875   4.2791485393e+01   3.5736727101e+01    0.2478923    0.2161331 -60.11 0.0007889983    1.120    0.107
         5 -10.5696     60.8302      8.0031   6.7851830253e+01   6.6196886153e+01    0.2184467    0.1246726   5.68   0.00110012    2.041    0.510
         6 -10.2462     73.0126      3.1668   6.1254945675e+01   6.4464676757e+01    0.1877629    0.1530495 -86.41   0.00110388    2.038    0.509
         7 -13.1123    176.2197     53.3145   5.5928676653e+01   3.4239584961e+01     1.747387     1.214453  27.99  0.004531545    1.864    0.464
         8 -10.4378     58.9647    229.8033   1.1951285909e+02   1.9809539828e+01    0.1702705    0.1314993  80.75 0.0004133721    1.129    0.114
         9 -12.3457    247.3818    246.6779   8.6581422389e+01  -1.1130912628e+01     0.658308    0.4928549   0.19  0.004843078    1.130    0.115
        10  -9.8391     36.9108    224.4671   1.2318047394e+02   2.3513540066e+01    0.1246144    0.1188116  -4.28 0.0004699471    1.722    0.419
        11  -9.5475     43.7083    210.2490   1.2084911325e+02   2.5560330887e+01    0.1889971    0.1217532  69.60 0.0002117793    1.303    0.232
        12  99.0000     43.1774    205.9406   1.2060387110e+02   2.6512529312e+01    0.3104977    0.2112315 -44.07  0.001112799    2.267    0.559
        13  -8.1067     86.2414    206.3929   1.1182983426e+02   2.0689198720e+01    0.1175891   0.09612889 -40.80 0.0006928864    1.663    0.399
        14 -10.3351     67.1814    204.1183   1.1555874736e+02   2.3863112323e+01    0.3308396    0.1988805 -46.40   0.00094503    2.339    0.572
        15  -8.5913     70.9986    200.4842   1.1437496930e+02   2.4108275204e+01    0.2562703    0.1561268  74.54  0.001099555    1.699    0.411
        16  -9.1794    193.3698    205.2873   8.9383459787e+01   2.6948416753e+00    0.1393542   0.09460748  11.61 0.0003880801    1.708    0.415
        17 -10.7415     56.7941    201.3306   1.1743288895e+02   2.5814526977e+01    0.3347264    0.2177246 -39.02  0.001758709    2.583    0.613
        18 -12.1075     58.4538    195.9855   1.1655654602e+02   2.6745397538e+01    0.4717599    0.2632488 -51.98   0.00157974    2.176    0.541
        19 -10.9083    193.2304    195.2233   8.7580930442e+01   4.3728785432e+00    0.9163574    0.5269471 -65.85  0.003139592    4.833    0.793
        20 -10.6076    201.8855    199.0987   8.6601451851e+01   2.1998020125e+00    0.1979193    0.1861155  45.79  0.001243416    1.281    0.219
        21  -8.5339     44.3608    198.4287   1.1972630130e+02   2.7956362180e+01    0.1191013   0.09535901  82.83 0.0001777343    1.050    0.048
        22  -9.7128     36.2434    197.9223   1.2133707875e+02   2.8994595642e+01    0.1448212    0.1153837  74.60 0.0003467514    1.049    0.047
        23  -9.7769     82.0893    195.0036   1.1135912200e+02   2.3699216186e+01    0.2098884    0.1710341  55.49  0.000421841    1.125    0.111
        24  -9.3223    139.6777    193.3215   9.8452118424e+01   1.4512768172e+01    0.1422464    0.1044676  72.05 0.0007045689    1.676    0.403
        25  -9.6014     64.9370    223.8348   1.1788287882e+02   2.0179050783e+01    0.1498598    0.1024903  86.95 0.0006468004    1.365    0.267
        26 -10.4888     95.6525    189.1318   1.0758788408e+02   2.2900940239e+01    0.4330784    0.2939433  79.45  0.001591484    1.661    0.398
        27 -10.9030     99.0788    181.7299   1.0574067642e+02   2.3975005539e+01    0.5242481    0.2824279 -48.05  0.001567819    2.112    0.527
        28 -11.3324    149.1788    187.9418   9.5457654553e+01   1.3839313103e+01    0.3898468    0.2644955  50.69  0.001457754    1.445    0.308
        29  -8.5594      1.1132    187.3634   1.2759251161e+02   3.4658492808e+01     0.104584   0.05263804 -73.78 0.0001860155    1.658    0.397
        30  -8.3051     91.2975    185.2743   1.0803469564e+02   2.4427761913e+01    0.1207815    0.1078044 -18.92 0.0002113023    1.529    0.346
        31 -10.7965    150.4628    178.8984   9.3533414858e+01   1.5406823870e+01    0.4601119    0.2963072 -72.10  0.001325983    2.342    0.573
        32 -11.5338    144.2052    179.0306   9.4956940412e+01   1.6566764889e+01    0.4927171    0.3105456 -56.25  0.001678347    1.753    0.430
        33 -10.5261    189.1561    177.1822   8.4910406761e+01   8.2790564170e+00    0.5531225    0.3800199 -61.64  0.002587109    2.085    0.520
        34  -9.7064     55.6365    223.1699   1.1960018348e+02   2.1511663995e+01    0.1425493    0.1096196  84.20 0.0002908607    1.141    0.124
        35 -10.0120    237.6592    175.3095   7.5296605343e+01  -2.7916125413e-01    0.1908375    0.1137434 -53.24 0.0007844734    2.645    0.622
        36  -9.4985    233.6549    174.6722   7.5873054280e+01   5.0927938103e-01    0.1432617   0.09507235   3.98 0.0007050492    1.748    0.428
        37 -10.7806    139.9892    171.9407   9.4595962534e+01   1.8848084099e+01    0.4207491    0.3601166  56.99  0.001581232    1.157    0.136
        38  -8.2375    194.5122    172.5302   8.2872266048e+01   8.0885779705e+00    0.1430849    0.1313691   9.32 9.448586e-05    1.006    0.005
        39  -9.6264    164.3195    222.3225   9.7940999535e+01   4.9334423655e+00    0.1291758   0.09500421   8.98 0.0004655385    1.671    0.402
        40 -10.9509     50.3826    224.7194   1.2071186977e+02   2.1865039827e+01     0.209691      0.12799  78.28 0.0008208848    1.468    0.319
        41 -10.8899    241.1969    169.5930   7.3504575946e+01  -3.7728248580e-03    0.2952405     0.165737  47.30  0.001439204    2.048    0.512
        42 -10.3497    230.5417    167.2446   7.4885953996e+01   2.2389921994e+00    0.2641096    0.1224924 -39.97  0.001140886    2.117    0.528
        43  99.0000     49.4511    218.7059   1.2041644360e+02   2.3161418844e+01    0.3318998    0.1719625  86.90  0.001391201    1.963    0.491
        44 -11.5942     95.9632    151.5660   1.0150546656e+02   3.1429997299e+01    0.5905671     0.477229 -18.41  0.003019081    1.692    0.409
        45  -9.8839    187.5435    152.1626   7.9924389296e+01   1.3293678145e+01    0.2769395    0.2146843  43.16  0.001041264    1.294    0.227
        46 -10.8416    133.8122    145.2284   9.0637335103e+01   2.5920299823e+01     1.334724    0.3187126 -54.43  0.002956588    6.516    0.847
        47  -9.1977    112.9975    150.9433   9.7041621682e+01   2.8602057376e+01    0.2458019    0.1780892  81.71 0.0008866701    1.744    0.427
        48  -9.4746    174.8816    149.1295   8.1943525901e+01   1.6543995119e+01    0.2301512    0.2101644 -85.27 0.0006072989    1.277    0.217
        49  -8.6797    108.8277    146.8804   9.7296074348e+01   3.0307765027e+01    0.2016098    0.1676137  81.92  0.000362999    1.295    0.228
        50 -10.8969    107.8286    138.1828   9.5762088063e+01   3.2540179770e+01    0.5637677    0.4403868 -46.08  0.002830618    1.296    0.228
        51 -10.8113    105.6881    131.0028   9.4776770528e+01   3.4631341239e+01    0.4655609    0.4146784  -2.19  0.002452202    1.348    0.258
        52 -11.6828     95.7502    137.4148   9.8828688377e+01   3.4846333984e+01    0.2987368    0.2689596 -74.20 0.0002943616    1.054    0.051
        53  -9.0235    117.6662    133.4073   9.2118946238e+01   3.1817689703e+01    0.3836307    0.1512668  36.09  0.001270237    2.936    0.659
        54 -10.1571    135.7839    129.0578   8.6425395125e+01   2.9161859874e+01    0.5239385    0.1247828 -50.49  0.001290354    4.789    0.791
        55 -10.2588    114.7921    128.9600   9.1862820331e+01   3.3409835923e+01    0.3298233    0.2955214   1.48 0.0008405221    1.310    0.237
        56  -9.4724    160.8641    128.0833   8.0112720448e+01   2.3943000070e+01    0.2486866    0.2192856 -79.78  0.001234054    1.297    0.229
        57 -10.5043    102.3869    124.7572   9.4273112624e+01   3.6712504559e+01    0.3045613     0.240304 -29.89  0.000538867    1.464    0.317
        58 -10.1065    120.4086    122.8916   8.8919396731e+01   3.3719468792e+01    0.4388075    0.2604084 -27.53  0.001638434    2.490    0.598
        59  -9.4431    134.9957    119.7805   8.4326128956e+01   3.1408038072e+01    0.3387914    0.1859137 -46.12  0.001103829    1.790    0.441
        60  -9.5057    110.0010    118.1900   9.0599073964e+01   3.6845594756e+01    0.2459316    0.2091648 -53.92 0.0003201966    1.131    0.116
        61 -10.0781    231.2186    113.6743   6.2681877860e+01   1.1129396917e+01    0.2712624    0.2642907 -27.19 0.0007609287    1.085    0.078
        62  -9.2721    167.5286    112.3489   7.4561293402e+01   2.5701839599e+01    0.3427691    0.2468806 -73.82  0.001019571    1.943    0.485
        63 -10.9646    118.5728    110.6230   8.6308498784e+01   3.6897753960e+01    0.6686606    0.3955154  61.26  0.002582326    2.309    0.567
        64  -9.5798    205.4188    110.0977   6.6261469176e+01   1.7385029265e+01    0.3195361    0.2281368  45.59  0.000900857    1.478    0.323
        65  -9.7374    134.4471    105.1820   8.0603302388e+01   3.4742315369e+01    0.3882607    0.1508159 -46.28  0.001283255    2.551    0.608
        66  -9.5100     61.4791    219.9641   1.1820908016e+02   2.1391795692e+01    0.1549678    0.1036585 -64.93 0.0006733457    1.617    0.381
        67  -9.6810     55.9776    217.3180   1.1904621981e+02   2.2625088901e+01    0.3148208    0.1408183  76.21  0.001402401    2.890    0.654
        68  -9.9363    184.5526    212.3282   9.2335767243e+01   3.0922771982e+00    0.2176076    0.2013017  88.70  0.001374573    1.441    0.306
        69  -8.4613    154.6265     82.1883   6.9006059142e+01   3.4734631510e+01    0.2122893    0.1485515 -25.74  0.000373996    1.576    0.366
        70  -8.3498    184.3552     77.2847   6.1406622363e+01   2.8298100305e+01    0.1567234    0.1187795  23.69 0.0007020241    1.668    0.400
        71  -8.7517     68.7467     71.7765   9.0639317943e+01   5.4396859773e+01    0.1739733    0.1572449 -69.72  0.000221098    1.297    0.229
        72 -10.3308     37.6542    211.9747   1.2215382544e+02   2.5910751460e+01    0.1491172     0.110282  80.86 0.0002064306    1.083    0.076
        73 -10.8471     71.9253    245.4301   1.1840643988e+02   1.5246293399e+01    0.3034498    0.1568719 -72.73   0.00178625    2.090    0.522
        74  -9.0956     75.6524    247.5287   1.1791015942e+02   1.4377649097e+01    0.1106463   0.08771212  65.30 0.0002142904    1.063    0.059
        75 -10.3569     33.1076    206.5054   1.2262484764e+02   2.7541648697e+01    0.2961107    0.1582455  73.67  0.001689889    1.696    0.410
        76 -19.5337     20.0332    146.1881   1.2020354824e+02   4.2294986289e+01     19.32173     4.664052 -75.28    0.0663839    3.891    0.743
        77  -9.4160    167.7791    231.4504   9.8626556963e+01   2.9015313147e+00    0.2026851    0.1764295  22.62 0.0006916536    1.103    0.093
        78  -9.2739     41.5689    232.3938   1.2287509074e+02   2.1456947314e+01    0.1088001   0.08624498  69.71 7.915627e-05    1.107    0.096
