#   1 NUMBER                 Running object number                                     
#   2 MAG_AUTO               Kron-like elliptical aperture magnitude                    [mag]
#   3 X_IMAGE                Object position along x                                    [pixel]
#   4 Y_IMAGE                Object position along y                                    [pixel]
#   5 X_WORLD                Barycenter position along world x axis                     [deg]
#   6 Y_WORLD                Barycenter position along world y axis                     [deg]
#   7 A_WORLD                Profile RMS along major axis (world units)                 [deg]
#   8 B_WORLD                Profile RMS along minor axis (world units)                 [deg]
#   9 THETA_WORLD            Position angle (CCW/world-x)                               [deg]
#  10 FWHM_WORLD             FWHM assuming a gaussian core                              [deg]
#  11 ELONGATION             A_IMAGE/B_IMAGE                                           
#  12 ELLIPTICITY            1 - B_IMAGE/A_IMAGE                                       
         1 -12.6390    139.6160     57.2652   3.1056696767e+01   4.2273339084e+01     1.362159    0.7356804 -46.72  0.005424824    2.013    0.503
         2 -12.4099     53.3190     34.1057   5.0349020417e+01   6.5038369885e+01     1.200004    0.7669004  10.10  0.003064785    2.020    0.505
         3 -13.5019     69.7088     21.5790   3.7259430469e+01   6.4131570606e+01     1.390071     0.984166 -54.58  0.003422106    1.952    0.488
         4 -12.0194     79.1322     21.3801   3.3664736157e+01   6.2194005477e+01    0.8614148    0.6688092 -55.93  0.004557157    1.683    0.406
         5 -12.9008     53.9801     17.4758   4.1846445063e+01   6.7708492213e+01     2.324269     1.338658   2.43  0.009849584    2.742    0.635
         6 -12.5259     75.2443      5.5831   2.6921842927e+01   6.4950105798e+01    0.9063206    0.6220399  78.13  0.002121342    2.044    0.511
         7 -12.6383     57.5045      4.3669   3.2854908971e+01   6.8792866784e+01    0.9334063    0.5268446  53.64  0.004692497    1.871    0.466
         8 -14.5214    125.9271     87.9604   4.4336738999e+01   3.9878831954e+01     4.164402     2.727035 -87.91   0.01472539    3.052    0.672
         9 -14.0118     28.8358     67.4528   7.3286716401e+01   6.0873441709e+01     1.811551     1.085609 -69.62  0.009219721    1.624    0.384
        10 -12.4931      6.2141     27.2767   7.3670126134e+01   7.1580826500e+01    0.9003211    0.4633067 -17.08  0.002714295    2.202    0.546
        11 -13.6819     12.2766     35.8202   7.2844236399e+01   6.9372756701e+01     1.503547    0.7285849 -30.77  0.003345242    2.140    0.533
        12 -13.4471     48.8487     51.6337   5.9478027916e+01   6.2203955510e+01     1.391587    0.7380125 -40.09  0.005032416    1.806    0.446
        13 -14.5842    212.5390     59.8868   1.9132103296e+01   2.3737218716e+01     3.511186     1.355962  62.42   0.01364753    2.732    0.634
        14 -11.8401    210.8582     20.9550   9.0411994541e+00   2.8984906514e+01     1.008417    0.5536489  53.00  0.001971531    2.010    0.503
        15 -12.3155    236.6824     38.1834   1.1002935328e+01   2.1128002899e+01     1.818406     1.044646 -71.39  0.007497916    2.058    0.514
        16 -13.9174    195.2152     42.5500   1.6683405374e+01   3.0219224926e+01       2.6832    0.9408345 -36.54   0.01003219    2.512    0.602
        17 -13.0558    233.4475     48.2818   1.3764202057e+01   2.0589450644e+01    0.9798097    0.8514839  79.33  0.006145535    1.241    0.194
        18 -13.0781    222.7153     39.2621   1.2619232255e+01   2.4091056992e+01     1.306526    0.6412526 -52.78  0.003648154    2.069    0.517
        19  99.0000    232.6807      3.0292   2.9175726951e+00   2.5808128300e+01     1.108277    0.7020537 -42.51  0.006513083    1.345    0.257
        20 -12.3555    229.0139     16.5029   6.3937091295e+00   2.5261572433e+01    0.6245184     0.357581  -8.96   0.00297907    2.452    0.592
        21 -12.8775    249.5443     10.3348   3.5716142183e+00   2.1483673367e+01    0.5722316    0.3711378 -31.31  0.003469344    1.415    0.293
        22 -13.4789    241.1671      6.7310   3.2617494174e+00   2.3604355602e+01    0.7083498    0.3198323 -68.87  0.003090721    2.372    0.578
        23 -14.1520     10.7054     69.9927   8.1779453679e+01   6.1607557310e+01     1.314081     1.131151 -42.01  0.008725809    1.160    0.138
        24 -11.7889    160.4336     38.4884   2.0636718207e+01   3.9666347114e+01    0.6124774    0.3024247 -24.90  0.002256961    2.205    0.547
        25 -12.3100    222.0178      9.5918   5.2151400060e+00   2.7561869928e+01    0.8262515    0.3735031 -44.41  0.003965075    1.887    0.470
        26 -13.1503     64.8384     34.2903   4.5314741714e+01   6.3037790685e+01     1.312438     0.851212 -34.88  0.006627421    1.494    0.330
        27 -12.7982    203.4299     40.7890   1.5163204619e+01   2.8433474581e+01     1.177055    0.4549416 -39.20  0.004128299    2.288    0.563
        28 -11.1574    148.6002     40.0785   2.3307207390e+01   4.2555352801e+01    0.8347011    0.4043359 -34.68  0.003348013    2.047    0.511
        29 -13.3480     81.3456     41.9806   4.2184290669e+01   5.8506330189e+01     1.577514    0.8922215  59.02  0.006531738    2.358    0.576
        30 -12.6340    226.2035     22.5130   8.0929965587e+00   2.5245566890e+01      0.65689     0.389089  57.35  0.001123091    1.853    0.460
        31 -11.4026     41.7885     21.0357   4.9793391050e+01   6.9119043265e+01     0.802328    0.4588099  34.49  0.003388625    1.788    0.441
        32 -11.3149     32.0545     20.5666   5.4945445419e+01   7.0533149507e+01    0.5682886    0.3317735 -47.37  0.003021379    1.695    0.410
        33 -11.9506    242.2964     22.5755   6.8442740305e+00   2.1710063016e+01    0.4431652    0.3609614  34.97  0.001956764    1.616    0.381
        34 -11.8383    191.3367     21.6827   1.1205700065e+01   3.3700282771e+01    0.6750303     0.441473  -8.64  0.003270275    1.936    0.484
        35 -11.2661    201.7958     20.6967   9.8389558987e+00   3.1206483235e+01    0.5310135    0.3032639 -68.61  0.002477416    1.921    0.479
        36 -10.1276    201.5106     16.1639   8.6276235492e+00   3.1762280062e+01    0.5618007     0.257274 -81.76  0.002191237    2.863    0.651
        37 -11.0135    170.5651     19.2269   1.2932017525e+01   3.9317366971e+01    0.5036708    0.3015112   8.34  0.002023961    2.564    0.610
        38  -9.0148    156.4474      8.7018   1.1327796505e+01   4.4107057649e+01    0.4064952    0.1475059 -18.53  0.001454186    3.237    0.691
        39 -10.5695    153.8847     15.9218   1.4125495320e+01   4.4074963652e+01    0.3228051    0.2861333  15.13  0.001582937    1.279    0.218
        40 -10.3643    103.2733     14.2182   2.3115336972e+01   5.7441526091e+01    0.3581805    0.1680731 -20.92  0.001472348    2.341    0.573
        41 -11.3032    150.0369     12.9577   1.3663546185e+01   4.5399364568e+01    0.2720719    0.2229066 -57.74  0.000543867    1.262    0.208
        42 -11.3154    150.2993     23.4497   1.7269087802e+01   4.4207242640e+01    0.5991499     0.354138 -10.26   0.00212533    2.145    0.534
        43 -10.6701    132.9852     12.4859   1.6203406117e+01   4.9974545729e+01    0.3312586    0.2181756 -68.34  0.001248109    1.845    0.458
        44 -10.1044    130.3435      8.8198   1.5251512507e+01   5.1025834187e+01    0.4558142    0.2619562 -14.86  0.002075609    1.995    0.499
        45 -12.3118    115.9898      9.9373   1.8386346791e+01   5.4665711577e+01    0.5056469    0.3176909   6.49  0.001613743    1.998    0.500
        46 -10.9862    123.7813     10.3083   1.7012783585e+01   5.2607576077e+01    0.5031887    0.3292378  50.08   0.00133504    1.409    0.290
        47 -10.2482     88.5990     11.5823   2.5842446848e+01   6.1266043513e+01    0.2486863      0.15392 -24.96  0.001219092    1.678    0.404
        48 -12.5601    172.9648      6.6221   8.7173742709e+00   3.9953801403e+01    0.5179411    0.3035809  -0.41  0.001976444    2.385    0.581
        49 -10.0011    110.2021      9.7817   1.9543988645e+01   5.6161702759e+01    0.2895761    0.1655261  -2.79  0.001235467    2.215    0.549
        50 -10.1665    145.1279     10.1316   1.3388239037e+01   4.6981053600e+01    0.3565672    0.1710284  64.71  0.001516624    1.847    0.459
        51  -9.5508     44.6847     10.2817   4.2350524099e+01   7.0353056623e+01    0.1729522    0.1065101 -23.46 0.0008613253    1.576    0.366
        52 -10.9189     27.0449      9.6422   5.2047810018e+01   7.3038454709e+01    0.2412883    0.1733533  -3.50 0.0006350078    1.340    0.254
        53 -11.3663    193.7044      7.4384   6.9318450554e+00   3.4575797164e+01    0.2770024    0.2602896  50.02  0.001132026    1.216    0.178
        54  -9.4469    215.2565      7.6497   5.2260343005e+00   2.9325411555e+01    0.1388836   0.07901535 -54.05 0.0006963266    1.601    0.375
        55  -9.5712    210.7895      5.9958   5.1375115991e+00   3.0543144949e+01    0.1663305   0.09893561 -28.01 0.0004992643    1.667    0.400
        56 -10.3625    146.2391      5.7575   1.1674213443e+01   4.7088845002e+01     0.242561    0.1765202  54.56 0.0008868033    1.299    0.230
        57 -10.3653    142.7742      2.6288   1.1032778710e+01   4.8280901063e+01    0.2974494    0.2285111 -74.63  0.001091713    1.354    0.261
        58  -9.3017     91.2974      6.6615   2.2691590613e+01   6.1138518059e+01    0.1354528    0.1048124 -60.86 0.0004351988    1.658    0.397
        59  -9.9375     13.5480      6.0429   5.9108191412e+01   7.5152504982e+01    0.1832767   0.07331039 -31.55 0.0004822864    2.646    0.622
        60 -10.9776      2.8431      5.9974   6.7190721814e+01   7.6034797430e+01    0.2422818    0.1569976   1.34  0.001538553    1.568    0.362
        61  -9.9018    101.9638      4.4405   1.9003529461e+01   5.8738279228e+01    0.2726907    0.1821138 -43.30  0.001369824    1.720    0.419
        62  -9.2662     97.5343      5.4882   2.0533852032e+01   5.9738623393e+01    0.1373829    0.1266061  46.21 0.0008092004    1.043    0.041
        63  -6.6202    183.5345      3.5485   6.7439401441e+00   3.7509655462e+01    0.4747345    0.2168639 -64.78  0.001762783    2.544    0.607
        64 -11.0327    187.0893      1.4104   5.8075233658e+00   3.6798931019e+01    0.2503254    0.1263784  66.34 0.0006394537    1.832    0.454
        65 -10.7214    112.1233      3.8403   1.6575379147e+01   5.6220246270e+01      0.27642    0.2090155  75.85  0.001038776    1.324    0.245
        66 -11.4746     49.9630      1.4071   3.4370494205e+01   7.0574264944e+01    0.2539829     0.192679  25.22 0.0003423522    1.172    0.147
        67 -10.5595     46.1262      1.3622   3.6162091405e+01   7.1279034412e+01    0.2329573    0.2161023  70.13  0.001522322    1.543    0.352
        68  -9.2804     19.6047      4.2765   5.3735792680e+01   7.4808768762e+01    0.1060056   0.09586316  55.88 0.0006991901    1.745    0.427
        69 -11.0092    217.2629      2.3666   3.7485467615e+00   2.9366013124e+01    0.2687298    0.2045397  54.59  0.001275169    1.511    0.338
        70  -9.7567    207.4534      2.0313   4.3551303206e+00   3.1716790143e+01    0.1887542     0.122509 -26.98  0.001021704    1.574    0.365
        71  -9.6640    135.0125      2.0682   1.1930723922e+01   5.0386684133e+01    0.2212566    0.1507288 -65.45 0.0004416725    1.654    0.395
        72 -12.2506     86.6203      1.3647   2.1319496626e+01   6.2746502700e+01    0.4797588    0.1186334  61.45  0.001283405    3.578    0.721
        73 -10.6120    250.0897      1.4391   1.5745343728e+00   2.2252830614e+01    0.1542841     0.105298 -87.11 0.0001545505    1.432    0.302
        74 -12.2517     57.2051     59.3485   5.8500955246e+01   5.9346059309e+01    0.6780379    0.3319986 -57.52  0.002735703    2.232    0.552
        75 -10.1064    249.9991     93.7475   2.2581969668e+01   1.1213280116e+01    0.1792991    0.1620838 -23.54  0.001168913    1.064    0.060
        76 -12.4982     10.3785     82.0662   8.3863649144e+01   5.8709328636e+01    0.5410687    0.2158875 -67.88  0.001554735    1.994    0.498
        77 -11.0929    173.4768     92.1336   3.4361639847e+01   2.7894544665e+01    0.3985832    0.2967116  87.02  0.001127296    1.852    0.460
        78 -10.1907    168.0379     89.8129   3.4831282896e+01   2.9595605975e+01    0.2756387    0.2229837  56.21  0.001038864    1.268    0.212
        79 -11.5391     96.4429     90.7463   5.3878893504e+01   4.5542286481e+01    0.5355087    0.4147303  69.20  0.002196231    1.586    0.369
        80  -9.3391     79.3461     91.2712   5.9695556977e+01   4.8549169256e+01    0.1479532     0.115845 -10.75 0.0006994479    1.619    0.383
        81 -13.2458     38.1982     80.2135   7.2329687722e+01   5.6899449514e+01    0.9062402       0.4354 -53.94  0.003314169    1.799    0.444
        82 -13.8142    195.2464     85.5282   2.8533535267e+01   2.3909420863e+01     2.041329     1.277431 -39.04  0.009485683    1.520    0.342
        83  -9.0111    242.3166    112.2724   2.7769351728e+01   1.0062528435e+01    0.1285196   0.09377903   8.28 0.0002450011    1.561    0.360
        84  -9.9793    211.4546    111.9758   3.2455543112e+01   1.6123927096e+01    0.2185753    0.1849382  55.84  0.001221268    1.333    0.250
        85 -13.7895    239.2613     61.1356   1.6253333981e+01   1.7706990717e+01     1.336537     1.022375  63.05  0.001006122    1.466    0.318
        86 -11.5783    215.3225     42.6080   1.4270440735e+01   2.5377446095e+01     0.408825     0.239307 -37.25   0.00138827    1.534    0.348
        87 -11.3559     96.7043    110.1964   5.8909954637e+01   4.1029391821e+01    0.3877922     0.209798 -39.61  0.001537832    2.115    0.527
        88 -10.7502     38.4692    110.0314   7.7913685372e+01   4.9521351325e+01    0.2141913     0.121138 -68.89 0.0008613485    1.597    0.374
        89 -10.9866    196.5112    107.9985   3.4098754351e+01   1.9934277391e+01    0.5333107    0.3671445 -70.01  0.002328196    2.299    0.565
        90 -10.3977    191.4529    102.7037   3.3690610704e+01   2.1937225930e+01    0.4407464    0.1321246 -37.71  0.001414737    3.120    0.679
        91 -11.6633    161.4430    106.5691   4.0809095817e+01   2.8040778116e+01    0.3331293    0.2236093 -57.44  0.001437867    1.826    0.452
        92 -12.1343    211.2612     47.5875   1.6050658997e+01   2.5689412901e+01    0.4537344    0.3407817 -73.54 0.0005950764    1.427    0.299
        93  -9.9807    209.9344    105.6719   3.1186858414e+01   1.7439226511e+01    0.2549077    0.1872803 -53.79 0.0009562079    1.570    0.363
        94 -10.2868     15.4836    106.4853   8.5221581813e+01   5.2396739499e+01    0.1282643    0.1089165 -80.51 5.672633e-05    1.003    0.003
        95 -10.6600    183.2953    103.1341   3.5349429622e+01   2.3695132577e+01    0.3431928    0.2774478 -31.55  0.001400403    1.207    0.172
        96 -11.0087    144.6094    103.0160   4.3793953120e+01   3.2569738875e+01    0.3810239     0.310693  -1.07  0.001808555    1.477    0.323
        97 -10.8548    224.0000     88.0113   2.4689334235e+01   1.7172166925e+01    0.3176504   0.09108987 -36.59  0.001097946    2.949    0.661
        98 -11.4860    237.5100     86.4235   2.2475183370e+01   1.4631847720e+01    0.5381805    0.3380183  82.41   0.00249382    2.503    0.601
        99 -10.7995    233.3626     85.3043   2.2751549888e+01   1.5625783766e+01    0.2594219    0.2343849 -19.23  0.001061522    1.068    0.063
       100 -12.2795     48.5098     85.4901   6.9488819063e+01   5.4451809045e+01    0.6841813    0.2122486  25.32  0.002236991    4.053    0.753
       101 -12.1439     52.2880     86.2801   6.8230920494e+01   5.3788850487e+01    0.4663839    0.2823737 -20.24  0.001529501    2.526    0.604
       102 -10.8350     55.0664     81.9769   6.6092786862e+01   5.4458686050e+01    0.2268599    0.2056963  26.89 0.0003256901    1.186    0.157
       103 -10.7903      2.1140     88.1180   8.7828972857e+01   5.7682351859e+01    0.1975745    0.1423464 -57.65 0.0008384218    1.244    0.196
       104 -11.5671    161.6404     84.7318   3.4735815011e+01   3.2040370137e+01      1.53376    0.7628638  32.01  0.005046867    3.179    0.685
       105 -11.5790    168.7730     80.5722   3.2057912405e+01   3.1038615817e+01    0.3715649    0.2861724  75.89 0.0008559892    1.523    0.343
       106 -11.4873    167.1665     76.8232   3.1291521840e+01   3.2073496033e+01    0.2990834    0.2707471  12.24 0.0003092513    1.196    0.164
       107 -11.6141    249.7566     83.9012   2.0376962013e+01   1.2590313990e+01    0.4172859    0.2916223 -35.29  0.001056618    1.218    0.179
       108 -11.3531    175.4292     85.9889   3.2275009800e+01   2.8500231801e+01    0.5578038    0.2527873  38.92  0.001791256    2.785    0.641
       109 -11.9806    180.5101     82.4875   3.0330820013e+01   2.7876894665e+01    0.6810613    0.3989135 -71.81  0.002331355    3.386    0.705
       110 -11.0258    180.0000     77.0536   2.8900999808e+01   2.8897408494e+01    0.4353985    0.2386638 -31.16 0.0009810512    1.833    0.455
       111 -12.0130    177.2150     70.9670   2.7667847405e+01   3.0564838677e+01    0.8560709    0.4086342 -48.27  0.001575268    2.330    0.571
       112 -13.8697     67.0018     83.0737   6.1869552112e+01   5.2477002527e+01     1.607033    0.9601195 -59.63  0.004133245    1.688    0.408
       113 -11.5031    147.5392     83.2603   3.7462547482e+01   3.5719172236e+01    0.6613494    0.3959058 -44.85  0.002072672    1.710    0.415
       114 -12.9243    215.0809     82.9783   2.4729017857e+01   1.9831903788e+01    0.4368798    0.4169325 -19.51  0.002632981    1.047    0.045
       115 -11.6172     83.3435     83.7959   5.6224045013e+01   4.9572988619e+01    0.2765571    0.2515127  42.81 0.0003702257    1.133    0.117
       116 -12.1072    222.9291     79.6239   2.2772943218e+01   1.8621136938e+01    0.3539332    0.2839287  70.21  0.001200154    1.424    0.298
       117 -11.4676    230.8907     77.8663   2.1282722383e+01   1.7184839942e+01    0.5735601    0.2262233  68.23  0.002028744    3.841    0.740
       118 -11.5838    204.6602     79.3208   2.5362755314e+01   2.2717182276e+01    0.2638348    0.2522286 -34.36  0.001345314    1.016    0.016
       119 -12.3539    200.7723     76.5745   2.5244431059e+01   2.4032359235e+01    0.4535975    0.3240714  74.32   0.00190471    1.651    0.394
       120 -12.2872    249.6899     75.2640   1.8408143271e+01   1.3754342307e+01    0.3149918    0.2560882 -26.55 0.0003406058    1.109    0.098
       121 -13.7980     45.4642     72.8748   6.7543736295e+01   5.7839891638e+01    0.9693382    0.7060317 -51.40  0.002970941    1.236    0.191
       122 -10.7991    155.1490     76.5411   3.3722384993e+01   3.5084036790e+01    0.3892944    0.2766564  60.77  0.001279327    1.469    0.319
       123 -12.8452    221.2515     69.9059   2.0566396393e+01   2.0372851753e+01    0.5926573    0.3808205  59.12  0.003013154    1.682    0.406
       124  -9.5079    243.3458     73.2852   1.8670407831e+01   1.5265951559e+01    0.1272904   0.09746747  16.33 0.0002672774    1.648    0.393
       125 -11.8009    218.1147     75.5767   2.2422746709e+01   2.0253571443e+01    0.3101232    0.2450389  31.52  0.001319262    1.464    0.317
       126 -10.0477    161.3834     66.8292   2.9458736349e+01   3.5187244843e+01    0.2750674    0.1445738 -36.69 0.0003441271    1.870    0.465
       127 -11.3878    166.5852     64.8337   2.7830841310e+01   3.4200450889e+01    0.6872286    0.6284854  53.63  0.003680591    1.096    0.088
       128 -11.5542    185.3900     66.9103   2.5078470324e+01   2.9191008101e+01    0.3872599    0.2849007 -12.17  0.001695933    1.598    0.374
       129 -11.0773    181.4730     61.8036   2.4264741357e+01   3.0936753968e+01    0.3656851    0.2644055 -63.74 0.0009650219    1.583    0.368
       130 -13.0761      5.3053     55.7401   8.1582890125e+01   6.5268336302e+01    0.6623434    0.4450911 -36.96 0.0007286092    1.425    0.298
       131 -11.1869      3.3599     48.3693   8.1027267293e+01   6.7064409657e+01    0.3321418    0.2345227  53.86  0.001297918    1.786    0.440
       132 -11.7479    127.1980     58.9414   3.4641591329e+01   4.5091540741e+01    0.6270354    0.3082055  37.38  0.002243655    2.499    0.600
       133 -11.9788    161.4564     54.4602   2.5591067812e+01   3.7125408202e+01    0.9673945    0.4828387 -34.07  0.003530492    1.977    0.494
       134 -10.8182    167.1243     51.1468   2.3518000983e+01   3.6159430267e+01    0.3450693    0.2238783 -25.18 0.0003542068    1.643    0.392
       135 -10.5628    181.9338     31.8042   1.5308358896e+01   3.4922084168e+01    0.5002437    0.2818085 -20.71  0.002203627    1.992    0.498
       136 -10.0319    159.8040     26.2399   1.6709844638e+01   4.1364646174e+01    0.5799841    0.3000398 -68.75  0.002123011    2.882    0.653
       137 -12.4003    173.2087     44.0050   2.0285597260e+01   3.5598146416e+01    0.7735004    0.6107481  25.67  0.002541578    1.512    0.339
       138 -10.9026    177.8173     37.9754   1.7740752505e+01   3.5208820146e+01    0.3453537    0.2442783  -2.94  0.001106994    1.825    0.452
       139 -11.1305    168.1836     32.1960   1.7369055194e+01   3.8441229222e+01     0.578173    0.4616388 -78.10  0.002214444    1.307    0.235
       140 -12.2584     75.6117    103.3551   6.3996021008e+01   4.6292719473e+01    0.3833609    0.2544409 -82.26 0.0009040328    2.000    0.500
       141 -11.1086    164.6956     38.3400   1.9877743873e+01   3.8569721606e+01    0.6274593    0.3662207 -42.95  0.001487257    1.719    0.418
       142 -10.4146    182.5029     45.5102   1.9312369317e+01   3.3014727104e+01    0.3880425    0.3341037  15.52  0.002083725    1.362    0.266
       143 -11.2609    174.2838     54.6057   2.3342743931e+01   3.3820054497e+01    0.4096629    0.2793885 -49.66  0.001000557    1.510    0.338
       144 -10.5888    170.2607     56.2169   2.4529444499e+01   3.4605216492e+01    0.2818613    0.2172537  72.75  0.001330813    1.358    0.264
       145 -11.9468    178.1672     52.0382   2.1928193890e+01   3.3205823654e+01    0.7578698    0.4826684  60.61  0.002133599    1.558    0.358
       146 -10.5796     69.5450     55.2640   5.1971751613e+01   5.8214464092e+01    0.3347393    0.2787141  59.85  0.001789138    1.461    0.315
       147 -10.4468    165.0382    102.4557   3.8926578452e+01   2.7991405858e+01     0.256092    0.2024164 -35.67 0.0009417518    1.261    0.207
       148 -10.6114    249.5286     38.0472   9.8514788936e+00   1.8450329430e+01    0.2575611    0.1830967 -58.90 0.0008660341    1.317    0.241
       149 -12.3839    246.7653     42.1618   1.1038251920e+01   1.8529242448e+01    0.3696694    0.2463343 -60.82  0.000934655    1.490    0.329
       150 -11.1562    245.3503     50.0319   1.3003589034e+01   1.7861757439e+01    0.3419597    0.2234318  74.32  0.000318648    1.747    0.428
       151 -10.8509    247.8307     46.6772   1.1990296353e+01   1.7766227035e+01    0.4163437     0.239558 -78.90  0.001411246    2.285    0.562
       152 -11.0588     90.4115     51.0237   4.2625666132e+01   5.4998135450e+01    0.2444537    0.2062911  37.99 0.0004387605    1.172    0.147
       153 -13.1022    116.8472     93.9861   4.8629608519e+01   4.0629160337e+01      1.04825    0.5979535 -66.66   0.00110416    2.992    0.666
       154 -13.3974    106.6774     95.4534   5.2032166277e+01   4.2447070114e+01     1.155354    0.5581774 -41.50  0.003098092    2.159    0.537
       155  -8.7898    105.5185     43.4163   3.4840458063e+01   5.2928218439e+01    0.3230073    0.1895474 -15.18  0.001063288    2.331    0.571
       156 -11.0019     99.0221     47.9944   3.8617668439e+01   5.3657956457e+01     0.360375    0.2844644   9.51 0.0008385647    1.460    0.315
       157 -10.1944    102.3136     46.6886   3.7085696359e+01   5.3132625713e+01    0.2606843     0.180711  48.14 0.0005856353    1.408    0.290
       158  -9.9758    240.8534     47.5369   1.2847596666e+01   1.9103994286e+01    0.2174041    0.1585847 -38.32 0.0004531226    1.181    0.154
       159 -10.9962    132.1048     40.0054   2.6701661302e+01   4.6857373541e+01    0.4859934    0.3449756  70.27  0.001829422    1.494    0.331
       160 -10.6003    142.0914     46.1105   2.6697258082e+01   4.3386431083e+01    0.5660933    0.3884256  65.04  0.001397412    1.474    0.321
       161 -12.6697    136.9322     82.2411   3.9733152225e+01   3.8453494628e+01    0.7601489    0.5651535 -45.77  0.001660274    1.374    0.272
       162 -10.8803    132.6590     45.6681   2.8625495864e+01   4.5878996218e+01    0.3164124    0.2103873  38.63  0.001411498    1.605    0.377
       163 -11.5522     62.8308     46.2859   5.1277970704e+01   6.1165124525e+01    0.5449643    0.4208751  46.66  0.002450864    1.454    0.312
       164 -11.1346    126.1317     44.7624   2.9841839921e+01   4.7674322151e+01    0.5383213    0.3960241 -63.64  0.002229187    1.683    0.406
       165  -9.4404    121.6873     45.3326   3.1158697777e+01   4.8699998102e+01    0.2779451    0.1862641  89.96  0.001124134    2.297    0.565
       166 -10.8446     41.1906     45.1752   6.0729625286e+01   6.4576977286e+01    0.3054515    0.2581158  40.18  0.001058264    1.372    0.271
       167 -11.0085     35.8136     42.6154   6.2451515125e+01   6.5762870798e+01    0.4763997    0.1941675  31.62  0.001319071    2.595    0.615
       168 -10.6407     39.6226     39.8984   5.9482630637e+01   6.5867466071e+01    0.4995906    0.3102869 -33.92  0.002586317    1.541    0.351
       169 -10.7341    186.8924     44.4612   1.8366164243e+01   3.2045939495e+01    0.3082415    0.2119666 -34.55  0.001515721    1.410    0.291
       170 -11.0587     99.4410     41.1923   3.5776311441e+01   5.4701919270e+01    0.3625487    0.3090757 -51.06  0.001837603    1.308    0.236
       171 -10.4213     93.7728     42.4217   3.8074699756e+01   5.5780492942e+01    0.3448525     0.228485 -21.11  0.001580245    1.697    0.411
       172 -12.2158    100.0088     79.4154   4.9354273481e+01   4.7312329641e+01     1.048653     0.526163 -51.95  0.004019171    2.164    0.538
       173 -10.0128     21.0916     37.8809   6.8556795044e+01   6.8252638211e+01    0.1858918     0.147541 -36.65  0.000299466    1.076    0.070
       174 -12.7707    135.4527     71.1743   3.6640703553e+01   4.0889574292e+01     2.205414    0.6661422  54.93  0.006366903    3.575    0.720
       175 -10.3070    122.6056     33.7505   2.6533393463e+01   5.0169064812e+01    0.4440888    0.1933106 -43.66 0.0008942215    2.570    0.611
       176 -10.4417    114.5008     28.0064   2.6208219409e+01   5.2988717319e+01    0.2537167     0.178926  41.15 0.0003246391    1.389    0.280
       177 -10.9851    112.9862     32.5607   2.8436197584e+01   5.2753376319e+01    0.4529347    0.2856206  18.25  0.001674895    2.180    0.541
       178  99.0000    108.9910     32.2467   2.9359836433e+01   5.3782204269e+01     0.822525    0.5567937  89.17  0.003536943    2.232    0.552
       179  -9.7235    152.2997     33.7573   2.0469471470e+01   4.2424997802e+01    0.1841882    0.1600466  35.04 0.0003751018    1.224    0.183
       180 -10.4233    131.6115     33.4694   2.4398713810e+01   4.7890529588e+01     0.299233    0.2048264 -67.89 0.0004073656    1.895    0.472
       181 -11.1531     92.6170     32.9050   3.4437988138e+01   5.7553811371e+01    0.3948099     0.265141 -18.93  0.001876485    1.635    0.388
       182 -10.3575     75.2356     33.6313   4.0840726863e+01   6.1160093278e+01    0.2834224    0.2002197  44.35 0.0009979798    1.414    0.293
       183 -10.1904    206.6909     31.8515   1.2363298377e+01   2.8742279713e+01    0.4065706    0.1341641 -32.78  0.001542951    2.613    0.617
       184  -9.1898    247.2671     32.6721   8.7998595216e+00   1.9537464832e+01    0.1325246   0.07637233 -53.00 0.0004206957    1.574    0.365
       185 -11.8319     85.8585     28.4938   3.4694119852e+01   5.9719787845e+01    0.4849828    0.2498222  43.10 0.0006680824    1.871    0.465
       186  -9.4247     90.5023     26.5692   3.2304544936e+01   5.8954326390e+01    0.1418897    0.1325934  27.41 0.0001303417    1.031    0.030
       187 -10.3783    128.6044     27.1380   2.2649702891e+01   4.9487908047e+01    0.4110643    0.1734822 -26.47  0.001321236    2.507    0.601
       188  -9.9986    123.8472     26.9844   2.3617791942e+01   5.0738879425e+01    0.5332627    0.2295105 -39.02  0.002044415    2.414    0.586
       189  -9.1695     34.9727     26.5128   5.6179821248e+01   6.9075194048e+01    0.2120681    0.1560919 -23.02 0.0004084289    1.257    0.204
       190 -13.0950     92.0828     67.7987   4.8160778280e+01   5.1373558675e+01      1.71978     1.092597  69.01  0.006731926    2.593    0.614
       191  -8.0795     27.2304     18.6407   5.6830423694e+01   7.1464656894e+01    0.2598256    0.1809714   5.59 0.0008790517    1.486    0.327
       192 -11.6990     29.0483     26.9316   5.9706681999e+01   6.9704175974e+01    0.3777372    0.1992482 -35.59  0.000377756    1.763    0.433
       193 -12.3622     91.4150     59.5308   4.5477140303e+01   5.3172447816e+01     1.444342    0.8009115  63.38  0.005241776    2.951    0.661
       194 -10.2878    168.2961     26.1749   1.5438083893e+01   3.9134257243e+01    0.2651447    0.2126537 -63.44  0.001401787    1.265    0.210
       195 -10.4729    135.5646     25.4155   2.0595164196e+01   4.7876719408e+01    0.4565583    0.2709957 -86.31  0.001825596    2.396    0.583
       196 -10.2095    234.1006     24.3434   7.8939672287e+00   2.3283920617e+01    0.3669413    0.3096491  86.09  0.002354739    1.219    0.180
       197 -11.1673    246.6492     22.7098   6.5580309019e+00   2.0780044689e+01        0.245    0.2041284  82.49  0.001126853    1.284    0.221
       198 -12.6688    152.2152     62.3660   2.9953325857e+01   3.8239197578e+01     1.355373     1.119157 -62.75  0.005793586    1.331    0.249
       199 -10.7151    176.0639     24.5142   1.3867174057e+01   3.7296166448e+01    0.3778271    0.1876918 -29.84  0.001625192    1.991    0.498
       200 -11.2829    112.9801    246.8374   7.5990767295e+01   1.0938323832e+01    0.3151466    0.2123992 -28.63  0.001537599    2.387    0.581
       201 -10.6263    185.6490     23.0946   1.2260014911e+01   3.4986598936e+01    0.3215286    0.2041574 -87.25  0.000918248    1.697    0.411
       202  -9.6518    195.6781     14.7790   8.8021455189e+00   3.3349670789e+01    0.2919309    0.2014987 -26.93 0.0008362353    1.492    0.330
       203  -9.2220    106.2962     17.7287   2.3911165588e+01   5.6299872375e+01    0.1979685    0.1563714  26.49 0.0001841801    1.295    0.228
       204 -11.6866     98.8831     21.9751   2.7740116097e+01   5.7602308109e+01    0.5411069    0.2827627  61.20   0.00230904    1.960    0.490
       205 -10.3887    103.6101     19.8817   2.5536184698e+01   5.6711656944e+01    0.3194521    0.2564857  80.18   0.00167818    1.437    0.304
       206 -10.8802     36.2872    249.1435   9.0576900808e+01   2.0044321357e+01     0.143536      0.12676 -84.27  0.001206563    1.456    0.313
       207 -10.0079    180.5023    243.4913   6.2882920989e+01   1.8968356843e+00    0.1160855   0.08724172  26.99 -4.279181e-05    1.050    0.048
       208  -9.2233    236.6777    146.2704   3.5984868143e+01   6.2544293842e+00    0.1128508    0.1019778 -59.13 0.0002360831    1.569    0.363
       209  -9.9127    163.2310     21.0180   1.4490997024e+01   4.1052366147e+01     0.204348    0.1795553  41.14 0.0004809715    1.219    0.180
       210  -9.6784    180.2498     19.9994   1.1975013689e+01   3.6714044427e+01    0.1861038    0.1705127  84.23 0.0004772888    1.046    0.044
       211 -11.1795    130.1317     19.4091   1.9376232419e+01   4.9997897868e+01    0.3067892    0.2483766  78.42 0.0005043604    1.249    0.199
       212  -9.7985     19.8044     19.1705   6.1712738068e+01   7.2161315801e+01    0.1910074    0.1553257  24.92  0.001244073    1.393    0.282
       213  -9.9211    220.3087    124.6486   3.3933211217e+01   1.2384945808e+01    0.3810845    0.1979008  49.00  0.001751131    2.076    0.518
       214  -9.2884    220.3441    121.3088   3.3164972895e+01   1.2889540688e+01    0.1421163    0.1282517 -18.34 0.0005847389    1.046    0.044
       215  -9.7001    139.4174     16.6694   1.6663318185e+01   4.7842727162e+01    0.1841909    0.1424503  -4.84   0.00093905    1.491    0.329
       216 -10.3716    125.0045     16.4356   1.9219016186e+01   5.1664004319e+01    0.2531132    0.1862752 -41.65 0.0001329329    1.460    0.315
       217 -10.0118    121.3020     17.0068   2.0198286945e+01   5.2565017101e+01    0.2342818    0.1737057  62.14 0.0006533098    1.256    0.204
       218 -10.9333     94.1367     16.0305   2.6368926355e+01   5.9456430497e+01    0.2590653    0.1825959  49.95  0.001029226    1.302    0.232
       219 -10.5723    152.9378    124.0595   4.7185102323e+01   2.6514529495e+01    0.2176952    0.2126566  23.46            0    1.026    0.025
       220 -12.7327     79.6934     59.2289   4.9528613350e+01   5.5559246693e+01     0.837113    0.5475686  28.32  0.003857659    1.709    0.415
       221 -13.1171     79.7574     50.7007   4.6297366116e+01   5.7227499907e+01    0.8377759    0.5441903  26.19  0.003836991    1.778    0.438
       222 -10.1403    187.1852     12.9907   9.1383056900e+00   3.5671697244e+01    0.2609368    0.1718053 -82.87 0.0004375589    1.542    0.351
       223 -12.1829    112.5772     67.8388   4.1715919079e+01   4.6934791147e+01    0.4360588    0.4033726  28.01 0.0006397415    1.085    0.078
       224 -13.7769    117.2689     61.4787   3.8182519192e+01   4.7037545572e+01     1.026592     0.786613  81.96  0.001879538    1.715    0.417
       225 -10.7693     57.5057    120.3327   7.3381916340e+01   4.4751487512e+01    0.2450267    0.2235686 -56.23 0.0004056458    1.126    0.112
       226  -9.7721    242.7831    101.1698   2.5197830883e+01   1.1538580713e+01     0.198279    0.1461061   5.95 0.0003840074    1.586    0.370
       227  -9.8724    244.5262     97.4858   2.4127336074e+01   1.1724250290e+01    0.1995393    0.1050759 -38.91 0.0007374128    1.682    0.406
       228 -13.1101     85.2649     98.9171   5.9713969065e+01   4.5731955856e+01    0.7616049    0.4104142  30.50   0.00242131    2.120    0.528
       229 -10.5916     89.1899     94.0360   5.7140249875e+01   4.6164907839e+01    0.2212851    0.2127125 -43.75 0.0002266809    1.028    0.028
       230  -9.2103     93.6689     11.7338   2.4482066596e+01   6.0049162560e+01    0.1472546   0.09411872  33.46 0.0003204555    1.579    0.367
       231 -11.3775     33.9385    100.2365   7.7882760952e+01   5.2404782297e+01    0.2881492    0.2037309 -79.67 0.0007796123    1.345    0.257
       232 -10.8897    158.9519     99.0759   3.9356413734e+01   3.0034639850e+01    0.2237822    0.2206868 -17.73 0.0003304771    1.019    0.018
       233 -11.9416    152.6793     96.7448   4.0144785073e+01   3.1940977947e+01    0.6301686    0.5143294  73.77  0.002134595    1.440    0.306
       234 -11.2936    226.6687     97.7444   2.6656041348e+01   1.5186610274e+01    0.3579861    0.2257339  45.46   0.00181456    1.723    0.420
       235 -10.4531    222.7297     95.3710   2.6664972495e+01   1.6347422257e+01     0.202365    0.1403268  56.70 0.0005805261    1.612    0.380
       236 -11.3996    199.5633     96.1094   3.0553952817e+01   2.1221534887e+01    0.3644054    0.2838807 -56.40 0.0007258501    1.444    0.308
       237 -10.6143    170.3747     97.5340   3.6468172906e+01   2.7657841816e+01    0.3138429    0.2897157 -49.14  0.001292025    1.116    0.104
       238 -10.7636     27.9445     97.0940   7.9527124028e+01   5.3733428002e+01    0.3037701    0.1547929  77.06  0.001239938    2.806    0.644
       239 -11.8092     11.8823     97.6265   8.5400180815e+01   5.4814225785e+01    0.3347419    0.2005343 -63.34  0.001121034    1.413    0.292
       240 -11.2113     13.4827     93.5605   8.4297349778e+01   5.5707559758e+01    0.2099743    0.1620892  30.50 0.0001187415    1.475    0.322
       241 -13.7055     53.2868     94.8677   6.9835400344e+01   5.1570383849e+01     1.253651    0.3696721  33.01   0.00260765    3.369    0.703
       242 -13.0119     85.6840     73.5902   5.2279583026e+01   5.1405712456e+01     1.778901      0.66584  42.83  0.006219638    2.729    0.634
       243 -13.2910     60.3405     88.7743   6.5824078920e+01   5.2104562704e+01    0.7648954    0.5181528  89.12  0.001962981    2.055    0.513
       244  -9.4721     72.9923    119.0008   6.8227153606e+01   4.2907104594e+01    0.1683489    0.1609066  73.79 0.0003266268    1.033    0.032
       245 -10.3524    181.1637    116.3405   3.9118688256e+01   2.1836788893e+01    0.4135097    0.1862372 -40.79  0.001592969    2.199    0.545
       246 -12.6111     55.0944     72.5499   6.3510066099e+01   5.6674345625e+01    0.9882167    0.4630094 -65.58  0.003764721    2.681    0.627
       247 -12.5187     14.5408     45.7158   7.4542623877e+01   6.7033454530e+01    0.7018683    0.4468572 -76.13  0.001623731    1.715    0.417
       248 -10.4670    203.6637    115.9844   3.4764101381e+01   1.7092960687e+01     0.382249    0.2144601  63.75  0.001565386    2.579    0.612
       249 -11.8063     25.3064     43.7726   6.8283408009e+01   6.6603591567e+01    0.8786418    0.4927707 -35.82  0.004498974    1.712    0.416
       250 -11.9285     26.3295     35.9098   6.4946067746e+01   6.8185155244e+01    0.4975877    0.2878926 -12.69  0.002412713    2.204    0.546
       251 -13.0969     39.3023     56.3608   6.5458194527e+01   6.2368729361e+01    0.7191437    0.6120459 -68.75  0.004284102    1.269    0.212
       252 -11.6206     88.8350    114.8720   6.2414295608e+01   4.1335947843e+01     0.418124    0.2803512  50.57  0.001506708    1.555    0.357
       253 -12.3036     60.3939     64.9190   5.9023819178e+01   5.7641953007e+01    0.7862418     0.444737 -24.48  0.003128245    2.628    0.620
