#   1 NUMBER                 Running object number                                     
#   2 MAG_AUTO               Kron-like elliptical aperture magnitude                    [mag]
#   3 X_IMAGE                Object position along x                                    [pixel]
#   4 Y_IMAGE                Object position along y                                    [pixel]
#   5 X_WORLD                Barycenter position along world x axis                     [deg]
#   6 Y_WORLD                Barycenter position along world y axis                     [deg]
#   7 A_WORLD                Profile RMS along major axis (world units)                 [deg]
#   8 B_WORLD                Profile RMS along minor axis (world units)                 [deg]
#   9 THETA_WORLD            Position angle (CCW/world-x)                               [deg]
#  10 FWHM_WORLD             FWHM assuming a gaussian core                              [deg]
#  11 ELONGATION             A_IMAGE/B_IMAGE                                           
#  12 ELLIPTICITY            1 - B_IMAGE/A_IMAGE                                       
         1 -19.2713     79.2831    195.6761   1.0961823790e+02   2.7128706144e+01      6.36425     4.965406  71.91   0.04924779    1.154    0.133
         2 -15.3236    247.0246     98.4434   6.1735702153e+01   1.1734299248e+01     5.522706    0.6418614 -26.15    0.0135431    6.974    0.857
         3 -14.9659    248.2285     52.2380   4.9912090301e+01   1.6565329937e+01     4.210759    0.3265097 -26.24   0.01056538    5.771    0.827
         4 -14.6500    243.4160      9.2674   3.8625110828e+01   2.1869047423e+01     1.992295     1.163899 -38.93   0.00999167    1.510    0.338
         5 -10.5754    161.9834     11.6947   4.7726850207e+01   4.2912681082e+01    0.2151446    0.1997291  76.80 0.0007259572    1.109    0.098
         6 -10.7667     65.0191     10.9124   7.1446115205e+01   6.6693111435e+01    0.2935675    0.1795939 -29.78 0.0009051638    1.494    0.331
         7  -9.7759     98.4728      8.5460   5.8955311642e+01   5.9923499438e+01    0.1446715    0.1349261  -8.00 0.0001358745    1.020    0.019
         8 -10.6058     85.8179      7.8265   6.2275724361e+01   6.2915357964e+01    0.2145437    0.1799777   8.26 0.0003808266    1.187    0.158
         9 -10.5337    165.4777      2.4721   4.3718351143e+01   4.2835026078e+01    0.1475913    0.1453597 -36.35 0.0002250725    1.015    0.015
        10  -9.8493    113.4644      1.5008   5.1752949633e+01   5.7025589590e+01    0.1483783     0.136482  15.36 0.0008093456    1.036    0.035
        11  99.0000    143.5263    247.2477   1.0324746247e+02   1.1735039533e+01    0.2907431   0.09419392  36.70  0.001545312    2.566    0.610
        12 -13.2738    161.9205    200.5181   9.5171788153e+01   1.4514201460e+01     1.327334    0.4825579 -45.37  0.003728233    3.551    0.718
        13 -13.6098    161.2906    231.3332   9.8908893049e+01   1.1029416333e+01    0.9545515    0.3750369  37.73  0.005521075    1.950    0.487
        14 -14.0008    170.4785    228.7443   9.7170374398e+01   1.0013287188e+01    0.5913354    0.5281631  22.97  0.003266691    1.272    0.214
        15 -14.2968    167.8156    244.5532   9.9270756776e+01   8.7766181422e+00    0.6275058    0.5193115  -1.02  0.004254899    1.554    0.356
        16 -15.5765    189.3634    225.7443   9.3860807537e+01   7.6369109455e+00     1.625023     1.122051 -63.86   0.01041626    3.118    0.679
        17 -15.5052    167.4206    211.5222   9.5636400679e+01   1.2356261346e+01     2.465346     1.146222 -31.40   0.01197496    3.394    0.705
        18 -12.8284    169.4389    199.8043   9.3790482191e+01   1.3437791247e+01    0.2661246    0.1865429  36.83 0.0003006403    1.122    0.109
        19 -15.9475    185.6643    246.0876   9.6745802194e+01   6.2380610937e+00     3.822845     2.346075  10.15   0.02725688    2.192    0.544
        20 -15.7293    197.7879    242.5580   9.4560523815e+01   4.9251708305e+00     4.112287     1.023469 -43.22    0.0180131    7.494    0.867
        21 -11.5009    156.5109    248.7494   1.0139999021e+02   9.8675627444e+00     0.185101    0.1627451  72.29 0.0006789101    1.538    0.350
        22  -9.7547    146.1818    250.6145   1.0314145039e+02   1.1034246639e+01   0.08056597   0.06091424  65.23 0.0006682306    1.583    0.368
        23 -10.9571    137.3813    250.8297   1.0450225199e+02   1.2154800688e+01    0.2711208   0.04495754  42.91  0.001141663    3.899    0.744
        24  -8.6421    141.0955    243.5987   1.0329535322e+02   1.2448850628e+01    0.2629879     0.153637  68.89   0.00119248    2.763    0.638
        25 -11.7672    123.9656    243.7950   1.0599128867e+02   1.4671042919e+01    0.1747799   0.09473173  60.18  0.001193554    1.968    0.492
        26 -11.9859    113.5591    243.6130   1.0761266805e+02   1.6026339065e+01    0.1963818   0.06571074  47.87   0.00112556    2.157    0.536
        27 -10.9429    119.6673    243.1267   1.0661250910e+02   1.5303149018e+01   0.09608614   0.04337481  47.10 0.0005418188    1.564    0.361
        28 -13.8621    147.3551    199.4149   9.7568788890e+01   1.6894198915e+01      1.64255     1.079028 -69.88    0.0102355    2.395    0.582
        29 -14.8358    125.5357    174.0715   9.8353979854e+01   2.4008909613e+01    0.7640561    0.6094843 -71.30  0.005160043    1.474    0.322
        30 -10.3759    151.2887    248.1109   1.0213584015e+02   1.0622252738e+01    0.1227295   0.09910712  52.98            0    1.296    0.229
        31 -12.1107    212.9848    180.0297   8.3573500033e+01   8.7449941542e+00    0.2488351    0.1583056 -15.26 0.0009043891    1.752    0.429
        32 -10.2252     12.6120    181.3829   1.2136413288e+02   3.6813872778e+01   0.09980602   0.06980555  66.19 0.0002054928    1.006    0.006
        33 -11.0295      4.3340    178.6097   1.2283483369e+02   3.8009929668e+01      0.17788    0.1137332 -61.31  0.001074469    2.085    0.520
        34 -11.5960    132.5938    239.3411   1.0424918762e+02   1.4053129785e+01    0.1735762    0.1238477  43.15 0.0008423608    1.043    0.041
        35 -12.1659    117.9825    236.4628   1.0633483576e+02   1.6317569210e+01    0.2767485    0.1284508  39.80  0.001810627    1.608    0.378
        36 -10.3391      2.0905    173.8175   1.2310989785e+02   3.9047747782e+01    0.1124196   0.06058422  41.28 0.0003429537    1.620    0.383
        37 -11.7433    170.8760    168.5416   8.8898534764e+01   1.7262458438e+01    0.2042339    0.1847912  29.98  0.000286555    1.086    0.079
        38 -11.9837    164.2210    168.3517   9.0093608359e+01   1.8440021028e+01    0.2470018    0.2173969  73.59  0.000118337    1.380    0.275
        39 -11.2093    186.1501    163.0902   8.5220689933e+01   1.5323636581e+01    0.2017479    0.1658972  29.86 0.0003182801    1.030    0.029
        40 -11.5359      1.8993    158.2658   1.2261875751e+02   4.1935638206e+01    0.1969122    0.1222218 -79.77 0.0005253435    1.504    0.335
        41 -11.6418      7.5451    155.5076   1.2132529387e+02   4.2014185782e+01    0.1729675    0.1401634  78.56 0.0002261797    1.181    0.153
        42 -10.9670      3.2927    153.6272   1.2215027327e+02   4.2714459379e+01    0.2192716    0.1550566  34.67  0.001062733    1.601    0.375
        43 -10.6456    174.0944    154.3438   8.5855439728e+01   1.8694472714e+01    0.1783514    0.1456436  41.73 0.0004427773    1.094    0.086
        44 -11.3477    132.0385    247.2481   1.0502083697e+02   1.3235365482e+01    0.1912648    0.1221665  86.42  0.001347309    2.705    0.630
        45 -11.8353    122.9056    231.9411   1.0514999401e+02   1.6221170303e+01    0.6201217    0.2010814  36.44  0.003095675    2.810    0.644
        46 -12.0993      3.2611    139.8628   1.2157550679e+02   4.5430005200e+01    0.2729293    0.2154009  36.06  0.002133335    1.506    0.336
        47 -11.1644    167.2768    138.6405   8.4182492088e+01   2.2328036741e+01    0.2276968    0.2142628  38.83 0.0004128976    1.068    0.063
        48 -12.6109    129.0000    238.0399   1.0470533869e+02   1.4680334159e+01    0.1650904    0.1528981 -81.91  0.001285332    1.462    0.316
        49 -11.8574    147.1938    123.0812   8.5104813317e+01   2.8845944114e+01    0.2464441    0.1908495  44.61 0.0005894906    1.213    0.175
        50 -12.9168    142.8613    121.1826   8.5640419114e+01   3.0040623886e+01     0.380967    0.2782656 -61.00  0.001517706    1.602    0.376
        51 -12.8753    145.1126    116.0509   8.4023072078e+01   3.0516544257e+01    0.4083786    0.3035457  68.75  0.001031265    1.590    0.371
        52 -12.2337    126.3018    236.3330   1.0498709188e+02   1.5239036805e+01    0.1882361    0.1536931  31.50 0.0009825177    1.338    0.252
        53 -12.2295    146.7689    223.3596   1.0040730295e+02   1.3974331737e+01    0.2147069    0.1758534 -60.60  0.001150451    1.686    0.407
        54 -11.7422    151.1343    116.8346   8.2890893466e+01   2.9154981654e+01    0.2153121    0.1891439  78.34 0.0007869594    1.283    0.221
        55 -12.4500    239.0889     24.7567   4.3298256795e+01   2.1450481631e+01    0.4095102     0.261959 -13.55 0.0002476335    1.483    0.326
        56 -10.2803    166.9230    115.1953   7.9226874939e+01   2.6166110594e+01    0.2654748     0.180764  -5.68  0.001219505    2.086    0.521
        57 -11.8788     20.5845    116.1311   1.1578501578e+02   4.9039641311e+01    0.1943244    0.1730752  38.28 0.0009795356    1.398    0.285
        58 -12.7841    130.4573    234.5249   1.0415819171e+02   1.4899677679e+01    0.1857941    0.1620977  59.24   0.00115233    1.268    0.211
        59 -12.2118    152.5749    108.5472   8.0661526471e+01   3.0317417233e+01    0.6044989    0.2977215  44.99  0.002553952    1.963    0.490
        60 -11.1213      1.7709    105.1009   1.2008078352e+02   5.2862225336e+01    0.2250634    0.1238653 -76.96   0.00139457    1.474    0.322
        61 -11.4393    115.6482    240.5932   1.0704492555e+02   1.6120391576e+01   0.09517416   0.06951179  45.14 0.0007825999    1.086    0.079
        62 -12.8948    128.9417    101.3356   8.4311423262e+01   3.6554483955e+01    0.4567637    0.3360855 -25.73  0.002109188    1.689    0.408
        63 -12.1239    139.7360    223.8170   1.0161447413e+02   1.4910447345e+01    0.3100626    0.1904406  38.74  0.002140697    1.261    0.207
        64 -10.9172    142.7095     96.0676   7.9754718869e+01   3.4678487851e+01    0.2460322    0.2013236  65.02 0.0007758794    1.310    0.237
        65 -11.5339    136.1964    231.0791   1.0291027184e+02   1.4530873048e+01     0.263444    0.1943674 -46.55  0.002122237    1.903    0.474
        66 -11.8969    141.0013    229.0772   1.0193544987e+02   1.4106697262e+01    0.1616474    0.1357633  48.76 0.0009668756    1.179    0.152
        67  -9.5580     14.3566     98.2145   1.1592431308e+02   5.3522175584e+01    0.1013137   0.08189794 -46.45 0.0002177327    1.553    0.356
        68 -10.6426     19.4987     95.2436   1.1408129266e+02   5.3796802202e+01    0.2218305    0.1419775  69.61 0.0006416219    1.440    0.306
        69 -11.8922    102.8901     93.4437   8.9049043091e+01   4.3205466022e+01    0.2843791    0.2573336  36.36 0.0004653035    1.216    0.177
        70 -11.2084    132.5016     92.5034   8.1221922155e+01   3.7529191790e+01    0.2977541    0.1422067 -43.41 0.0009777865    2.105    0.525
        71 -11.4648    110.4302     89.6579   8.6075977034e+01   4.2577726298e+01    0.3285006    0.1722443  44.43  0.001170461    1.947    0.486
        72 -11.6032    141.6231    219.4659   1.0084927270e+02   1.5174994253e+01    0.1800384    0.1311976  34.09 4.418192e-05    1.233    0.189
        73 -12.6726     47.1186     85.1403   1.0391897489e+02   5.3457376871e+01    0.3029373    0.2138839 -56.87 0.0004459681    1.347    0.258
        74 -12.9658     43.1620     82.8792   1.0479736570e+02   5.4425727432e+01    0.3342766    0.2983091   0.37  0.001277081    1.502    0.334
        75 -11.2461    140.6149    216.1883   1.0066931867e+02   1.5726277538e+01    0.1715774    0.1581693  20.87 0.0002889453    1.316    0.240
        76 -11.2597     15.7540     88.1583   1.1446745801e+02   5.5707788607e+01    0.3142066    0.1602263 -76.84  0.001741302    1.573    0.364
        77 -12.6714     89.2554     86.9724   9.1299105542e+01   4.7014459753e+01    0.5160838    0.2673812 -50.22  0.001301748    1.851    0.460
        78  -6.8401    133.7424    220.4758   1.0227349403e+02   1.6163560118e+01    0.2689323    0.1949049 -65.42  0.002048781    1.881    0.468
        79  -7.2946     13.4766    215.9324   1.2238059289e+02   3.1046641284e+01    0.1838722    0.1412993  63.55   0.00169704    1.215    0.177
        80 -10.2067    148.2405    213.9655   9.9136432333e+01   1.4898569637e+01    0.2574111    0.1584125  42.00  0.001765162    1.220    0.180
        81 -12.2934     36.7697     82.7647   1.0688741779e+02   5.5123917369e+01    0.2510601    0.1861353  69.78 0.0005498831    1.343    0.256
        82 -13.1370     36.0195     78.9820   1.0649207193e+02   5.6081513542e+01     0.487701    0.2246561  39.19  0.002414264    2.294    0.564
        83 -14.7388    126.2705    197.0569   1.0106392632e+02   2.0398239384e+01    0.8715994    0.4757723  46.95  0.005348132    1.447    0.309
        84 -11.5270     80.4542     79.6539   9.2109292529e+01   5.0096755783e+01    0.2519379    0.1751271  38.71  0.000690864    1.584    0.369
        85 -12.5399     52.9879     79.5134   1.0089269542e+02   5.4062793391e+01    0.4010025    0.2662216  28.35  0.001741849    1.847    0.459
        86 -11.7691     37.1521     72.1114   1.0483042349e+02   5.7574374732e+01    0.2259666    0.1887802 -72.44 0.0006862312    1.036    0.035
        87 -11.6498     43.0410     75.5140   1.0343948943e+02   5.6155398832e+01     0.247038    0.1648113 -67.79 0.0008112835    1.275    0.215
        88 -12.2209     42.6743     71.0584   1.0265348158e+02   5.7235707675e+01    0.3543016    0.2484453  55.78  0.001331058    1.556    0.357
        89 -11.6695     14.1940    202.9283   1.2184907657e+02   3.3031985737e+01     0.219786    0.1339885  53.37  0.001770979    1.178    0.151
        90 -15.7702     29.2387    170.7212   1.1759489617e+02   3.7189596702e+01      1.51718    0.6449059 -61.31  0.008620072    2.731    0.634
        91 -10.3511     56.5100     74.0294   9.8501164913e+01   5.4883819587e+01    0.2040386    0.1169062 -61.74  0.000507356    1.532    0.347
        92 -11.5110      2.6925    201.5003   1.2379255128e+02   3.4267013398e+01    0.1924675    0.1607918  71.06  0.001804246    1.344    0.256
        93 -10.3014      1.3315    193.2749   1.2381516020e+02   3.5734661915e+01    0.1172763   0.07538484  24.34 0.0008774699    2.129    0.530
        94 -12.5034     23.5785     66.0685   1.0866174467e+02   6.0240158466e+01    0.3225141    0.2917909  60.04  0.002262431    1.251    0.201
        95 -10.0007    204.4995     65.8817   5.9353911103e+01   2.5051681464e+01    0.2201387    0.1384917 -25.17 0.0005464723    1.504    0.335
        96 -11.0681     99.2808     62.0478   8.1226738822e+01   5.0489282064e+01    0.3649638    0.2209532 -60.51   0.00101391    1.939    0.484
        97 -10.0693    137.1246    240.3717   1.0362555464e+02   1.3333840965e+01    0.1155909    0.0823046  52.96 0.0002308384    1.234    0.190
        98 -11.0880     79.9031     61.1940   8.7076327024e+01   5.4253372500e+01    0.3298531    0.2462902  58.94  0.001713958    1.523    0.344
        99 -12.9332    229.4606     58.1294   5.3687164333e+01   2.0121591431e+01    0.5329105    0.2182432 -24.24    0.0021006    2.193    0.544
       100 -10.5444     79.7283     55.5893   8.5323719201e+01   5.5487561410e+01    0.2444566    0.1402787  37.73 0.0008532276    1.994    0.498
       101 -10.1204     92.8080     53.1726   8.0204417987e+01   5.3571497731e+01    0.1932365    0.1685114 -11.47 0.0002513482    1.311    0.237
       102 -11.4802    233.5051     51.4916   5.1359100883e+01   1.9947189084e+01    0.2684135    0.1009301 -33.93 0.0008315237    2.296    0.565
       103 -10.2125     43.6944     58.0361   9.9234221181e+01   6.0149526986e+01    0.1859252    0.1438038 -63.52 0.0003033843    1.094    0.086
       104 -10.7389     55.8992     45.9494   9.0826296126e+01   6.1332395423e+01    0.2146318    0.2008553  35.99 0.0007349701    1.232    0.189
       105 -12.2437    227.7572     44.1485   4.9962696191e+01   2.2111516775e+01    0.3616217    0.2227911 -50.23  0.001675917    1.800    0.444
       106 -10.0064    208.7441     42.5459   5.1824689011e+01   2.6947777507e+01    0.1963476    0.1461145  88.22  0.000944629    1.633    0.388
       107 -12.1673    126.0301     40.1579   6.5934605137e+01   4.8610222515e+01    0.5368255    0.3366044  45.62  0.001812672    1.656    0.396
       108  99.0000      4.6281    191.0166   1.2316371034e+02   3.5839316512e+01    0.2812961   0.07921315  49.53  0.001672852    2.197    0.545
       109  -9.9475     64.5699     41.7604   8.5918526233e+01   6.0940886187e+01    0.1874576    0.1217389 -58.12 0.0004579478    1.519    0.342
       110 -10.2675      9.6416    191.7164   1.2228228341e+02   3.5291435402e+01    0.1019886   0.08777411  42.75 0.0004344638    1.505    0.335
       111 -11.0073    217.9367     37.4427   4.9150205589e+01   2.5241020748e+01    0.2968953    0.1788034 -38.43  0.001298003    1.569    0.363
       112 -12.4589      7.0091    187.3830   1.2261971658e+02   3.6256294078e+01    0.3520269     0.103952  44.21  0.002101027    2.220    0.549
       113 -10.0284     40.4179     36.7423   9.4205303949e+01   6.5353909983e+01    0.1920024    0.1010695 -48.49 0.0009427149    1.618    0.382
       114  -9.8445     59.2585     29.3786   8.3044221257e+01   6.4321606742e+01     0.140576   0.09641765 -24.85 0.0006172511    1.665    0.399
       115 -10.9195    217.0384     19.5130   4.3835411185e+01   2.7356031308e+01    0.2102396    0.1450146  74.91 0.0007442434    1.579    0.367
       116  -9.9249    144.5429     16.4964   5.2444669881e+01   4.7152967062e+01     0.152943    0.1456553  12.70 0.0001311781    1.036    0.035
       117 -11.1999    154.1832    187.5391   9.4799446406e+01   1.7427476394e+01    0.2260806    0.2071784  15.76 -0.000275831    1.222    0.182
       118 -10.8673     16.1495    186.4127   1.2089595974e+02   3.5619790665e+01    0.2315367    0.1581298  60.84  0.001862238    1.060    0.056
       119 -10.6739     34.0253     14.3275   8.8018199719e+01   7.0838381684e+01     0.170225    0.1512835 -37.15 0.0004003201    1.086    0.079
       120 -10.7962    156.3219    241.3187   1.0071287445e+02   1.0653725695e+01    0.3914702    0.2445698  65.03  0.002681545    2.327    0.570
       121 -11.5933    150.9749    238.9008   1.0130944033e+02   1.1634171311e+01    0.2069924    0.1887909  -3.21  0.001428929    1.475    0.322
       122 -13.8374    147.7394    231.6693   1.0110599478e+02   1.2876272889e+01    0.4601811     0.334411  15.94  0.003301002    1.752    0.429
       123  99.0000    137.7121    243.7173   1.0383337339e+02   1.2883166230e+01     0.141281    0.0884781  36.32 0.0002090154    1.282    0.220
       124 -10.7212    112.6138    237.5040   1.0728273053e+02   1.6885993506e+01    0.2343822   0.07905169  39.67  0.001306814    2.204    0.546
       125 -10.4404    215.2869    184.3077   8.3905829528e+01   7.9219555642e+00    0.1161197   0.07260516  17.76 0.0001768646    1.571    0.363
       126 -10.3772      1.2844    183.3717   1.2355075179e+02   3.7425450656e+01   0.09273521     0.064424  72.70 8.043395e-05    1.089    0.082
       127  99.0000    145.1682    239.3990   1.0226911223e+02   1.2364789868e+01    0.4071298    0.2368333  46.39   0.00174428    1.267    0.211
       128 -11.8890    154.8298    181.4737   9.3828741674e+01   1.8162503321e+01    0.2024507    0.1720463  33.20  6.52455e-05    1.101    0.092
