#   1 NUMBER                 Running object number                                     
#   2 MAG_AUTO               Kron-like elliptical aperture magnitude                    [mag]
#   3 X_IMAGE                Object position along x                                    [pixel]
#   4 Y_IMAGE                Object position along y                                    [pixel]
#   5 X_WORLD                Barycenter position along world x axis                     [deg]
#   6 Y_WORLD                Barycenter position along world y axis                     [deg]
#   7 A_WORLD                Profile RMS along major axis (world units)                 [deg]
#   8 B_WORLD                Profile RMS along minor axis (world units)                 [deg]
#   9 THETA_WORLD            Position angle (CCW/world-x)                               [deg]
#  10 FWHM_WORLD             FWHM assuming a gaussian core                              [deg]
#  11 ELONGATION             A_IMAGE/B_IMAGE                                           
#  12 ELLIPTICITY            1 - B_IMAGE/A_IMAGE                                       
         1 -15.8079    243.4241    107.3260   8.6244632751e+01   1.1296881535e+01     4.411226     2.058012   9.72    0.0135233    4.727    0.788
         2 -16.7127    189.2552     81.3986   8.8602083585e+01   2.6963637285e+01     5.920741     1.494842 -35.83    0.0174982    3.620    0.724
         3 -18.7757    220.8921     87.0793   8.4633168159e+01   1.8767283766e+01     9.525126      7.19122  11.68   0.04877777    1.345    0.257
         4 -16.2606    212.8695     48.3284   7.4856920014e+01   2.5748602447e+01     2.270437     1.197436 -15.61  0.009239323    1.980    0.495
         5 -10.5396     42.8877     22.7237   1.0979074991e+02   6.6521842149e+01    0.3693599    0.2490856 -68.04  0.001935713    2.232    0.552
         6 -10.7126    159.7066     20.2625   7.3944470220e+01   4.2937691709e+01    0.4126745    0.2855178  -7.72  0.001185149    1.493    0.330
         7 -11.5206    247.6639     15.3083   6.1384115590e+01   2.0805450217e+01     0.381244    0.2258101 -28.35   0.00143589    1.494    0.331
         8 -11.6501    202.9264     14.3845   6.5638753747e+01   3.2069324106e+01    0.4045734    0.3681727 -49.28  0.001043279    1.133    0.118
         9 -10.2698    121.7863     14.4593   7.9309791445e+01   5.3221244518e+01    0.3946646    0.2433007 -56.43  0.001149948    2.383    0.580
        10 -12.1184    238.5599     10.5775   6.0876383701e+01   2.3407462348e+01    0.3793949    0.2912589  58.14 0.0006491643    1.368    0.269
        11  -9.5531     94.8654     11.6502   8.5126846098e+01   5.9658245454e+01    0.2321266    0.1698236  -8.68 0.0002946277    1.286    0.223
        12 -12.3821    142.9129      8.1228   7.2221638205e+01   4.8615104008e+01    0.2974949    0.2712505  -3.34 0.0004236519    1.070    0.065
        13 -10.4078    142.7754      2.5399   6.9956232286e+01   4.9176722741e+01    0.4092834    0.2408419  22.16 0.0008246898    1.866    0.464
        14  -9.4213    117.1431      7.8574   7.7455263383e+01   5.5083418592e+01    0.2073758     0.187862 -31.87 0.0005066914    1.210    0.173
        15 -11.5576    210.4737      6.0964   6.2208349840e+01   3.0862566924e+01    0.3119562    0.2172928  52.54 0.0004641869    1.435    0.303
        16  -9.6431    201.3330      6.8262   6.3405180051e+01   3.3189812481e+01    0.1974586    0.1778455   2.75 0.0006669412    1.114    0.103
        17 -10.2223    166.1340      2.1790   6.6169571120e+01   4.3011844783e+01    0.2556581     0.232374  33.11 0.0009701355    1.047    0.045
        18 -10.3186    151.0213      2.3145   6.8486882520e+01   4.7031595313e+01    0.3213377    0.2635881 -73.01  0.001120928    1.449    0.310
        19 -10.2608    180.4291      1.5822   6.4082360520e+01   3.9217858172e+01    0.2530147    0.1846357  67.75  0.001255327    1.354    0.262
        20 -10.5540    180.9422    223.2586   1.1856672271e+02   8.3303781999e+00    0.3825004   0.09440619  40.39  0.001611767    3.172    0.685
        21 -10.3221    228.9366    250.5009   1.1463885117e+02  -1.1580425503e+00    0.2180585   0.07111361  41.37    0.0010367    2.185    0.542
        22 -10.4893    232.8712    248.9609   1.1387167785e+02  -1.5732861668e+00    0.1951391    0.1034098  33.12 0.0004809125    1.293    0.227
        23  -9.3116    222.4515    250.4780   1.1558286003e+02  -2.7112990903e-01    0.1020599   0.06988171  31.04 0.0001377506    1.038    0.037
        24 -10.2675    165.8790    249.5488   1.2397029472e+02   7.6863083819e+00    0.2168989    0.1256102  49.08   0.00110699    1.427    0.299
        25  -9.4491    124.6407    250.1919   1.3033821898e+02   1.3201184237e+01    0.1009992   0.09285258 -47.36 0.0004443423    1.578    0.366
        26 -10.2752     93.7040    222.2523   1.3291550524e+02   2.0876825099e+01    0.1753259    0.1147161  57.91 0.0003607239    1.220    0.180
        27 -10.3058     63.4362    220.1342   1.3772808397e+02   2.4840881549e+01    0.2238365   0.09911314  60.99 0.0009653884    2.010    0.503
        28 -10.9780     59.9695    215.4044   1.3798477302e+02   2.5952707266e+01    0.3238848    0.1770562  49.63  0.002337807    1.398    0.285
        29 -10.4856    179.3148    216.5841   1.1796824174e+02   9.3373495299e+00    0.1729643    0.1317938 -13.06 0.0008832329    1.656    0.396
        30 -10.5324    124.3509    215.9465   1.2716977459e+02   1.7636720491e+01    0.2089099    0.1299849  40.35 0.0008426747    1.344    0.256
        31  -9.9104      3.3685    214.1372   1.4692795652e+02   3.1664117132e+01      0.13936   0.09956895  49.19 0.0004861401    1.366    0.268
        32 -10.8402    215.6012    210.9788   1.1125277435e+02   4.3074870784e+00    0.2082308    0.1322067  47.78 0.0004468121    1.606    0.377
        33 -10.0257     89.8261    211.1843   1.3262988695e+02   2.3012770924e+01    0.1484663    0.1086017  53.37 0.0003234312    1.074    0.069
        34 -11.4227     86.9684    208.0704   1.3285221026e+02   2.3856756703e+01    0.2767912    0.2157519  31.32 0.0002909147    1.558    0.358
        35  -9.9884     96.9393    208.9640   1.3120111098e+02   2.2424819967e+01    0.1545843    0.1245149  57.77 0.0003115952    1.045    0.043
        36  -9.3875    127.2658    206.9543   1.2568734503e+02   1.8491823006e+01    0.1203325   0.09675108 -65.60 0.0008819763    1.508    0.337
        37  -9.7663     14.0144    205.5116   1.4495200790e+02   3.2117343260e+01    0.1282168   0.07331754  45.04 3.156735e-05    1.516    0.340
        38 -10.3897    244.6019    202.1223   1.0530322651e+02   6.8395972666e-01    0.2083342    0.1402044  19.10 0.0005831137    1.162    0.140
        39 -10.5848    191.7778    201.8473   1.1380981835e+02   9.0914173515e+00    0.3566852      0.21556  63.51  0.001785365    2.943    0.660
        40  -9.6880    206.6436    202.0565   1.1135445281e+02   6.6668385501e+00    0.1549786    0.1259266  14.26 0.0006127491    1.150    0.130
        41  -9.6797     46.9650    201.5233   1.3927071968e+02   2.9583260022e+01    0.1473894   0.08169066  42.80 0.0007764798    1.585    0.369
        42  -9.3430    250.6816    199.2021   1.0389033794e+02   2.3036742444e-02    0.1413944   0.08757238  -5.40  0.000246089    1.573    0.364
        43 -11.2696    214.7908    197.5901   1.0930835442e+02   5.8383601839e+00    0.3242958    0.2590371  63.11  0.002130191    1.902    0.474
        44 -10.2454    132.2541    246.9225   1.2888595151e+02   1.2577496221e+01    0.1845227    0.1049665  43.13  0.000257962    1.274    0.215
        45  -9.2545     69.3305    247.3240   1.3848677492e+02   2.0328140242e+01   0.07792334   0.06858992  29.67 0.0007050171    1.701    0.412
        46  -9.7361    161.9787    246.2764   1.2423038869e+02   8.5740164321e+00    0.1472567   0.09711046  41.72 0.0003529608    1.082    0.075
        47 -11.8631    143.6025    188.7228   1.2045558314e+02   1.8674353682e+01    0.2903903    0.2279381 -83.57  0.001201597    1.672    0.402
        48 -10.5440    233.6067    171.6076   1.0169637523e+02   5.5371448717e+00    0.2268957    0.1946751  -8.52 0.0006592078    1.264    0.209
        49 -11.1671    140.8203    172.3365   1.1860384921e+02   2.1679190487e+01    0.2385424    0.2011284  54.77  0.001113502    1.106    0.096
        50 -11.2333    141.3770    193.1442   1.2146310290e+02   1.8369449761e+01    0.2302106    0.1724235  56.12  0.001249977    1.253    0.202
        51  -9.3796     25.4799    172.4492   1.4128846330e+02   3.6765349999e+01    0.1042261   0.07617197  73.35 0.0001453071    1.032    0.031
        52  -9.1636    100.2918    196.3550   1.2936453134e+02   2.3943230100e+01   0.09712359   0.08641677  -4.26 0.0007029102    1.683    0.406
        53  -9.4599    249.4795    194.9331   1.0335391537e+02   5.9621083024e-01    0.1859582    0.1169437  33.01  0.001038065    1.270    0.213
        54 -10.1337    106.5734    194.0513   1.2796768204e+02   2.3437964125e+01    0.2255422     0.132996 -65.87 0.0007759288    1.964    0.491
        55 -11.6097    211.8950    166.4108   1.0436807417e+02   9.9659150674e+00    0.2536598    0.2436494  57.74  0.001196002    1.419    0.295
        56 -10.1776    102.4732    166.8171   1.2548035327e+02   2.8662053570e+01    0.1758719    0.1595674  27.09  0.000820636    1.326    0.246
        57  -9.5413     96.0127    166.2393   1.2672480937e+02   2.9700397723e+01    0.1645216    0.1339836  56.50 0.0003824563    1.084    0.077
        58 -10.1542     56.0871    164.8912   1.3472180994e+02   3.5053024960e+01    0.2660582    0.1381919 -85.84   0.00150472    2.001    0.500
        59  -9.7014     18.3279    166.2612   1.4226712622e+02   3.8538794623e+01    0.1507371    0.1167001  32.02 0.0005061278    1.647    0.393
        60 -10.0784    106.8937    190.4962   1.2751161435e+02   2.3965826001e+01    0.1809255     0.137725  65.76  0.001103698    1.210    0.173
        61 -10.5486    229.9123    164.8607   1.0101977223e+02   6.9386547949e+00    0.2383009    0.1672537  17.41 0.0003783799    1.262    0.207
        62 -11.2677    233.4578    164.4593   1.0035877940e+02   6.3608031933e+00    0.5426792    0.1943402  44.40  0.002259421    2.474    0.596
        63 -11.2906    117.6475    189.9508   1.2544203308e+02   2.2490837124e+01    0.4158526    0.2134454 -65.83  0.002254854    2.520    0.603
        64 -11.2740    120.4947    163.0947   1.2126964822e+02   2.6564153010e+01     0.242475     0.192185   0.17  0.001431261    1.877    0.467
        65 -12.1182    112.8258    158.1956   1.2212629300e+02   2.8656175573e+01    0.3997364    0.2616572  79.95  0.001661824    2.062    0.515
        66 -12.7743    127.3770    156.0603   1.1874813307e+02   2.6686471622e+01    0.3921477    0.3813286  75.98  0.002686281    1.090    0.082
        67 -11.1626    226.4718    190.5262   1.0623362253e+02   4.6910554487e+00    0.3213713    0.1895758 -37.23  0.001803324    2.165    0.538
        68 -10.6933    129.9678    192.4546   1.2346725656e+02   2.0243337062e+01     0.179517     0.161201 -88.69  0.000413979    1.250    0.200
        69 -10.5381     77.0658    154.3461   1.2920352253e+02   3.4526921952e+01     0.203307    0.1525365 -83.30 0.0001827966    1.270    0.212
        70 -12.4456    121.9334    150.2297   1.1893906592e+02   2.8646324551e+01    0.3932949    0.3232487  46.69  0.001998775    1.133    0.117
        71 -11.5095    129.0827    150.1344   1.1739922542e+02   2.7460470198e+01    0.3262543      0.19272  53.80  0.001605508    1.712    0.416
        72 -10.0658    128.5653    188.2559   1.2319033695e+02   2.1108360078e+01    0.1760946    0.1133911 -56.02 0.0006876103    1.826    0.452
        73  -9.7629     48.2717    192.1862   1.3841947814e+02   3.1007290113e+01    0.1481464    0.1185888 -72.68  0.001194294    1.428    0.300
        74 -10.6764     42.4902    149.0163   1.3606143210e+02   3.9592911309e+01    0.1635529    0.1313905  61.05 -0.0001118612    1.168    0.143
        75 -11.5939    230.8974    187.3015   1.0496473157e+02   4.3055452956e+00    0.3139744    0.2215148  50.77  0.001510546    1.718    0.418
        76 -10.5951     11.7249    146.9052   1.4238982370e+02   4.2771045397e+01    0.3374388    0.1314473  62.01  0.001724013    2.414    0.586
        77 -12.1648    214.7816    186.6145   1.0749584665e+02   7.0567745513e+00    0.4635282    0.3065807  27.88  0.002183354    1.262    0.208
        78  -9.8326     54.9695    188.2080   1.3691908456e+02   3.0960219207e+01     0.220207    0.1011905  77.58  0.001180552    2.607    0.616
        79 -10.0687     75.5036    186.7897   1.3299884105e+02   2.8785067961e+01    0.2250933    0.1435522 -47.54  0.001425501    2.211    0.548
        80  -9.9555     32.2959    135.7030   1.3705272695e+02   4.3272818605e+01    0.2244447    0.1208192 -66.18  0.001282184    1.649    0.393
        81 -15.8477    217.3577     64.3134   7.8878041534e+01   2.2622282514e+01     2.924158    0.7144587  61.85  0.007790122    5.160    0.806
        82 -10.8013     73.3498    128.1432   1.2646981197e+02   4.0301382745e+01    0.2000194    0.1699767  69.09 0.0006703273    1.116    0.104
        83  -9.9794     42.3187    126.6353   1.3376055821e+02   4.4195830768e+01    0.1839166    0.1115677  71.87  0.001077831    1.675    0.403
        84 -11.2177    101.1917    125.2629   1.1926293780e+02   3.6874371916e+01    0.2730944    0.2126604  -3.03 0.0007211181    1.945    0.486
        85 -10.5805    110.8958    184.7222   1.2608222692e+02   2.4334157592e+01    0.2565033    0.1910536 -68.00  0.001732902    1.499    0.333
        86 -10.4029     57.7300    124.9383   1.2980551242e+02   4.2895713533e+01    0.1960551    0.1583651  60.91 0.0002039536    1.211    0.174
        87 -15.0092    219.9011     57.4043   7.6509514285e+01   2.2889901182e+01    0.8512167    0.5290816  55.14  0.002090469    1.657    0.396
        88 -12.7145    122.3965    118.1115   1.1275674843e+02   3.4712992999e+01    0.3847719    0.3427223  -0.39  0.002183653    1.319    0.242
        89 -12.3041     98.1027    117.7514   1.1859250973e+02   3.8909241274e+01    0.5047328    0.2979985  43.80  0.002554638    1.712    0.416
        90 -12.2882    117.2713    119.0240   1.1417257151e+02   3.5446110398e+01    0.4240088    0.1919881  40.25  0.001474897    2.258    0.557
        91 -10.1919     52.8806    113.5378   1.2940176360e+02   4.5888150627e+01    0.1620364    0.1184186  37.97 0.0003908534    1.529    0.346
        92 -12.7146    124.4436    109.6293   1.1037579876e+02   3.6015460076e+01    0.4522976     0.350303  56.12  0.002420572    1.358    0.264
        93  -9.4956     38.5447    110.6751   1.3273183467e+02   4.7984093890e+01    0.1720728    0.1082061  33.47 0.0006461209    1.833    0.455
        94 -11.0653    113.4306    108.8720   1.1291137027e+02   3.8172456344e+01    0.2796782    0.1890066  22.41   0.00132912    2.000    0.500
        95 -11.3673     99.5517    106.4174   1.1589621013e+02   4.1044211136e+01    0.3698555     0.290988  27.02  0.002060151    1.487    0.328
        96 -10.3063     29.4584    107.2872   1.3468449518e+02   4.9543148537e+01    0.2149443    0.1606043  84.22 0.0006879588    1.195    0.163
        97 -12.1640    115.8586     98.7962   1.0992836265e+02   3.9785397293e+01    0.3901555    0.2925612 -16.67  0.001940783    1.757    0.431
        98 -11.0208    215.1231    244.3231   1.1590109604e+02   1.2581768903e+00    0.2402977     0.156851  43.34 0.0007881423    1.379    0.275
        99 -10.9767    107.7609     89.4794   1.0969227891e+02   4.3169123258e+01     0.261499    0.1855293 -46.94 0.0003626152    1.341    0.254
       100 -10.8964    104.7297     85.9917   1.0959730914e+02   4.4432431072e+01    0.2150235    0.1888862 -79.18 0.0005567637    1.260    0.206
       101  -9.5438     21.5201    182.9517   1.4262257569e+02   3.5244210407e+01    0.1405104   0.07939947 -85.47  0.000389885    1.515    0.340
       102 -11.9189    116.0678     84.7988   1.0621869448e+02   4.2577672936e+01    0.4825206     0.285793  59.04  0.001873693    2.176    0.540
       103 -12.1631    129.4948    180.1951   1.2193825968e+02   2.2244911785e+01    0.2896908    0.2563637 -44.69   0.00185653    1.351    0.260
       104  -9.9488     58.8537     83.3126   1.2229848534e+02   5.1865110356e+01    0.2208932    0.1549456 -68.86 0.0004935717    1.317    0.241
       105 -11.5613    149.2259    196.2690   1.2045717709e+02   1.6677528651e+01    0.2213554    0.1991722  67.22 0.0008194186    1.222    0.182
       106 -11.4899    125.4278     77.7156   1.0173542373e+02   4.2110033622e+01    0.3728604    0.2094572  52.31  0.001502646    1.960    0.490
       107 -10.8782    166.3764    195.5231   1.1728693339e+02   1.4023546679e+01    0.2145799    0.1862884  49.00  0.001107815    1.160    0.138
       108 -12.7256    131.0777     72.5069   9.8709712182e+01   4.1908107241e+01     0.764414     0.545595  85.79  0.003275391    2.312    0.567
       109 -11.3671    105.0983     73.2479   1.0590597987e+02   4.6974358818e+01     0.325371    0.2517352 -66.69 0.0006622183    1.526    0.344
       110  -9.5746     80.0232     75.5069   1.1393635912e+02   5.0716331062e+01    0.1842176    0.1362854  38.84 0.0005794688    1.504    0.335
       111 -12.2750     49.1894     73.4534   1.2316248830e+02   5.5156185181e+01    0.2426857     0.200251 -62.88  0.000286588    1.025    0.025
       112 -11.1271    119.9520     69.5942   1.0069424608e+02   4.4794127993e+01    0.3006254    0.2393073 -75.49 0.0008215376    1.668    0.400
       113 -11.8041    108.1159     65.7303   1.0272996584e+02   4.7898471202e+01    0.4638936    0.3059106 -22.03  0.001500473    1.831    0.454
       114  -9.5713     10.3204     67.3271   1.3486387656e+02   5.9750221764e+01    0.1206061   0.06679035 -48.88 0.0007047417    1.684    0.406
       115  -9.1977    117.5934     64.2483   9.9617960110e+01   4.6293743790e+01    0.1444424    0.1167527  87.79 0.0006937248    1.707    0.414
       116  -9.8936     12.5189     64.4629   1.3366327738e+02   6.0252758963e+01    0.1179263   0.09009717 -68.68 5.789569e-05    1.009    0.009
       117 -10.5408     95.0268     62.3005   1.0546672841e+02   5.1005257573e+01    0.3107959    0.1594142 -44.56 0.0007961566    1.787    0.440
       118 -11.5327    221.6302    177.5428   1.0476247084e+02   6.9268245046e+00    0.3811915    0.2717991  19.26  0.002395427    1.220    0.180
       119 -12.0904    126.6735     55.4107   9.4220732302e+01   4.5965314564e+01    0.4501731    0.3150038 -50.56  0.002097229    1.597    0.374
       120 -10.7122     88.5762     57.0787   1.0575118220e+02   5.3175338925e+01    0.2251495    0.1954249  55.56 0.0005889891    1.351    0.260
       121  -9.9815    106.9057     51.4924   9.8254607585e+01   5.0839274294e+01    0.2147395    0.1446024  43.87  0.001028323    1.579    0.367
       122  -9.7704     94.3753     51.1839   1.0190633353e+02   5.3299535069e+01    0.2266223    0.1874306  22.26 0.0004695453    1.319    0.242
       123 -12.6255    148.0254    177.2207   1.1795822055e+02   1.9704440157e+01    0.4379101    0.2828333  53.74  0.002531634    1.501    0.334
       124 -11.9556    124.6622     47.8223   9.2034333782e+01   4.7714880889e+01    0.4639982    0.3038628  31.19  0.002087702    1.716    0.417
       125 -12.0931    139.9114     42.9911   8.6505077258e+01   4.4940468349e+01    0.6847014     0.294174 -27.58  0.002348449    2.327    0.570
       126  -9.4557     33.4717     44.5201   1.2144463441e+02   6.3061238784e+01     0.125973    0.0997379 -51.36 0.0001080823    1.010    0.010
       127 -10.8220    126.1893     40.4935   8.8901545831e+01   4.8562507682e+01    0.3938427    0.1887916  41.37   0.00145781    2.219    0.549
       128 -10.1077     54.7996     40.1452   1.1166512300e+02   6.1647181465e+01    0.1911824     0.160488 -53.44 0.0005242006    1.178    0.151
       129  -9.2696     32.2571     39.9728   1.2058749363e+02   6.4140874130e+01    0.1597395   0.08776613 -56.82 0.0003684153    1.466    0.318
       130 -11.8786    147.3028     36.8177   8.2569874712e+01   4.4031288939e+01    0.4147971    0.3411973  89.43  0.002038645    1.550    0.355
       131 -11.5044    141.2768     35.8511   8.3530105300e+01   4.5662878641e+01    0.3612786    0.2314352  43.95  0.001515343    1.553    0.356
       132 -11.6891    123.9572    176.9641   1.2256504614e+02   2.3643264907e+01    0.3480314    0.2216667 -85.20  0.001854213    2.388    0.581
       133  -8.8208     13.3104    178.2781   1.4384820073e+02   3.6785309315e+01   0.08278009    0.0701213 -66.38 0.0002277353    1.560    0.359
       134  -9.7994    235.7576    177.2478   1.0239145658e+02   4.5615137520e+00    0.2007541    0.1403091  42.03 0.0009389044    1.410    0.291
       135 -11.2010    133.0213     30.6465   8.3404559504e+01   4.8413681521e+01    0.3404702    0.2515724   6.95 0.0008649398    1.466    0.318
       136 -12.4471    155.3328    194.3607   1.1909686076e+02   1.5972369478e+01    0.4863466    0.2844435  54.32  0.002788904    1.722    0.419
       137 -10.5566    141.0774     29.9661   8.1320114108e+01   4.6527513760e+01     0.230246     0.209477  10.32  0.000333157    1.035    0.034
       138  -9.1250     21.6600     30.7365   1.2224315930e+02   6.6972892076e+01    0.1211435   0.07326926 -34.78 0.0002768018    1.592    0.372
       139  -9.9902     99.0423     25.9384   9.0450175710e+01   5.6766399971e+01    0.2162051    0.1897169  -7.93 0.0003278195    1.020    0.020
       140  -9.9842    152.6400     25.0289   7.7046727093e+01   4.4222875281e+01    0.2297186    0.2125381  81.75 0.0003871393    1.225    0.184
       141  -9.8602    122.8996     24.5231   8.3342559920e+01   5.1676862144e+01    0.2219526    0.1421508  50.78  0.001020455    1.571    0.364
       142 -10.8187    226.0497    241.5905   1.1392156662e+02  -4.3838203798e-02    0.1836504     0.135738  28.66 0.0003777541    1.113    0.102
       143 -10.7189    128.0665     22.8559   8.1409801033e+01   5.0663450210e+01    0.2228924    0.1996157 -48.07  0.000606856    1.272    0.214
       144  -9.5057     66.0194    242.4758   1.3870156273e+02   2.1350059106e+01    0.1370027   0.06818777  44.97 0.0003993628    1.500    0.334
       145  -9.8121    112.1951     18.5645   8.3498274745e+01   5.4954916209e+01    0.2765515    0.1910783 -21.55 0.0005431462    1.363    0.266
       146 -10.7608    236.6863    235.2948   1.1149708657e+02  -1.0197352807e+00    0.2721579     0.159608 -11.74  0.001922595    1.941    0.485
       147 -11.7718    161.0124    176.3792   1.1536597401e+02   1.7632627484e+01    0.2450602    0.2385541 -85.27  0.001259799    1.221    0.181
       148  -9.5264    126.8470    238.3791   1.2895735485e+02   1.4336774778e+01    0.1471983   0.07552794  36.49 0.0005077874    1.727    0.421
       149  -9.0808     33.3016    177.3317   1.4013862860e+02   3.5142538565e+01    0.0906823   0.07440815 -56.60 0.0002857313    1.652    0.395
       150 -11.4994    187.8505    236.4543   1.1910356166e+02   5.9023725900e+00    0.1738346    0.1354451  32.99 0.0002617896    1.087    0.080
       151  -9.4215    141.1649     13.1878   7.4619610753e+01   4.8542096099e+01    0.2009944    0.1728579 -54.43 0.0004854446    1.350    0.259
       152  -9.7255     99.1895     12.8502   8.4441499939e+01   5.8582073737e+01    0.2053438     0.179597 -25.65 0.0004644582    1.172    0.147
       153  -9.6129     32.0347    233.4644   1.4333783959e+02   2.6175227633e+01    0.1346658   0.06717687  44.20 0.0006287926    1.585    0.369
       154  -9.3961    167.5234    232.4580   1.2184854943e+02   9.2957102447e+00    0.1077297   0.07904738  37.95 -2.164881e-05    1.040    0.038
       155 -11.0921    154.1081    231.2022   1.2386591419e+02   1.1390244403e+01    0.1813998    0.1473825  46.83 0.0003033823    1.117    0.105
       156  -9.5778    144.8858    231.1852   1.2535676418e+02   1.2716356951e+01    0.1562214    0.1100761  53.91 0.0003556844    1.260    0.207
       157  -9.6436     69.0392    230.4684   1.3750369233e+02   2.2683375957e+01    0.1376378    0.1027108  68.58 0.0003206026    1.120    0.107
       158  -9.8103    149.8728    226.8959   1.2408098246e+02   1.2523626544e+01    0.1600903    0.1215568  28.72 0.0007866903    1.328    0.247
       159  -9.9372    127.3550    226.5153   1.2774344286e+02   1.5783135018e+01    0.1943895      0.11946  55.59  0.001344492    1.427    0.299
       160 -12.7189    238.2169    223.9511   1.0965783955e+02  -2.9536704746e-01    0.2725084    0.1990685  39.34 0.0004784707    1.391    0.281
       161 -10.1635    203.5497    226.2689   1.1533855048e+02   4.6088573097e+00    0.2899533   0.07522255  46.30  0.001208037    3.470    0.712
