#   1 NUMBER                 Running object number                                     
#   2 MAG_AUTO               Kron-like elliptical aperture magnitude                    [mag]
#   3 X_IMAGE                Object position along x                                    [pixel]
#   4 Y_IMAGE                Object position along y                                    [pixel]
#   5 X_WORLD                Barycenter position along world x axis                     [deg]
#   6 Y_WORLD                Barycenter position along world y axis                     [deg]
#   7 A_WORLD                Profile RMS along major axis (world units)                 [deg]
#   8 B_WORLD                Profile RMS along minor axis (world units)                 [deg]
#   9 THETA_WORLD            Position angle (CCW/world-x)                               [deg]
#  10 FWHM_WORLD             FWHM assuming a gaussian core                              [deg]
#  11 ELONGATION             A_IMAGE/B_IMAGE                                           
#  12 ELLIPTICITY            1 - B_IMAGE/A_IMAGE                                       
         1 -12.1873     41.2462     29.8152   9.3895455853e+01   6.6457509473e+01    0.6929963     0.415004  -2.33  0.003419066    2.388    0.581
         2 -11.7784     77.3031     21.3075   7.5163220246e+01   6.2370280042e+01    0.4331177    0.3773164  21.74  0.002428646    1.134    0.118
         3 -10.1028     37.6872      3.4450   8.2604658727e+01   7.1375769747e+01    0.6522929    0.1051083 -34.36  0.001617529    7.954    0.874
         4 -10.8720     41.6473     19.8194   8.9266267160e+01   6.8233569173e+01    0.7838907    0.4294259   7.28  0.003558964    2.893    0.654
         5 -11.8348     34.6570     12.6399   8.9170720187e+01   7.0314298875e+01    0.4249432    0.3670451  23.12 0.0007724633    1.373    0.272
         6 -11.6142     30.1843      7.1794   8.8633237332e+01   7.1734640052e+01    0.3645718    0.3235766   8.04  0.002097537    1.293    0.226
         7 -10.5061     39.7534     10.6448   8.5572103548e+01   7.0005188776e+01     0.182838     0.153586 -19.87 0.0003938265    1.093    0.085
         8 -11.2032     40.5842      7.5291   8.3472138008e+01   7.0378675347e+01    0.2927949     0.199221 -15.10 0.0005612804    1.349    0.259
         9 -10.3456     14.9722      8.8597   9.8070198511e+01   7.2948718043e+01    0.2994678    0.1273105 -32.22 0.0003629274    2.260    0.557
        10 -10.8483     14.0219     16.0605   1.0186767024e+02   7.1693717724e+01    0.3184239    0.2098279  28.00  0.001454916    1.865    0.464
        11 -11.5667    234.5301     14.9595   4.3632218311e+01   2.4403435356e+01    0.2937108    0.2314491  89.15 -9.531522e-05    1.281    0.219
        12 -11.0466     89.0562     13.7495   6.7616996408e+01   6.1065845592e+01    0.4415446    0.3404384 -63.35  0.001929412    1.893    0.472
        13  -9.7648     69.2653     13.3591   7.4197625569e+01   6.4990722518e+01    0.2572361    0.1786506 -58.74  0.001266158    2.389    0.581
        14 -10.5453    203.4288     11.9506   4.5755966605e+01   3.2446185020e+01    0.2193113    0.1811478  77.79 0.0004992837    1.186    0.157
        15 -10.1729    117.5813     11.9884   5.9195274246e+01   5.4781110797e+01    0.3251501    0.1967861  60.39 0.0006867821    1.636    0.389
        16 -11.1493     93.3716      8.0449   6.3571274374e+01   6.0814581725e+01    0.4068019    0.2370699 -17.99  0.001007195    1.709    0.415
        17 -10.3122     91.9917      2.5638   6.1263398596e+01   6.1695281205e+01    0.4487622    0.2092861  48.20    0.0020263    1.944    0.486
        18 -11.9724     57.2180      3.8355   7.3836622006e+01   6.8360641357e+01    0.6032844    0.2886843 -22.29  0.002869152    2.046    0.511
        19 -10.3830     22.3131      9.5346   9.4196898233e+01   7.2173089585e+01    0.2787269    0.2018635 -14.05  0.001407674    1.288    0.223
        20  -9.9537     24.4458      3.1733   8.9584663906e+01   7.3015914253e+01    0.3174249    0.1306665 -38.69  0.001603104    1.978    0.494
        21  -9.1931     28.0011      1.0000   8.6322336614e+01   7.2954570224e+01    0.2254949    0.1129437  17.19 0.0003531674    2.582    0.613
        22 -11.3974     17.0292      3.4362   9.4069916213e+01   7.3711386259e+01    0.2577358    0.1731404 -41.30 0.0004278243    1.262    0.208
        23 -10.7977     20.4948      2.0449   9.1236731940e+01   7.3607895557e+01    0.2273689     0.167631 -13.28  0.000899345    1.189    0.159
        24 -10.1752      4.0550     10.0086   1.0508602589e+02   7.3507239366e+01    0.2081088    0.1395337 -45.17 0.0007526248    1.106    0.096
        25 -10.0907      2.4494      6.5123   1.0456291951e+02   7.4256811891e+01    0.2269624    0.1245926   1.32 0.0009778986    2.146    0.534
        26 -10.2218     10.1079      1.9207   9.7516430609e+01   7.4558012701e+01     0.212804    0.1476901 -25.27 0.0008428745    1.181    0.153
        27 -10.2571     11.0961      6.4254   9.9194813641e+01   7.3691072810e+01    0.2587729    0.1684358 -59.31  0.001370975    1.741    0.426
        28  -9.9233      7.0173      5.0000   1.0101167818e+02   7.4243000855e+01     0.229546   0.09416441  27.58  0.001228581    2.869    0.651
        29  -9.9590     88.6068      7.2881   6.4590406434e+01   6.1927663687e+01    0.2452188     0.118564 -28.13 0.0008034558    1.986    0.497
        30 -10.8809     70.9216      6.1398   6.9806446228e+01   6.5621615480e+01     0.386143    0.2718112 -27.20  0.002199419    1.360    0.265
        31 -10.0024    210.5046      7.5064   4.3765368308e+01   3.1090637285e+01    0.1373452    0.1269597 -68.43 8.368709e-05    1.006    0.006
        32 -10.3324     65.1598      6.6610   7.2232519397e+01   6.6618392815e+01    0.2658063    0.1830858  -6.53  0.000771588    1.401    0.286
        33 -11.0301    194.1594      4.5493   4.4511137717e+01   3.5584825058e+01    0.2314287    0.1702249 -16.73  0.001204092    1.470    0.320
        34 -10.2323    235.5807      4.2509   4.0777739327e+01   2.5263595182e+01    0.1761639     0.124925 -10.88 0.0009485604    1.640    0.390
        35 -10.0200    230.7708      3.9934   4.1077049459e+01   2.6434803105e+01    0.1767267      0.10377 -26.51 0.0005904112    1.651    0.394
        36 -11.1292    130.2835      3.4321   5.2971053970e+01   5.2469037906e+01    0.2697843    0.2435519  56.54 0.0008694264    1.068    0.064
        37  -9.6929    120.8089      4.1408   5.5112148308e+01   5.4782148959e+01    0.1995442    0.1491198  29.35 0.0004433744    1.316    0.240
        38  -9.9307    104.2577      4.4302   5.8961210067e+01   5.8733949124e+01    0.1837419    0.1610769 -45.10  0.000361395    1.326    0.246
        39  -9.6250    100.5088      2.0070   5.8746554807e+01   5.9834942551e+01    0.1863385    0.1796614  75.51  0.001150681    1.220    0.181
        40 -11.3800     79.7803      1.9702   6.4583666653e+01   6.4349443881e+01    0.4072952    0.2193406  40.61  0.001941846    1.745    0.427
        41 -10.8038    173.1577      3.1231   4.6416252354e+01   4.1252120283e+01    0.2513442     0.196016  85.94 0.0005576192    1.271    0.213
        42 -10.2533    160.9950      2.9981   4.7938045081e+01   4.4492264532e+01    0.1699114    0.1678696  -8.14 0.0007352095    1.068    0.063
        43  -9.7239    112.2006      2.9922   5.6444803924e+01   5.6991332172e+01    0.2192198    0.1412416 -48.92 0.0005225703    1.922    0.480
        44 -10.0892    203.4553      1.7376   4.2765566666e+01   3.3445271350e+01    0.1858496    0.1333095   0.22 0.0009465503    1.703    0.413
        45  -9.9790     67.0826      1.6094   6.8727072859e+01   6.6874700820e+01    0.1756213    0.1454654  23.27 0.0003910997    1.121    0.108
        46 -11.7713    152.9826      8.2607   5.0999106362e+01   4.6122993340e+01    0.5323464     0.322713  70.22  0.002458826    1.617    0.382
        47  -9.9567    187.1338      1.2883   4.4241359004e+01   3.7725537509e+01    0.1917577    0.1188268  86.51 -0.000430966    1.649    0.394
        48 -11.1530     19.1714    117.6525   1.2179899062e+02   4.8696257650e+01    0.1982652    0.1524167  26.85 0.0003640157    1.640    0.390
        49 -11.8156     18.0180    248.9774   1.3021909573e+02   2.2972892320e+01    0.2725797      0.18138  21.03  0.001943453    2.800    0.643
        50 -10.6614      1.9972    239.3141   1.3232483895e+02   2.6014449979e+01    0.2366032    0.1035355  72.99   0.00166829    1.714    0.417
        51 -11.9641      6.0978    241.4364   1.3176857165e+02   2.5299609460e+01    0.4647984    0.2770338 -48.23  0.002999254    3.851    0.740
        52 -11.1597      1.8675    248.2586   1.3259890144e+02   2.4616578411e+01    0.3134739    0.1699566  73.48  0.002316867    1.322    0.244
        53 -11.4827      6.1800    245.8248   1.3189089178e+02   2.4598696546e+01    0.2608112    0.1397201 -87.09  0.002052628    1.682    0.405
        54 -12.1247     10.8138    244.4019   1.3115009627e+02   2.4386642784e+01    0.2744298    0.2260637 -43.75  0.001894959    2.409    0.585
        55 -10.4437     17.9456    122.0052   1.2258063806e+02   4.7791421420e+01    0.1757846    0.1400984 -83.02            0    1.045    0.043
        56 -10.0501      8.0282    121.2761   1.2510389785e+02   4.8685837127e+01    0.1581867    0.1255719  84.55 0.0003968668    1.081    0.075
        57 -10.4885     72.2071    112.9768   1.0616645539e+02   4.4061730666e+01    0.2029186    0.1878331  77.46 0.0003232436    1.095    0.087
        58 -10.6489     65.5779    110.8041   1.0765670134e+02   4.5476307101e+01    0.2919107    0.2101458 -74.49   0.00158812    1.308    0.235
        59  -9.6817     20.2945    112.6656   1.2093371727e+02   4.9762426389e+01    0.1259151   0.07679548  73.79 0.0007026924    1.642    0.391
        60 -11.5803      3.7797    108.9175   1.2512928439e+02   5.1771106289e+01    0.3205262    0.2315381  14.32  0.001809909    1.903    0.474
        61 -11.0369     13.1711    108.8319   1.2250185462e+02   5.1178438257e+01    0.2330084    0.1419926  46.99  0.001413594    1.768    0.434
        62 -11.2320     57.2570    107.9519   1.0955884564e+02   4.7206431475e+01    0.2627751    0.1985809  24.23 0.0009925805    1.635    0.389
        63 -10.5340     17.9820    105.0503   1.2068925609e+02   5.1709712681e+01    0.1939122    0.1204265 -46.96  0.001130051    1.743    0.426
        64  -9.5683    187.0324    103.3121   7.5023531000e+01   2.3195651338e+01    0.2119137    0.1882222  47.11 0.0005384719    1.152    0.132
        65 -10.3835     57.7493    102.0287   1.0829491661e+02   4.8549076475e+01    0.2770143    0.1425309  58.45  0.001179061    2.631    0.620
        66 -10.3944     20.8623     99.1211   1.1907099990e+02   5.2878642615e+01     0.172993    0.1204636 -56.75 0.0004551433    1.323    0.244
        67 -10.3587     62.0992     98.1165   1.0617063730e+02   4.8927260124e+01    0.2161826    0.1719006 -46.76  0.001233885    1.256    0.204
        68 -11.4578     17.4860     95.4541   1.1960639080e+02   5.3984526319e+01    0.3269869    0.2265609 -22.83  0.001977229    1.989    0.497
        69  -9.2626    101.3237     96.7132   9.4067324060e+01   4.3139431120e+01    0.1468162      0.11447  84.10 0.0007006933    1.603    0.376
        70 -11.4464     78.8044     95.0422   1.0033464252e+02   4.7296928133e+01    0.2525872    0.2110669 -57.82 0.0003220242    1.087    0.080
        71 -12.0099     11.0156     90.4850   1.2096333282e+02   5.5574881612e+01    0.7540786    0.1732427 -71.07  0.002885322    3.177    0.685
        72 -10.5039      3.4662     95.5145   1.2388067666e+02   5.4860212470e+01    0.2029155     0.156381 -76.97 0.0001967158    1.033    0.032
        73  -9.2655     62.9896     93.0338   1.0479324599e+02   5.0008590074e+01    0.1577757    0.1415136 -66.03 0.0009463783    1.022    0.022
        74 -10.5430     40.6922     87.6189   1.1087501494e+02   5.3855348768e+01    0.5474914    0.2533814  67.42  0.001288286    5.214    0.808
        75  -9.8102     29.4637     92.0166   1.1532377166e+02   5.3856150282e+01    0.1961944    0.1820096  46.55 0.0006975814    1.287    0.223
        76 -10.9635     25.0145     89.8290   1.1639841113e+02   5.4736388745e+01    0.4239464    0.1881115 -69.92  0.002063953    1.835    0.455
        77 -10.9007     57.6610     91.8953   1.0623872469e+02   5.0953657966e+01    0.2609543     0.196156 -22.78 0.0007902118    1.723    0.420
        78 -11.8210     18.6966     87.9397   1.1814996292e+02   5.5654056571e+01    0.4681321     0.257156 -78.92  0.001900369    1.586    0.369
        79  -9.7640     64.9378     88.5183   1.0313363867e+02   5.0807425332e+01    0.2252239    0.1628897 -58.49 0.0007718759    1.220    0.180
        80  -9.5979      1.5593     89.1122   1.2375811368e+02   5.6433648504e+01     0.184518   0.08926889 -75.34  0.000953157    1.563    0.360
        81  -9.1483    150.0223     88.2119   7.8839557161e+01   3.4692231470e+01    0.2009158    0.1259309  49.40 0.0004103479    1.621    0.383
        82  -9.3862     33.1336     88.2132   1.1347738075e+02   5.4431132955e+01    0.1837165    0.1349053 -58.23 0.0005469025    1.171    0.146
        83  -9.4304    123.9888     86.9733   8.5045994466e+01   4.0772127581e+01    0.1893918    0.1785103 -42.64 0.0006319977    1.027    0.026
        84 -10.1318    113.9117     85.6029   8.7414172961e+01   4.3156205806e+01    0.2345205    0.1958435 -28.19 0.0005221519    1.259    0.206
        85 -11.3258     54.9480     84.8184   1.0554394714e+02   5.2944692510e+01    0.3116792    0.2177278 -69.94   0.00095294    1.360    0.265
        86  -9.5259     71.9870     85.5153   1.0012056338e+02   5.0517467450e+01     0.191277    0.1403576  36.80 0.0004778287    1.519    0.342
        87 -10.1648     76.7043     89.0549   9.9513767232e+01   4.9001360241e+01    0.2272214    0.2075412  34.97 0.0007677199    1.221    0.181
        88 -10.9782      3.7920     82.0454   1.2219445644e+02   5.7940758788e+01    0.4362478    0.1987022 -83.98  0.002230907    1.970    0.492
        89 -11.5562      6.1826     75.8248   1.2053966448e+02   5.9244056821e+01    0.4131956    0.1343369 -51.95  0.001908438    2.500    0.600
        90  -9.3054    124.6679     83.3013   8.3775933500e+01   4.1388678845e+01    0.1545033    0.1222994 -84.69 0.0004924997    1.652    0.395
        91  -9.5043    100.2162     83.3726   9.0734032607e+01   4.6305172037e+01    0.1999418    0.1388794  53.70 0.0006190365    1.621    0.383
        92 -11.1684     64.4306     79.4574   1.0105262906e+02   5.2973373241e+01    0.4362299    0.2708746 -64.11  0.001532842    1.582    0.368
        93  -9.7230    250.2642     81.0012   5.8883900196e+01   1.2464117155e+01     0.181525    0.1080048 -29.15 0.0004447432    1.478    0.323
        94 -10.1571     89.5514     80.7477   9.3233971354e+01   4.8800420232e+01    0.2482579    0.1935489 -68.19 0.0003403374    1.404    0.288
        95  -8.9354    124.6308     79.2838   8.2564397397e+01   4.2218836608e+01    0.1554875     0.122337 -88.31   0.00070173    1.699    0.411
        96 -10.8810     10.1920     79.4023   1.1969353814e+02   5.8193105105e+01    0.2467829    0.1312205 -70.29 0.0008669629    1.442    0.306
        97  -9.8636     24.6574     78.6898   1.1460686515e+02   5.7371073479e+01    0.2454122    0.1438116 -27.75  0.001279447    2.276    0.561
        98 -10.7549     28.0935     77.0566   1.1309685874e+02   5.7476853988e+01    0.1832218     0.161481 -63.22 0.0003576186    1.092    0.084
        99 -10.9675     17.0117     75.8081   1.1676467587e+02   5.8594112262e+01    0.3419556    0.2814203  18.47  0.002341217    1.545    0.353
       100 -10.2738    176.8683     77.1304   6.9707112312e+01   3.0243286050e+01    0.2454083    0.2183345 -66.56  0.001242097    1.234    0.190
       101 -10.0454     44.7756     77.5810   1.0734929410e+02   5.5784764174e+01    0.1653363    0.1196544  47.78 0.0003373577    1.618    0.382
       102 -11.1840     55.6468     75.4041   1.0301673697e+02   5.5040890488e+01    0.3539335    0.3065385 -12.74  0.001042807    1.343    0.255
       103  -9.0012    160.7045     75.2963   7.2529383473e+01   3.4555820758e+01    0.1555706    0.1225071 -70.56 0.0001665924    1.565    0.361
       104 -10.4831     71.9580     74.8937   9.7272721998e+01   5.2939091738e+01    0.3506779    0.1688596  27.25  0.001049421    2.796    0.642
       105 -11.1406     36.1358     72.7737   1.0932684027e+02   5.7763279296e+01    0.4670565     0.276561 -57.28  0.001537097    1.369    0.269
       106 -10.4518     32.6219     73.2609   1.1070355056e+02   5.7971297080e+01    0.3379032    0.1890459  59.54  0.001624194    2.557    0.609
       107  -9.1779    136.5542     74.4707   7.7950548082e+01   4.0490173699e+01    0.1542005    0.1489125 -19.51 0.0001376682    1.019    0.018
       108 -10.2443     92.5447     72.3218   8.9766544824e+01   5.0106408775e+01    0.4282878    0.2447758 -63.45  0.001707011    2.388    0.581
       109  -9.3679     81.4087     73.2414   9.3640139609e+01   5.1828307246e+01    0.2016289     0.129127 -58.33 0.0009422629    1.588    0.370
       110  -9.4834    217.0201     72.0778   6.1238852437e+01   2.1222422833e+01    0.1770798    0.1617728 -28.28 0.0004576648    1.025    0.024
       111 -10.0127    105.9889     71.9580   8.5531000603e+01   4.7621306267e+01    0.2194164    0.2110946 -33.66  0.000449062    1.019    0.019
       112  -9.4122     76.2490     71.6545   9.4882244688e+01   5.3004418157e+01    0.1377721    0.1069726 -77.75 0.0002184047    1.578    0.366
       113  -9.3991     99.8323     70.5734   8.6944242722e+01   4.9115623277e+01    0.1853218    0.1432899  58.01 0.0004469835    1.499    0.333
       114 -10.1094     79.7408     68.9018   9.2868542909e+01   5.3047468019e+01    0.2368444    0.2008016  11.95 0.0007897777    1.354    0.261
       115  -9.6625     56.5986     68.9387   1.0094888660e+02   5.6392041162e+01    0.2838166    0.1557701 -19.38  0.001055187    3.655    0.726
       116 -10.0066     46.6415     69.4611   1.0470316414e+02   5.7452083369e+01     0.261812     0.135393  24.93  0.001244426    2.394    0.582
       117 -12.4582      9.1524     63.9983   1.1755085726e+02   6.1788081626e+01    0.7588993    0.3547881 -73.75  0.003955571    1.798    0.444
       118 -11.5302     14.0440     63.9042   1.1567492626e+02   6.1521590356e+01    0.3722663    0.2157902 -87.66 0.0004543578    1.904    0.475
       119 -13.8006     19.8579     57.5653   1.1205730455e+02   6.2571926339e+01    0.4771262    0.2628341 -64.15  0.001255715    1.457    0.314
       120  -9.8246      1.5964     66.7208   1.2081414750e+02   6.1553584457e+01    0.1698116   0.09123155 -82.00 0.0009505451    1.633    0.388
       121 -10.5113     34.9423     64.6025   1.0784128925e+02   5.9747445311e+01    0.2828224    0.2360697 -54.91  0.001823288    1.021    0.021
       122 -10.9706     39.1618     62.8049   1.0576891011e+02   5.9747391514e+01    0.7216441    0.1829373 -46.32  0.002490104    3.567    0.720
       123 -10.9701     75.7597     64.8093   9.2932977530e+01   5.4570709640e+01    0.2538583    0.2117961  41.33 0.0002639885    1.335    0.251
       124 -10.7164     64.4389     61.5788   9.5919485349e+01   5.6968439391e+01    0.4456865    0.2873571   8.72  0.001623787    2.295    0.564
       125  -9.8190    100.7041     61.5795   8.3678052982e+01   5.0777336599e+01    0.2466761    0.1744601 -59.77 0.0006367555    1.683    0.406
       126  -9.8230     54.2732     61.4379   9.9636707151e+01   5.8354682989e+01    0.2830835     0.194869  -8.20  0.001444084    1.988    0.497
       127 -11.3573     17.4988     33.2503   1.0643261006e+02   6.8016019786e+01     0.816065    0.3456343 -19.31  0.002870871    4.445    0.775
       128 -13.6786      6.3079     50.4805   1.1605139452e+02   6.4977715216e+01    0.6180337     0.340847 -38.36  0.001184509    1.763    0.433
       129 -10.8887     18.3065     44.5689   1.0944351242e+02   6.5554519662e+01     0.427445    0.3298744  64.80  0.001868088    1.746    0.427
       130 -10.5779     12.9374     41.1486   1.1091887184e+02   6.6648382425e+01    0.2498071    0.1815272 -61.28 0.0003844116    1.140    0.123
       131 -10.5530     25.9767     29.6460   1.0105310298e+02   6.8068433916e+01    0.2033754    0.1427802 -51.75 0.0004540853    1.227    0.185
       132 -10.6317     22.8982     38.4944   1.0557380863e+02   6.6510739010e+01    0.2138881    0.1943456  83.35 0.0007722692    1.407    0.289
       133 -11.1704     26.7556     35.0636   1.0263993458e+02   6.6901956581e+01    0.3788982    0.1786321 -39.09  0.001396181    1.894    0.472
       134 -11.1232     83.7212     56.7926   8.7506919611e+01   5.4911878246e+01    0.2775828    0.2441017 -72.17  0.000776098    1.354    0.262
       135 -12.0501     88.0730     53.2277   8.4761084405e+01   5.4837023054e+01    0.5963755     0.505854  39.49  0.003241551    1.269    0.212
       136  -9.1504     48.3122     58.2644   1.0095892547e+02   5.9770699876e+01    0.1299395   0.09089729 -28.45 0.0002031553    1.539    0.350
       137 -10.1863     33.4164     55.4319   1.0604569904e+02   6.1946866851e+01    0.5247568    0.1391104 -49.27  0.002010621    2.871    0.652
       138  -9.3258    157.9885     56.4753   6.7101116172e+01   3.8469217222e+01    0.2064256    0.1381839 -87.12 0.0006079262    2.282    0.562
       139  -8.7837     71.6604     56.7293   9.1706820193e+01   5.6923712341e+01    0.1385294    0.1033268 -12.81 0.0003884319    1.605    0.377
       140  -8.7825    174.3198     55.3543   6.3496419914e+01   3.4465268655e+01    0.1641383     0.117797  20.13 0.0007046561    1.752    0.429
       141 -11.4074    114.6352     53.8880   7.6820829492e+01   4.9318926432e+01    0.3366623    0.3266418 -89.32 0.0008436403    1.150    0.130
       142  -9.5960     96.6382     55.1923   8.2690586822e+01   5.2828177859e+01    0.2075617      0.12958 -31.67 0.0005146002    1.612    0.380
       143  -9.2238     54.4124     55.4906   9.7736325189e+01   5.9630409771e+01    0.1342828    0.1149824 -47.97  8.00215e-05    1.051    0.048
       144 -12.4185     65.9931     52.7054   9.2393169882e+01   5.8619872776e+01    0.5070008    0.2639224  33.24  0.001454128    2.192    0.544
       145  -9.9298    105.7637     53.1453   7.9130528373e+01   5.1363507655e+01    0.2509753    0.2012731  58.21 0.0008159082    1.420    0.296
       146  -9.4127    231.5262     51.5345   5.3666367204e+01   2.0691257086e+01    0.1419852    0.1301293 -38.51 0.0001703707    1.005    0.005
       147  -9.6110    122.9820     51.6463   7.3715909523e+01   4.7831529764e+01    0.2455204     0.133805  76.19  0.000498013    4.560    0.781
       148 -11.0088     77.1861     47.5251   8.6398625854e+01   5.7873462905e+01      0.50724    0.3274641 -12.55  0.002286119    2.151    0.535
       149  -9.4835     47.2407     50.1717   9.8840842379e+01   6.1643778564e+01    0.1646188    0.1485263 -75.59 0.0007495663    1.296    0.228
       150 -10.0528     57.5058     46.8404   9.3571065548e+01   6.1032893985e+01    0.3632802    0.2063539 -63.73  0.001015077    2.423    0.587
       151  -9.5063     53.5730     48.1988   9.5620019834e+01   6.1277078106e+01    0.1968919    0.1058898 -41.08 0.0009446527    1.649    0.394
       152  -9.0340    154.7395     47.6767   6.4810486429e+01   4.0691354229e+01    0.1538984     0.117591  15.47 0.0001760543    1.554    0.356
       153  -9.2688    135.5063     46.4315   6.8655034771e+01   4.5716652413e+01    0.1492275    0.1474098 -15.44 9.071644e-05    1.041    0.039
       154 -11.2757     27.3905     43.8154   1.0521172468e+02   6.5011394913e+01    0.3888965    0.3244234  47.20  0.002576594    1.541    0.351
       155 -10.7607      3.8907     41.4191   1.1508805802e+02   6.7085379166e+01    0.4101968    0.1832761 -42.43    0.0022282    1.933    0.483
       156 -11.0285      3.6756     35.0309   1.1360757422e+02   6.8469091660e+01     0.358441    0.2377043 -46.92  0.001819085    1.202    0.168
       157  -9.8592     69.6990     42.1927   8.7086841099e+01   6.0134913001e+01    0.2161231     0.189713  50.89  0.001272605    1.387    0.279
       158 -10.5738    181.1770     40.7041   5.7611214212e+01   3.4820534221e+01    0.3173352    0.2463275 -80.35  0.001065016    1.482    0.325
       159 -10.8837    139.3663     40.5309   6.5599793051e+01   4.5674390386e+01    0.3740236    0.2637228  76.20  0.001261766    1.746    0.427
       160  -9.6822     42.8165     40.7962   9.7454615504e+01   6.4107739944e+01    0.1534908    0.1436617 -68.99 0.0003519056    1.287    0.223
       161 -10.1269     35.5028     41.3639   1.0084167010e+02   6.4774999348e+01    0.2623034    0.1677491  13.33   0.00146565    1.922    0.480
       162  -9.9573     51.7885     39.8849   9.3305560482e+01   6.3193993375e+01    0.1962025    0.1553017 -28.44 0.0004250215    1.139    0.122
       163 -11.9853    121.5988     37.2992   6.8656681905e+01   5.0496778421e+01    0.4559842    0.4390398  78.29  0.001323046    1.156    0.135
       164 -10.2697    131.4663     38.5679   6.6701396767e+01   4.7926628684e+01    0.2637027    0.2490819 -37.19 6.718609e-05    1.092    0.084
       165 -10.0297    127.9816     38.7483   6.7613473944e+01   4.8748369022e+01    0.2798828    0.2113307  59.32 0.0004534962    1.388    0.280
       166  -9.5835    100.0077     39.4841   7.5609306529e+01   5.4980444135e+01    0.2072546    0.1424114  46.94 0.0003904393    1.512    0.339
       167 -10.4458     38.6376     35.6273   9.7383958634e+01   6.5617916263e+01    0.2662509    0.1765443  11.66   0.00145581    1.815    0.449
       168  -9.8215    229.5083    248.0108   9.5404918250e+01  -5.0689968506e+00    0.1594245    0.1097438  26.92 0.0006424135    1.058    0.055
       169 -10.1682     96.6139     33.7766   7.4302415254e+01   5.6622766090e+01    0.4161724    0.1299551 -34.68  0.001400572    3.039    0.671
       170 -10.2839    134.1658     34.2205   6.4418710056e+01   4.7894409352e+01     0.216891    0.1840844  28.90 0.0003968806    1.193    0.162
       171  -9.1618     50.4370     33.5142   9.1346698160e+01   6.4606623323e+01    0.1301875    0.1112648 -34.50 0.0001292714    1.071    0.066
       172  -9.5727    205.6063     31.3925   5.1235672733e+01   2.9680120634e+01    0.3034259   0.08105013 -39.58 0.0009557931    3.249    0.692
       173 -10.4285    166.3733     30.9828   5.6865086990e+01   4.0010683102e+01    0.2284495    0.2047244 -83.97 0.0004077447    1.177    0.151
       174  -9.8911    128.2985     31.0222   6.4542360616e+01   4.9795234324e+01    0.4298143    0.1563739  51.23  0.001518267    2.563    0.610
       175  -9.3361    187.0000     29.9691   5.3301101626e+01   3.4689861895e+01    0.2398323   0.08307759 -25.76  0.000793945    2.884    0.653
       176 -10.6238      8.1056     28.5355   1.0956957112e+02   6.9599734252e+01    0.2399427    0.2078883  79.38  0.001365456    1.527    0.345
       177  -9.4832     70.1701     28.8578   8.1291099434e+01   6.2451291074e+01    0.1884975    0.1439485 -10.96 0.0005618915    1.301    0.231
       178  -9.7194    146.9776     26.4494   5.8784710825e+01   4.5672659229e+01    0.2164219    0.1945163 -18.21  5.48251e-06    1.127    0.113
       179  -9.7847     77.2586     26.6447   7.7660361058e+01   6.1557453792e+01    0.2889131    0.1766598  -6.88  0.001288804    2.190    0.543
       180  -9.9367    128.3213    247.3503   1.1214138294e+02   9.6479861285e+00    0.1020515   0.07830749  17.38 0.0007048413    1.745    0.427
       181 -10.3506    114.2802     24.8456   6.5488733056e+01   5.4008180790e+01    0.3404663    0.2443637  32.65    0.0016906    1.419    0.295
       182  -9.2760     18.3239     26.3012   1.0361465041e+02   6.9371200456e+01    0.1261477    0.0714108 -32.73 0.0007028531    1.634    0.388
       183  -9.5250    153.7309     25.5869   5.7197333847e+01   4.4018609874e+01    0.2044698    0.1435333  79.70 0.0009385005    1.609    0.379
       184 -10.3281     59.2120     24.3343   8.3585247188e+01   6.4993971430e+01    0.2507586    0.1992365   0.53 0.0008433504    1.247    0.198
       185  -9.7271    121.7479     24.2175   6.3368509053e+01   5.2309017901e+01    0.4430486    0.1064436  48.69   0.00131657    3.734    0.732
       186  -9.5684    140.0604     26.5804   6.0221537072e+01   4.7437227816e+01    0.2242569    0.1431046  61.87 0.0007404185    1.569    0.363
       187 -10.6430      1.8791     21.9378   1.1072477789e+02   7.1280655537e+01     0.256532     0.129733 -61.14  0.000785885    1.562    0.360
       188  -9.7612    224.7954    246.4488   9.5935925107e+01  -4.2686684908e+00    0.1557782   0.07531743  30.01 0.0009384016    1.631    0.387
       189  -9.3108    187.3220    246.3113   1.0203599327e+02   1.1281958420e+00    0.1109573    0.0706088  19.18 0.0002989861    1.652    0.395
       190  -9.9809     36.5735     18.2853   9.0992554202e+01   6.9119116937e+01    0.2887106     0.142007 -41.08 0.0006644516    1.691    0.409
       191  -9.4864    136.4792    245.5701   1.1057082741e+02   8.7140164571e+00    0.1123268   0.08248837  47.66 8.583478e-05    1.053    0.051
       192  -9.5442     54.7625    240.9922   1.2404331213e+02   2.0278966372e+01    0.1434757    0.1035202  65.37 0.0004345805    1.055    0.052
       193  -9.8455     49.9100    241.1334   1.2484737925e+02   2.0816693993e+01     0.167871   0.09903423  64.44  0.001224094    1.288    0.224
       194  -9.6610    202.4836    240.0919   9.8697414914e+01  -4.1121660863e-01    0.1365023      0.10616 -20.73 0.0005958558    1.523    0.343
       195 -11.5003     30.6027     21.1981   9.5307737278e+01   6.9252165996e+01    0.2527891    0.1794158 -39.36 0.0005147663    1.141    0.124
       196 -11.1326     14.7587     21.5417   1.0367489071e+02   7.0580394692e+01      0.33153    0.1996963  36.57  0.001984455    2.193    0.544
       197  -9.7640     84.7375     21.3657   7.2625253144e+01   6.0924495805e+01      0.18931    0.1194655  36.90 0.0005404145    1.601    0.375
       198  -9.9664     99.9731     18.8198   6.6740600525e+01   5.8066082420e+01    0.2764485    0.1719231 -51.59   0.00124197    2.162    0.538
       199  -9.8867     58.2155     18.8463   8.1371183249e+01   6.6045948392e+01    0.2846138   0.08871465 -43.51  0.001021081    3.379    0.704
       200 -10.1944    199.9560     17.4796   4.7780416816e+01   3.2754718796e+01    0.2101815    0.1372269  72.43 0.0004724429    1.522    0.343
       201 -11.2173    108.5262     16.2632   6.3269106946e+01   5.6444648860e+01    0.2323232    0.2144008  17.68  0.000283367    1.014    0.014
       202  -9.5876     82.4451     17.4920   7.1556029294e+01   6.1923798936e+01    0.1381309    0.1199701   0.70 2.270485e-05    1.024    0.023
       203  -9.7498     26.7304     16.8061   9.5312341280e+01   7.0449906707e+01    0.1486343    0.1296909 -46.76 0.0004698269    1.300    0.231
       204  -9.6894     60.3648    240.8804   1.2311070872e+02   1.9635665553e+01    0.2493869   0.05812035  36.89  0.001046931    4.016    0.751
       205  -9.9974     20.1657     16.8953   9.8854656914e+01   7.1042263537e+01    0.1623581    0.1416354 -38.09 0.0004719082    1.189    0.159
       206  -9.7399    148.5470    239.0001   1.0777699907e+02   7.8197152343e+00    0.1395509    0.1136558 -51.94 0.0009889327    1.602    0.376
       207 -11.1839     14.2806    238.7274   1.3042278332e+02   2.4960382643e+01    0.1727746   0.09645746  64.49 0.0004452691    1.230    0.187
       208 -12.2542     26.0953    235.7526   1.2843888006e+02   2.4269703060e+01    0.3179038    0.2553748  57.97  0.002768809    1.307    0.235
       209 -10.0161     49.1588     15.9315   8.3867457293e+01   6.7873279619e+01    0.1833167    0.1606912 -32.10  0.000549775    1.236    0.191
       210 -10.2606    175.5750     14.8297   4.9997884904e+01   3.9457857005e+01    0.2569104    0.1986488  72.43 0.0002312106    1.264    0.209
       211 -10.8452    190.4895     13.7866   4.7759964521e+01   3.5622347298e+01    0.2627026    0.1948659  70.70 0.0008055484    1.312    0.238
       212 -10.2655    156.0336     13.9690   5.2596011959e+01   4.4739260561e+01    0.2279391    0.2118778  25.07  0.001147762    1.097    0.088
       213  -9.5238     91.3908    236.8493   1.1754814752e+02   1.6334404121e+01    0.1313774   0.09776586 -57.56  0.000952288    1.772    0.436
       214 -10.1080    162.0735     13.4539   5.1469419281e+01   4.3192662908e+01    0.2190617    0.1364961  65.14 0.0005190436    1.529    0.346
       215  -9.2472    210.6113    236.1756   9.6806080054e+01  -1.1820734118e+00    0.1382784   0.09526908  -8.76 0.0004903255    1.640    0.390
       216 -10.0046    249.1123    234.0082   9.0294655677e+01  -6.4367780794e+00    0.1649322    0.1169109  17.97 0.0004698444    1.010    0.010
       217 -12.0711      4.2301    232.5518   1.3177506506e+02   2.6910972457e+01    0.2553786    0.1259727  60.23 0.0003447347    1.378    0.274
       218 -12.5916      9.7181    228.4903   1.3077172643e+02   2.7080136414e+01    0.4465158     0.227941  63.38  0.001486725    1.373    0.272
       219 -10.5649    140.3088    227.7208   1.0793975844e+02   1.0654710842e+01    0.2338558    0.1829936 -85.44   0.00145718    1.667    0.400
       220  -9.4795    209.5388    229.5332   9.6033346461e+01  -2.8754594953e-01    0.1153342   0.08788679  26.34 8.710426e-05    1.009    0.008
       221  -9.9757     33.5638    225.3345   1.2671415050e+02   2.5235906317e+01    0.2674589   0.04551118  41.74  0.001224499    3.397    0.706
       222 -11.1080      8.4591    218.4024   1.3060345204e+02   2.8922193242e+01    0.2541443    0.1669435  21.41  0.001797219    2.487    0.598
       223  -9.4899    209.6497    211.2930   9.3233186682e+01   1.8479638667e+00    0.1100227   0.08995098  57.53  0.000703034    1.675    0.403
       224 -10.0907     20.1702    209.8308   1.2824171171e+02   2.9336489445e+01     0.167339   0.09792513  63.85 0.0006684419    1.262    0.208
       225  -9.5093    196.7880    204.0008   9.4334617422e+01   4.8864445120e+00    0.1448304    0.0984435 -33.48 0.0005809987    1.680    0.405
       226 -10.0496      9.9853    203.4891   1.2973843784e+02   3.1454420739e+01    0.1434764   0.08307648  44.53 0.0005193686    1.554    0.357
       227  -9.8553     23.0104    197.3634   1.2708622556e+02   3.1370949772e+01    0.1486759    0.1089862  62.57 0.0004831598    1.118    0.106
       228 -10.5718     14.0049    192.9423   1.2852094609e+02   3.3068461457e+01    0.1649458    0.1121511  70.38 0.0005220107    1.075    0.070
       229 -10.3610      6.5944    191.5144   1.2981920623e+02   3.4001700699e+01    0.1941419    0.1228527  70.38 0.0003828589    1.153    0.133
       230  -9.1703     19.3278    192.6533   1.2751397558e+02   3.2627197615e+01    0.1201623    0.0562949  65.19 1.643815e-05    1.753    0.430
       231  -9.3156     22.6510    179.7196   1.2611245409e+02   3.4858276599e+01   0.09622964    0.0810148 -54.67 0.0003110198    1.645    0.392
       232 -10.4454      5.4783    167.6502   1.2886418998e+02   3.8824479787e+01    0.2267081     0.132453  76.53  0.001176091    1.330    0.248
       233  -9.2484    247.4858    155.4966   7.6462234553e+01   2.6654718466e+00    0.1314902    0.1081268   2.14 7.209651e-05    1.019    0.018
       234 -10.1167      2.9440    153.5075   1.2860635196e+02   4.1969570244e+01    0.1480386    0.1012581  39.20  0.001040867    1.614    0.380
       235 -10.0538     23.9005    150.8517   1.2375569038e+02   4.0812307247e+01    0.1658891    0.1383489 -76.76 0.0004215009    1.230    0.187
       236 -10.3676     22.5366    143.0014   1.2340577418e+02   4.2664695760e+01    0.1813352      0.09507 -77.31 0.0008627244    1.565    0.361
       237 -10.3817     12.0629    141.3908   1.2574584362e+02   4.3891353762e+01    0.1872483    0.1239842 -76.69 0.0005899479    1.253    0.202
       238 -10.5126      8.9904    135.5016   1.2602565997e+02   4.5426944935e+01    0.2108992    0.1228224  83.56 0.0003305607    1.423    0.297
       239 -10.0656    212.7024    134.0336   7.7713540666e+01   1.2373381714e+01    0.2245887    0.1940438  55.90 0.0006905212    1.339    0.253
       240 -10.5437      3.0612    133.3047   1.2728640626e+02   4.6334406951e+01    0.3200634     0.127662  50.56  0.001703777    2.378    0.580
       241  -9.7476     35.2185    130.8271   1.1903294387e+02   4.4243962778e+01    0.1638868    0.1252586 -59.84  0.000479859    1.334    0.250
       242 -10.0966     29.0209    128.8670   1.2041295431e+02   4.5279174285e+01    0.2979966    0.1377296 -80.78  0.001044559    1.939    0.484
       243 -11.2437     11.0331    129.2181   1.2502061451e+02   4.6679282163e+01    0.3685945     0.187294  50.88  0.002125583    1.936    0.483
       244 -10.4116    248.4909    129.4963   7.0669535723e+01   6.0044558287e+00    0.1354262    0.1163506  -8.14 0.0008105719    1.014    0.014
       245  -9.5080     20.4523    125.4245   1.2227069026e+02   4.6807986428e+01    0.1213548   0.09382506  87.16 -5.794582e-05    1.062    0.059
       246  -8.9742    134.3009    124.3604   9.2100367871e+01   3.0686549591e+01    0.1506838    0.1186052  -8.03 0.0007036517    1.719    0.418
       247 -11.6246     23.5023    121.3400   1.2103633116e+02   4.7494143607e+01    0.4624806    0.2237282  75.38  0.001287175    2.349    0.574
