#   1 NUMBER                 Running object number                                     
#   2 MAG_AUTO               Kron-like elliptical aperture magnitude                    [mag]
#   3 X_IMAGE                Object position along x                                    [pixel]
#   4 Y_IMAGE                Object position along y                                    [pixel]
#   5 X_WORLD                Barycenter position along world x axis                     [deg]
#   6 Y_WORLD                Barycenter position along world y axis                     [deg]
#   7 A_WORLD                Profile RMS along major axis (world units)                 [deg]
#   8 B_WORLD                Profile RMS along minor axis (world units)                 [deg]
#   9 THETA_WORLD            Position angle (CCW/world-x)                               [deg]
#  10 FWHM_WORLD             FWHM assuming a gaussian core                              [deg]
#  11 ELONGATION             A_IMAGE/B_IMAGE                                           
#  12 ELLIPTICITY            1 - B_IMAGE/A_IMAGE                                       
         1 -14.6075      7.8367     78.9884   7.0600887742e+01   6.1185876455e+01      2.19016    0.3748248 -65.79  0.006402837    5.075    0.803
         2 -10.2332     81.6031     10.2294   1.9783769476e+01   6.0835718640e+01    0.1173374    0.1155043 -30.34  0.000287254    1.409    0.290
         3 -12.0830    157.3212    222.9337   4.7379289475e+01   7.3095725358e+00    0.1820431    0.1411641 -39.42   0.00115643    1.109    0.098
         4 -16.8324    158.6230    119.4702   3.0524495394e+01   2.8448211279e+01     4.719214     2.567251  59.23   0.02372182    2.159    0.537
         5 -17.3875    137.2518    127.1850   3.6091387840e+01   3.0387536844e+01     4.469989     2.085254 -62.00   0.01881186    2.285    0.562
         6 -10.8987    163.4973    215.4825   4.5140277966e+01   8.1801969313e+00    0.1235473    0.1039235 -34.20 3.460546e-07    1.001    0.001
         7 -12.0201    182.2689    212.5188   4.1262034125e+01   6.9328928879e+00    0.3552151    0.2982647  43.57  0.002483686    1.559    0.359
         8 -10.9820    169.8454    214.1200   4.3741840982e+01   7.8214232519e+00     0.169822    0.1512714 -52.87 0.0003151408    1.209    0.173
         9 -10.7153    167.9393    192.2482   4.0934367299e+01   1.2364040634e+01    0.1630981    0.1414122 -32.53 0.0002217639    1.087    0.080
        10  -9.9730    191.4136    212.4442   3.9679725254e+01   6.0996509522e+00    0.1165945   0.08974349 -37.15 7.348406e-05    1.035    0.034
        11 -10.4356    218.6045    180.2956   3.0979565709e+01   9.2728301247e+00    0.1485077     0.111251 -88.52 0.0008266947    2.051    0.512
        12 -11.0040    214.7462    183.6692   3.2001088373e+01   9.0605198267e+00    0.2253112   0.09928876 -50.50 0.0008099229    1.722    0.419
        13  -9.7047    204.3044    176.1526   3.2432514246e+01   1.1464701520e+01     0.570721    0.3021207 -72.33  0.002473169    3.855    0.741
        14 -12.4414    208.5709    186.8579   3.3353589767e+01   9.1010606330e+00    0.4470216     0.249997 -55.77  0.002720854    1.559    0.358
        15 -11.0987    213.4285    186.5397   3.2598085630e+01   8.6845161812e+00    0.1745676    0.1128931 -57.03 0.0004986522    1.396    0.284
        16 -11.6144    214.2416    177.4356   3.1179299768e+01   1.0205414337e+01    0.1742659    0.1562835  74.93  0.001364715    1.495    0.331
        17  99.0000    210.4139    177.2110   3.1692329774e+01   1.0635359974e+01    0.3432126    0.1825128 -61.44  0.001933592    1.970    0.493
        18 -13.0586     64.6483    209.6245   6.8141844381e+01   2.0388390425e+01    0.4204808    0.2578195  63.82  0.001822122    2.028    0.507
        19 -16.8517    156.5924    156.9926   3.7506700041e+01   2.1098381947e+01     2.640007     1.520945  24.86  0.009836627    2.511    0.602
        20 -10.3380    203.3274    188.0919   3.4320541944e+01   9.3990643351e+00    0.1457135   0.08689277 -57.86 0.0004777658    1.556    0.357
        21 -10.3736    209.1188    211.8934   3.6762864919e+01   4.6451983034e+00    0.1447488   0.09470389 -35.72 0.0009862041    1.235    0.190
        22 -12.4631     11.2608    206.6018   8.3654490011e+01   2.6243381009e+01     0.311439    0.2633516  -5.34  0.001627708    1.291    0.225
        23 -17.6797    206.1835    134.5425   2.5816394512e+01   1.8731075278e+01     5.843821     4.893451  -6.00   0.04129492    1.902    0.474
        24 -10.2085    219.2216    155.3152   2.7273198765e+01   1.3543205260e+01    0.1061368   0.06629151 -39.90 0.0002218428    1.486    0.327
        25 -13.5628     68.1570    144.4917   5.7919272880e+01   3.7352392499e+01    0.8436946    0.5025825  61.74  0.002892165    2.115    0.527
        26 -10.8743     86.1868    146.1497   5.2601559023e+01   3.4253911232e+01    0.2107641    0.1983931 -35.53 0.0003643673    1.137    0.120
        27 -15.6636    185.2691    125.6894   2.7306130437e+01   2.3179674880e+01     1.594719    0.9716633 -75.16  0.008754404    1.966    0.491
        28 -14.7006     58.7487    102.0972   5.2921651159e+01   4.9448073771e+01    0.7789167    0.7143332 -82.50  0.000737862    1.120    0.107
        29 -15.0276     73.5870    107.5814   4.8939861688e+01   4.5751818735e+01     1.368022     1.172239   0.80  0.002479737    1.457    0.314
        30 -14.4743     66.1630    103.0773   5.0474247915e+01   4.8030934589e+01    0.8448121    0.6610989  -7.35  0.003667864    1.738    0.425
        31 -11.0794     99.2715    108.1381   4.1325774998e+01   4.1139363483e+01    0.2340509     0.192047  37.10 0.0004837931    1.343    0.255
        32  99.0000    192.2982    105.7932   2.2947140107e+01   2.5689616907e+01    0.5454018    0.2922481 -57.73   0.00317169    1.522    0.343
        33 -11.8959    194.7307    100.1545   2.1675896924e+01   2.6282846078e+01    0.3201403    0.1923223 -51.55  0.001255974    1.376    0.274
        34 -15.3524     37.3166     99.1369   6.0779260083e+01   5.3235486948e+01     1.120901     1.024845 -74.38  0.003393717    1.151    0.131
        35 -14.6446      2.6998     92.2701   7.5508847392e+01   5.8369599311e+01     1.002156     0.780338  27.14  0.005581049    1.274    0.215
        36 -13.3960    173.5037    220.7470   4.3979054584e+01   6.1991121848e+00    0.5175635     0.213711 -48.41  0.002584348    1.972    0.493
        37 -10.7447    204.2067     98.3484   2.0224940614e+01   2.5175853638e+01    0.1031164   0.07217405 -44.24 0.0003199685    1.531    0.347
        38 -10.4410    215.8978     93.5406   1.8152677078e+01   2.4271292416e+01     0.173981    0.1299956 -65.62 0.0009705126    1.048    0.045
        39 -12.2153    184.8540     91.5233   2.1445080512e+01   2.9268533190e+01    0.3749315    0.2008727 -62.69  0.002126391    1.659    0.397
        40 -10.8323    168.6303     92.9736   2.3971655935e+01   3.1693776579e+01    0.1767515     0.164939 -40.30  0.000624862    1.504    0.335
        41 -13.1561    136.6839     88.9929   2.8575643940e+01   3.8088932439e+01    0.2989707    0.2218317 -64.07 0.0006383883    1.218    0.179
        42 -13.4144    133.7691     83.0299   2.7868778205e+01   3.9718616279e+01    0.4036854    0.2174436 -54.07  0.001758899    1.750    0.429
        43 -10.5196    219.5901     89.8044   1.7182492826e+01   2.4334631202e+01    0.1005644   0.07848226 -68.20 0.0003068157    1.128    0.113
        44 -11.0507    223.5094     88.0048   1.6515167813e+01   2.4065898364e+01    0.1654487    0.1375038  50.19  0.001306832    1.935    0.483
        45 -15.4824    192.6594    164.1309   3.2393714879e+01   1.5000444129e+01     1.600845    0.9824414  19.25  0.008877592    2.656    0.624
        46 -12.8600    142.6804     79.7840   2.5549647343e+01   3.8618445827e+01    0.2838666    0.2262538  40.57  0.001140429    1.786    0.440
        47 -12.7467    183.7205     78.2050   1.9209469830e+01   3.1627923255e+01    0.2438161    0.1854558 -54.06 0.0008449844    1.299    0.230
        48 -11.9052    172.5880     78.5569   2.0708558814e+01   3.3449848537e+01    0.3226615    0.2009607 -60.31 0.0009794476    1.333    0.250
        49 -11.0252    177.0904     71.1992   1.8750346247e+01   3.3850220267e+01      0.26869    0.1991826 -15.47  0.001376647    3.718    0.731
        50 -12.6878    164.1852     78.7867   2.1926283821e+01   3.4876684319e+01     0.337755    0.2913997 -66.17  0.001408609    1.228    0.185
        51 -11.2419    169.0989     71.3820   1.9817118579e+01   3.5210106930e+01    0.3337166    0.2441487  29.71  0.001800282    3.211    0.689
        52 -10.5898    219.3821     80.4445   1.5724119379e+01   2.5784559688e+01    0.1050049   0.07631304 -60.94 0.0007936267    1.113    0.101
        53 -17.8238    237.8193     23.1801   5.5674269251e+00   3.0739549979e+01     4.551375     2.750739 -64.26   0.03203955    1.057    0.054
        54 -13.8172    191.9536    193.9569   3.6972299190e+01   9.4653187677e+00    0.8711124    0.4087937 -68.50  0.003239311    4.754    0.790
        55 -14.8759    189.6599    153.0177   3.1118847444e+01   1.7467534389e+01    0.6027826     0.553567 -13.13  0.004392794    1.371    0.271
        56 -10.2120    205.5791    199.7575   3.5632832566e+01   7.0879271207e+00    0.1113727   0.07169089 -22.50 0.0006911136    1.727    0.421
        57 -10.8069    231.8680     65.0000   1.2237769093e+01   2.6246244846e+01    0.1152861   0.05246931  68.22 0.0006110359    2.519    0.603
        58 -10.5990    155.2783     60.3291   1.9528931576e+01   3.9436347680e+01   0.09798208   0.09672241 -52.71 0.0003369605    1.598    0.374
        59 -12.6005    151.4735     47.7407   1.7444431592e+01   4.2008639378e+01     0.242553    0.1823607 -85.15  0.001349119    1.059    0.056
        60 -10.8915    189.9738     36.9808   1.1131697969e+01   3.6519622354e+01    0.1668112    0.1175797 -71.69 0.0005512089    1.022    0.021
        61 -17.7794    240.9766    215.1054   3.2675205019e+01   1.6418169737e+00     7.415421     2.030562 -47.61   0.02581735    2.457    0.593
        62 -12.3463    163.3847     13.6365   9.0929088770e+00   4.4082760326e+01    0.2211405     0.106431  69.61  0.001382161    1.877    0.467
