#   1 NUMBER                 Running object number                                     
#   2 MAG_AUTO               Kron-like elliptical aperture magnitude                    [mag]
#   3 X_IMAGE                Object position along x                                    [pixel]
#   4 Y_IMAGE                Object position along y                                    [pixel]
#   5 X_WORLD                Barycenter position along world x axis                     [deg]
#   6 Y_WORLD                Barycenter position along world y axis                     [deg]
#   7 A_WORLD                Profile RMS along major axis (world units)                 [deg]
#   8 B_WORLD                Profile RMS along minor axis (world units)                 [deg]
#   9 THETA_WORLD            Position angle (CCW/world-x)                               [deg]
#  10 FWHM_WORLD             FWHM assuming a gaussian core                              [deg]
#  11 ELONGATION             A_IMAGE/B_IMAGE                                           
#  12 ELLIPTICITY            1 - B_IMAGE/A_IMAGE                                       
         1 -14.9787      6.6430     25.4015   2.9197880921e+02   7.4504089270e+00    0.1069428   0.05634051 -63.03  0.009371927    1.959    0.490
         2 -12.9295     80.5133     31.6210   2.9114253315e+02   6.9288986296e+00   0.04060081   0.02896283  52.09  0.002892613    1.519    0.342
         3 -13.2718     83.2296     22.5595   2.9105507746e+02   7.0160955343e+00   0.04653427   0.02833378  35.40  0.004643809    1.577    0.366
         4 -12.2036     73.6587      2.1368   2.9104356242e+02   7.3084204188e+00   0.02082394   0.01656317  64.92 0.0007238773    1.425    0.298
         5 -12.2709     75.6787     13.3549   2.9108818794e+02   7.1676385505e+00   0.02135593   0.01807972  49.37  0.001258529    1.213    0.175
         6 -14.2815     85.9542     11.8512   2.9095743929e+02   7.1220730023e+00   0.08680965   0.03086852  30.07  0.004773328    2.622    0.619
         7 -14.9099     90.0702      3.9392   2.9086040139e+02   7.1874966665e+00    0.1760439   0.02995668  30.90   0.01025417    4.611    0.783
         8 -13.4387    123.6741     10.4341   2.9050272525e+02   6.9075089721e+00   0.06539402   0.04122588  -0.25  0.003111524    2.130    0.531
         9 -11.8289     64.0099     17.9817   2.9125450710e+02   7.1859009328e+00    0.0183263   0.01372346  21.95 0.0007060465    1.339    0.253
        10 -10.5976    175.0237     13.7893   2.8991660279e+02   6.5542059080e+00   0.01238062  0.009876778 -61.64  0.001394105    1.281    0.220
        11 -12.1976    186.2383     11.7026   2.8977144080e+02   6.5092112690e+00   0.02574177   0.02059936  28.87  0.002201458    1.218    0.179
        12  -9.8059     53.3960     10.2351   2.9133282507e+02   7.3393795600e+00  0.009164829  0.006522846 -79.14 0.0008063308    1.635    0.388
        13 -10.3821    149.6810      8.4446   2.9018320983e+02   6.7708868020e+00   0.02173843   0.00868092  29.18  0.001755251    2.387    0.581
        14 -11.6267    193.4190      5.9896   2.8965171221e+02   6.5304545617e+00   0.02449057   0.01773795 -34.06  0.002578124    1.524    0.344
        15 -12.3669    138.8656      4.3105   2.9028571437e+02   6.8845156778e+00   0.03753917   0.02262803   9.52  0.003170915    2.053    0.513
        16  -9.5289    158.7961      5.0076   2.9005449892e+02   6.7543034935e+00   0.01108955  0.006940212 -35.20 0.0006301887    1.852    0.460
        17 -11.6344     33.6018      3.8058   2.9152791038e+02   7.5336677659e+00   0.01987085   0.01626144 -13.77  0.001299086    1.355    0.262
        18 -12.8436    179.3212    221.5087   2.9113309135e+02   4.1471605737e+00   0.05601962   0.03373037  78.36  0.004799011    2.645    0.622
        19 -10.9336    146.1243    218.7580   2.9150752499e+02   4.3817548140e+00   0.02107781   0.01298315  83.81  0.001856898    2.464    0.594
        20 -10.7890     68.7270    184.8048   2.9221420966e+02   5.2439493429e+00   0.02053381   0.01163084  31.61  0.001969636    1.688    0.408
        21 -11.1997     49.7318    182.0363   2.9242162128e+02   5.3914873700e+00   0.01268507   0.01095323 -82.57  0.001478722    1.257    0.204
        22 -11.3923     47.1737    176.8354   2.9242027335e+02   5.4667659624e+00   0.01669518   0.01001446 -67.29  0.001028855    1.792    0.442
        23 -11.7497     36.9301    178.8805   2.9255361206e+02   5.5056663146e+00   0.02140535   0.01803017 -46.32  0.001693346    1.205    0.170
        24 -11.8752     53.9537    171.8594   2.9231003677e+02   5.4825777038e+00   0.03139541   0.02408919  61.18  0.002459647    1.473    0.321
        25 -10.7699     42.2159    176.0341   2.9247394482e+02   5.5061578170e+00   0.01520661   0.01215523  68.14  0.001025266    1.430    0.301
        26  -9.8352     12.6543    173.5128   2.9280771591e+02   5.7149672305e+00   0.01238343  0.006309622 -62.49  0.000995117    2.010    0.502
        27 -10.0046     35.3192    169.0612   2.9251308519e+02   5.6281843862e+00    0.0095108  0.008891298 -69.06  0.001023496    1.104    0.094
        28 -10.1077     48.4058    160.9050   2.9230905886e+02   5.6421080909e+00   0.01292499  0.009849994  13.33  0.001065341    1.386    0.278
        29 -10.9244      8.3483    159.9562   2.9277641200e+02   5.8967613289e+00   0.02706343   0.01007002  34.31  0.002149849    2.458    0.593
        30 -10.6927    103.9897    151.5863   2.9159616592e+02   5.4099500298e+00   0.01456237  0.009977586 -66.79 0.0003225939    1.540    0.351
        31  -9.5589     13.1870    153.6401   2.9268095947e+02   5.9398425598e+00  0.009213204  0.006308015  13.95 0.0004318096    1.592    0.372
        32 -10.7103     43.9018    149.8311   2.9229502520e+02   5.7966384326e+00   0.01060233  0.008884456 -22.90 0.0006931361    1.291    0.225
        33 -11.1922     56.9950    119.9797   2.9195894981e+02   6.0593912323e+00   0.01008156  0.009503741 -55.09  0.001230455    1.079    0.073
        34 -12.8406     46.9424    130.0659   2.9213904316e+02   6.0049327708e+00   0.05727737   0.03128152  49.07  0.005197802    2.055    0.513
        35 -12.6294     48.5537    125.2126   2.9209050767e+02   6.0508018703e+00   0.03284023   0.02117121  35.16  0.003364184    1.495    0.331
        36 -11.4773     55.2191    124.4644   2.9200720291e+02   6.0187635491e+00   0.01631971   0.01415076 -11.55 0.0007296372    1.234    0.190
        37 -10.3366     40.8248    143.9901   2.9229590387e+02   5.8824123965e+00    0.0111573  0.009350202  25.44 0.0003393254    1.172    0.147
        38 -11.2794      6.1203    143.0777   2.9270039213e+02   6.1040345353e+00   0.01756532   0.01439326  26.32  0.001343182    1.197    0.164
        39 -11.2198     81.4970    131.3395   2.9173858715e+02   5.7795938594e+00   0.01917947   0.01202278 -57.21  0.001931084    1.592    0.372
        40 -12.6874      9.9269    130.1036   2.9257669047e+02   6.2297911189e+00   0.02903117   0.01736156  25.40  0.002343257    1.662    0.398
        41 -11.7886    125.9884    128.5642   2.9119635727e+02   5.5395779499e+00   0.02064073   0.01533792 -31.38   0.00202299    1.495    0.331
        42 -11.8661     67.4438    128.3037   2.9188611966e+02   5.9001717056e+00   0.02031779   0.01906222   6.12   0.00134234    1.071    0.066
        43 -11.8975     59.8981    145.9824   2.9208271064e+02   5.7433307656e+00   0.05880948   0.03190311  61.19  0.004826963    2.749    0.636
        44 -11.2611     58.4498    128.1657   2.9199153516e+02   5.9566011881e+00   0.01354889   0.01058651 -18.86   0.00148019    1.456    0.313
        45  -9.4841    155.2307    118.0198   2.9078698207e+02   5.4815149983e+00  0.008610416  0.005562426 -61.16 0.0003581676    1.574    0.365
        46  -9.5618    121.2150    116.7701   2.9118085811e+02   5.7040392151e+00  0.009000278  0.007529556 -25.62 0.0004260507    1.287    0.223
        47  -9.9447    125.6209    113.9066   2.9111139154e+02   5.7099280601e+00   0.01133418  0.008907571  10.84 0.0006059943    1.350    0.259
        48 -12.3539     52.0763    144.2034   2.9216428959e+02   5.8114202291e+00   0.05295508   0.02547894  50.72  0.004341837    2.562    0.610
        49 -10.7789     79.7837    109.3756   2.9162516525e+02   6.0420140497e+00   0.01933647   0.01127962 -46.65  0.001805098    1.764    0.433
        50  -9.7497      5.0876    108.2884   2.9250144828e+02   6.5095263490e+00   0.01322866  0.006197041  19.06  0.001070142    2.480    0.597
        51 -13.6504     17.5493    101.1839   2.9231093666e+02   6.5152524073e+00   0.02644476   0.02462728   3.73  0.002122516    1.086    0.079
        52 -13.1385     55.3458     94.6340   2.9182423953e+02   6.3601898762e+00   0.03580299   0.02430284 -21.92  0.002044023    1.840    0.457
        53 -10.7592      5.3662     97.3899   2.9243194750e+02   6.6328619551e+00   0.02049362   0.01240382 -74.62 0.0006574994    1.959    0.490
        54  -9.6422      2.9599     92.5359   2.9243091097e+02   6.7031684496e+00   0.00933161  0.008445143  29.83 0.0003502295    1.080    0.074
        55 -10.5013     32.2707    100.4457   2.9213239080e+02   6.4341242952e+00   0.01557246  0.006131736  30.09 0.0009820376    2.387    0.581
        56 -10.0036     81.9677     95.5145   2.9151495314e+02   6.1876557026e+00   0.01222354  0.009639379  86.47 0.0007406276    1.491    0.329
        57 -10.1411     69.8574     95.6327   2.9165879270e+02   6.2602206821e+00   0.01078225  0.008778501 -46.51 0.0003369021    1.248    0.199
        58 -11.2264    188.4160     94.0125   2.9024899307e+02   5.5532772310e+00   0.02030256   0.01369298  59.12  0.001215416    1.765    0.434
        59  -9.6106    164.4553     93.0086   2.9052554198e+02   5.7117133290e+00   0.01027479  0.006597886 -61.89  0.001029059    1.591    0.371
        60  -9.9123     44.3640     89.9497   2.9192556006e+02   6.4808515337e+00   0.01409676  0.007457828 -45.82  0.001277984    1.975    0.494
        61 -11.1149    152.6320     88.2824   2.9063623907e+02   5.8383375415e+00   0.01246871    0.0111946  41.86 0.0005171115    1.107    0.097
        62 -11.0030    249.6808     86.7034   2.8948227224e+02   5.2607400532e+00   0.01444754   0.01192758 -55.67 0.0008452916    1.224    0.183
        63 -12.1176     58.8411     98.5694   2.9180687546e+02   6.2937395557e+00   0.02402044   0.01897542 -55.01  0.001779985    1.275    0.216
        64 -11.0426     89.5493     86.3398   2.9136946064e+02   6.2465591091e+00   0.01783861   0.01185049  36.46  0.001009122    1.458    0.314
        65 -10.6900     26.0517     85.6848   2.9211615258e+02   6.6412925751e+00  0.009432152  0.008619665  19.82 0.0004409208    1.080    0.074
        66 -11.2950    128.5585     82.9376   2.9088786506e+02   6.0470249975e+00   0.01808845    0.0142629  22.99 0.0009280948    1.260    0.206
        67  -9.6157    143.5199     81.4685   2.9070222514e+02   5.9722554444e+00  0.006675666  0.006410415  45.72 0.0002846869    1.047    0.045
        68 -10.3749     67.4436     81.1606   2.9159918317e+02   6.4409098524e+00   0.01345424  0.008787827  38.09 0.0008812197    1.491    0.329
        69 -10.6833     41.9121     78.2554   2.9188337329e+02   6.6299024659e+00   0.01806822   0.01223629 -10.93  0.001763923    1.914    0.477
        70 -10.0095     47.0680     74.8148   2.9180145097e+02   6.6379342367e+00   0.01399979  0.008814255 -67.66 0.0009810127    1.706    0.414
        71  -9.3436     75.6567     75.3070   2.9146642536e+02   6.4578972859e+00  0.007127716  0.004935358  58.91 0.0007042997    1.691    0.409
        72 -10.5125    144.5261     73.9289   2.9064432094e+02   6.0525005157e+00   0.01295021   0.00954976  26.12 0.0005673924    1.333    0.250
        73 -12.7694     97.0740     71.7831   2.9119179085e+02   6.3674669200e+00   0.03121926   0.01846399  19.95  0.001363871    1.794    0.443
        74 -10.0172     89.3317     72.2938   2.9128641011e+02   6.4089246755e+00  0.009889688  0.009108049 -28.17  0.000276286    1.115    0.103
        75  -8.8436    194.4775     73.5490   2.9005249314e+02   5.7505313868e+00  0.006635755  0.006432626   0.47 0.0001117578    1.030    0.029
        76  -9.9352    120.7962     72.8886   2.9091823668e+02   6.2097145205e+00  0.009787014  0.008926426 -25.48 0.0003979461    1.134    0.118
        77  -9.5533     68.0231     72.9911   2.9154255764e+02   6.5310420564e+00  0.009314101  0.007652909  63.60            0    1.347    0.258
        78  -9.2965    182.9576     72.4748   2.9018182578e+02   5.8335373067e+00   0.00956492  0.006439053  28.79 0.0003576892    1.445    0.308
        79  -9.0749     37.7250     72.2934   2.9189659519e+02   6.7237756214e+00  0.006658643  0.005030778  62.54 0.0001954483    1.523    0.343
        80 -11.0079     83.1967     68.4500   2.9133549221e+02   6.4904649147e+00   0.01146628   0.01100853 -69.21 0.0003018031    1.073    0.068
        81  -9.7191    210.0116     68.5066   2.8983847911e+02   5.7128991151e+00   0.01049558  0.006488719  27.24  0.001031536    1.586    0.369
        82 -10.0553     20.4571     66.4309   2.9206517373e+02   6.8961309923e+00   0.01401338  0.006367505  27.94  0.001190658    2.137    0.532
        83 -10.7340    103.5585     64.8488   2.9107285669e+02   6.4073066100e+00   0.02384823  0.008706932  31.12  0.001865059    2.531    0.605
        84  -9.6255     61.0378     65.0294   2.9157663615e+02   6.6649384912e+00  0.008042477  0.007722182  21.39 0.0003921078    1.020    0.020
        85 -11.3006    214.8319     61.9422   2.8974150867e+02   5.7584581582e+00   0.02066178   0.01733108 -72.09  0.002391751    1.262    0.208
        86  -9.4326    135.4592     63.4667   2.9068752084e+02   6.2279274547e+00  0.006609125  0.006458922  30.30 5.480743e-05    1.013    0.013
        87 -10.6599     52.3459     62.5008   2.9166402185e+02   6.7469381526e+00   0.02046754   0.01160182  13.86  0.001011339    2.101    0.524
        88  -9.8111    170.7556     62.6094   2.9026553448e+02   6.0214103867e+00  0.009672105  0.005907992  37.21 0.0009458941    1.582    0.368
        89 -12.9925    125.3654     57.4758   2.9077017900e+02   6.3583789160e+00   0.01604179   0.01397685  19.81 0.0007251759    1.141    0.123
        90 -10.0726    174.3205     56.6649   2.9018713184e+02   6.0676340880e+00   0.01068978  0.009609982  58.87 0.0005567038    1.165    0.142
        91 -12.1613     68.8052     55.2254   2.9142501609e+02   6.7299211431e+00    0.0221732   0.01600278  38.40  0.001501087    1.356    0.263
        92 -11.3446    209.9923     54.7401   2.8975452811e+02   5.8706586021e+00   0.01545825   0.01180975  -3.00 0.0009807841    1.510    0.338
        93 -11.6855    134.0282     53.9958   2.9064658751e+02   6.3452078441e+00   0.02687219   0.01205842  39.31  0.002296219    2.157    0.536
        94  -9.4554    189.5070     54.4908   2.8999463496e+02   5.9993287903e+00  0.006645003   0.00645763  -1.82 0.0008104159    1.029    0.028
        95 -13.0015      3.2550     46.8878   2.9214977785e+02   7.2247913763e+00    0.0368379   0.02820623  58.82  0.002063159    1.457    0.314
        96 -12.2861    173.7525    227.4282   2.9123467239e+02   4.1133398661e+00   0.09341691   0.04115731 -78.02  0.006266108    4.119    0.757
        97  -9.7408     59.9482     53.0990   2.9151680226e+02   6.8083389521e+00  0.009852747   0.00856508  58.09 0.0002782883    1.217    0.178
        98 -11.2649    145.4147     50.6427   2.9049160875e+02   6.3138619257e+00   0.01414063   0.01230028 -62.09  0.000676372    1.177    0.150
        99 -13.0528     42.7237     47.3861   2.9168573706e+02   6.9788429359e+00   0.03127583    0.0228414   9.15  0.001093287    1.513    0.339
       100 -12.7403     42.2272     42.4128   2.9166129686e+02   7.0388641764e+00   0.03010712   0.02060598   1.93  0.002050049    1.777    0.437
       101 -10.7418    176.6057     45.2395   2.9009031390e+02   6.1844617581e+00   0.01218652   0.01155229  20.41  0.000463469    1.036    0.034
       102 -11.4939    157.5569     43.6627   2.9030555982e+02   6.3193779601e+00   0.01492691   0.01277376 -10.17 0.0008875149    1.262    0.207
       103 -12.4349     41.7764     33.4728   2.9161212505e+02   7.1440515521e+00   0.04346485   0.02479055  51.70  0.003008953    2.039    0.510
       104 -10.1700    197.0023     41.3802   2.8982602638e+02   6.1034174031e+00   0.01193797  0.009753903 -50.39 0.0007278274    1.237    0.192
       105 -10.5278    102.1008     41.5755   2.9094804035e+02   6.6829096176e+00   0.01145105  0.009278629 -53.47 0.0004290742    1.245    0.197
       106  -9.5123     95.4950     42.5279   2.9103195109e+02   6.7123886998e+00  0.006624219  0.006465699  10.87 8.633354e-05    1.010    0.010
       107 -10.5763    217.2928     38.5078   2.8956913826e+02   6.0116109562e+00   0.01643925   0.01133753  -1.86  0.001021373    1.807    0.447
       108 -10.9747    140.2379    221.7640   2.9159516232e+02   4.3832495454e+00   0.01744765    0.0157676 -18.21  0.002094415    1.156    0.135
       109 -13.5684     82.9559    207.8223   2.9218597289e+02   4.8929941887e+00   0.09074406   0.05657603  84.55  0.008167797    2.377    0.579
       110 -11.4550    161.7285    222.7339   2.9134779977e+02   4.2407322108e+00   0.04506359   0.02670245  70.90  0.003845549    2.631    0.620
       111  -9.0904     53.9717    224.2593   2.9262749374e+02   4.8809849624e+00   0.00790964  0.005656218  28.61 0.0001868018    1.362    0.266
       112 -12.0062     10.5451    209.9963   2.9305350668e+02   5.3089500336e+00    0.0342715   0.01951317  18.37  0.003187213    1.926    0.481
       113 -11.3497      2.5373    208.9998   2.9314197747e+02   5.3690512758e+00   0.02812779   0.02053997 -32.61   0.00277696    1.520    0.342
       114  -9.5120    141.4580     33.5279   2.9043375508e+02   6.5341362233e+00  0.006604212  0.006463926   8.41 6.833913e-05    1.011    0.011
       115 -10.9839     45.0006    207.8854   2.9263415010e+02   5.1235771075e+00   0.01667982  0.009221902 -61.76  0.001567854    1.840    0.456
       116 -11.3658    176.4225     33.2818   2.9001935026e+02   6.3225010372e+00   0.01470071   0.01243079 -20.49 0.0006888452    1.280    0.219
       117  -9.5044    108.6469     28.7090   2.9079206941e+02   6.7902487471e+00    0.0070274  0.005041596 -20.71 0.0007028222    1.677    0.404
       118 -10.6145     37.9550     27.4885   2.9162085749e+02   7.2359002309e+00   0.01654807  0.009506609  43.06  0.001076937    1.766    0.434
       119 -10.9947    241.7299     23.0042   2.8918616988e+02   6.0386881681e+00    0.0195711   0.01266293  42.86  0.001240417    1.553    0.356
       120  -8.9958    179.6659     22.2958   2.8991385370e+02   6.4283472815e+00  0.007029876  0.004946677  58.54  0.000614208    1.644    0.392
       121 -11.4313    150.9767     20.2429   2.9024007774e+02   6.6278936234e+00   0.02473082   0.01690562  -7.03  0.001910494    1.874    0.466
       122 -10.5312    139.8861     20.3590   2.9037181498e+02   6.6945577208e+00   0.01241892   0.01128135  -5.44 0.0006678791    1.142    0.124
       123 -10.4912    141.8905     16.3357   2.9032352704e+02   6.7283314024e+00   0.01144115  0.009317857 -52.42 0.0002728079    1.239    0.193
       124 -10.2581    143.9585    208.2594   2.9146926224e+02   4.5154414071e+00   0.02013126  0.009184821  27.42  0.001718854    2.146    0.534
       125 -10.0509    208.8736     18.2160   2.8954422655e+02   6.2955799032e+00   0.01025783  0.008773279  46.86 0.0006007301    1.184    0.155
       126 -11.6245     35.5397    207.1775   2.9274149763e+02   5.1892955091e+00   0.02491398    0.0086939  33.15  0.001921882    2.597    0.615
       127 -11.6798     27.5776    220.2131   2.9291435577e+02   5.0880907553e+00   0.02337795    0.0184403  74.07    0.0025768    1.486    0.327
       128 -13.4611     70.3144    201.8395   2.9229882164e+02   5.0387493471e+00   0.05173661   0.03452199 -88.81  0.005049458    1.966    0.491
       129 -10.9327     53.3831    201.2106   2.9249478945e+02   5.1491473649e+00   0.01608997    0.0124268  80.92  0.001285357    1.552    0.356
       130 -12.6886    185.5118    221.4840   2.9106002217e+02   4.1095591220e+00   0.02808022   0.01907782 -84.63  0.002801412    1.843    0.458
       131 -13.0128    191.7263    217.8183   2.9096453398e+02   4.1135587511e+00    0.0453064   0.02109694  45.06  0.003826766    2.301    0.565
       132 -11.7689     60.5305    190.6676   2.9234651495e+02   5.2266188916e+00   0.01790995   0.01372733  54.89  0.001961791    1.414    0.293
