#   1 NUMBER                 Running object number                                     
#   2 MAG_AUTO               Kron-like elliptical aperture magnitude                    [mag]
#   3 X_IMAGE                Object position along x                                    [pixel]
#   4 Y_IMAGE                Object position along y                                    [pixel]
#   5 X_WORLD                Barycenter position along world x axis                     [deg]
#   6 Y_WORLD                Barycenter position along world y axis                     [deg]
#   7 A_WORLD                Profile RMS along major axis (world units)                 [deg]
#   8 B_WORLD                Profile RMS along minor axis (world units)                 [deg]
#   9 THETA_WORLD            Position angle (CCW/world-x)                               [deg]
#  10 FWHM_WORLD             FWHM assuming a gaussian core                              [deg]
#  11 ELONGATION             A_IMAGE/B_IMAGE                                           
#  12 ELLIPTICITY            1 - B_IMAGE/A_IMAGE                                       
         1 -13.3901    159.4978     49.9380   2.9020513421e+02   6.2835055164e+00   0.07963215   0.05220312 -35.99  0.005868591    1.687    0.407
         2 -13.5501    171.8862     34.0281   2.8996517724e+02   6.3960819901e+00   0.04762189   0.04173144 -45.06  0.003386914    1.134    0.118
         3 -12.5065    175.5308     26.7336   2.8987885633e+02   6.4594812512e+00   0.02599206   0.01987815 -41.04  0.001609785    1.337    0.252
         4 -11.3025    189.8316     14.8325   2.8964067668e+02   6.5142797364e+00   0.01188361   0.01113755 -37.30  0.000946779    1.065    0.061
         5 -12.8377    187.9939      3.4015   2.8959329270e+02   6.6574351831e+00   0.04554913   0.02472499  21.92  0.003850451    1.956    0.489
         6  -9.9078    169.4716    237.4675   2.9121230033e+02   4.0477911076e+00  0.006522706  0.006460072  70.92  6.64273e-05    1.031    0.030
         7 -19.6251     56.0795    157.6367   2.9205551655e+02   5.6311961187e+00     1.014537     0.252061 -65.07   0.06096082    4.587    0.782
         8  -8.8529    170.3989    205.4666   2.9101031818e+02   4.4142180200e+00  0.006500718   0.00635951 -81.12 0.0001097546    1.040    0.039
         9 -13.0006    193.8425    193.8364   2.9066816335e+02   4.4134523163e+00   0.05681949   0.03566985  84.06  0.003822047    2.290    0.563
        10  -9.0787    211.1451    202.0996   2.9051649448e+02   4.2171371508e+00  0.009078573  0.007627457  58.98 0.0004057162    1.287    0.223
        11 -10.9385    204.4005    199.0786   2.9057680208e+02   4.2913398550e+00   0.01320328  0.009731458  35.84 0.0009021216    1.354    0.261
        12 -11.3611    137.2791    197.7758   2.9134962466e+02   4.6953598435e+00   0.02880441   0.01130894  45.10  0.002198772    2.907    0.656
        13 -10.2586    177.8096    189.3980   2.9082803759e+02   4.5579574701e+00   0.01144873  0.009272818 -77.93 0.0006325948    1.321    0.243
        14 -10.1885    178.4755    196.9979   2.9086575477e+02   4.4658074501e+00   0.01516342   0.01102114  73.84  0.001122588    1.705    0.413
        15 -10.9359    180.6382    194.0878   2.9082319800e+02   4.4870799944e+00   0.02159251   0.01387911  88.54  0.001624636    2.111    0.526
        16  -8.9937    169.5398    195.4722   2.9096055020e+02   4.5353125553e+00  0.006557661  0.006419294  68.95 0.0008082002    1.048    0.046
        17 -11.3219    207.5144    183.9525   2.9045006168e+02   4.4489514051e+00   0.01820321   0.01645914  26.20  0.001237534    1.112    0.101
        18 -11.5444    210.4943    181.5315   2.9040092627e+02   4.4597778404e+00   0.02135156   0.01458828 -42.42  0.002137559    1.506    0.336
        19 -11.2479     36.3335    184.0122   2.9244290012e+02   5.4384080984e+00   0.01215657   0.01011344  41.58 0.0002009104    1.221    0.181
        20 -10.5193    197.7760    176.1027   2.9051627555e+02   4.5966147741e+00   0.01869823   0.01369615  88.66  0.001290673    1.650    0.394
        21  -9.4967    145.4964    178.4740   2.9113862655e+02   4.8720885973e+00  0.006572705  0.006427896 -30.78 -5.748107e-06    1.014    0.014
        22 -12.0498    137.2265    171.2957   2.9119195431e+02   5.0033861430e+00   0.02847936   0.01781959  40.74  0.002878319    1.620    0.383
        23 -11.8122    125.3494    172.7289   2.9133878866e+02   5.0554804613e+00   0.02165292   0.01849179 -14.10   0.00159458    1.262    0.207
        24 -10.1347    157.9439    193.1669   2.9108164864e+02   4.6292729149e+00   0.01071884  0.009424452 -72.54 0.0003130475    1.167    0.143
        25 -10.1002    200.7507    164.5895   2.9041273131e+02   4.7130673287e+00   0.02285219   0.01348358  75.46  0.001931311    2.707    0.631
        26  -8.9962    207.6872    168.2955   2.9035427996e+02   4.6297753034e+00   0.00692522  0.006467176 -28.78 0.0002615968    1.082    0.076
        27 -10.8091    145.5281    168.7305   2.9107998244e+02   4.9851211538e+00   0.01295724    0.0126364   2.73  0.000987942    1.030    0.029
        28  -9.7988    225.4965    166.9820   2.9013939547e+02   4.5416412246e+00   0.00959992    0.0057593  82.87 0.0008104509    2.580    0.612
        29 -11.6277     24.9258    156.8330   2.9241383547e+02   5.8201407574e+00   0.02811047   0.01801878  36.68  0.002071092    1.550    0.355
        30 -12.5066    132.6681    145.0462   2.9108798786e+02   5.3347864206e+00   0.04040836   0.02670502 -78.33  0.003587099    1.755    0.430
        31 -10.2463    164.6681    157.9306   2.9079259321e+02   4.9996911712e+00   0.01111476  0.009304341   0.41 0.0005360665    1.291    0.225
        32  -9.9128    174.7612    148.7257   2.9062001667e+02   5.0480895817e+00   0.01361034  0.009308973 -75.60 0.0008189157    1.625    0.385
        33 -10.8767    144.3914    145.9898   2.9095712877e+02   5.2559192233e+00   0.01797614   0.01125269  78.45  0.001624707    2.336    0.572
        34 -11.9135    114.2499    139.8357   2.9127133173e+02   5.5019502352e+00    0.0266876   0.01556814 -37.47  0.002514051    1.942    0.485
        35 -12.1012    104.2425    139.8519   2.9138801637e+02   5.5596605975e+00   0.01846692   0.01407418  39.04 0.0006915167    1.322    0.244
        36 -11.4615    105.9322    130.6806   2.9131345976e+02   5.6564539033e+00   0.01785894    0.0161583  83.79  0.001184205    1.182    0.154
        37 -10.6579    107.9378    126.0690   2.9126249266e+02   5.6984312588e+00   0.01481528   0.01142398 -39.96 0.0007969318    1.331    0.249
        38 -11.2519    119.2231    129.9789   2.9115440633e+02   5.5876911404e+00   0.01638342   0.01527404  86.72  0.001175152    1.126    0.112
        39 -11.1779    135.6106    121.6992   2.9091392523e+02   5.5889695634e+00   0.02653835   0.01320172 -74.84  0.002197182    2.570    0.611
        40 -11.4220    125.1355    126.8956   2.9106706916e+02   5.5892800537e+00   0.02699285   0.01284233  53.31  0.001993992    2.876    0.652
        41 -10.1147    113.3887    119.2098   2.9115791531e+02   5.7465743872e+00   0.01212352    0.0102885  45.33 0.0003682516    1.210    0.174
        42 -10.7057     17.4990    249.3324   2.9305077571e+02   4.7872973047e+00   0.01219889  0.007777706 -31.84 0.0008239204    1.840    0.457
        43  -9.8797    122.2224    218.9334   2.9165114936e+02   4.5365634270e+00   0.01030109  0.008740608  64.86 0.0004303532    1.290    0.225
        44  -9.9868    168.4029    113.8170   2.9048480510e+02   5.4903849407e+00   0.01454298   0.01035561  66.13  0.001421744    1.713    0.416
        45 -10.7789    119.7639    216.0104   2.9166231087e+02   4.5847532340e+00   0.01184748   0.00986427  26.05  0.001016487    1.208    0.172
        46  -9.7835    205.6521    110.1188   2.9002911580e+02   5.3170408077e+00   0.01250897  0.009792828  14.01 0.0006528955    1.351    0.260
        47  -9.3059    154.6503    214.3267   2.9124641970e+02   4.4024746213e+00  0.007165459  0.004914718  61.13 5.859413e-05    1.758    0.431
        48 -11.9008    128.4508    205.9460   2.9150115262e+02   4.6514880340e+00   0.02045362   0.01546383  -7.19   0.00221157    1.543    0.352
        49  -9.8361    165.7135    207.3561   2.9107610027e+02   4.4194050055e+00   0.01363334   0.01052632  74.45 0.0008136378    1.533    0.348
        50 -10.2576    164.6781    204.3417   2.9107012401e+02   4.4604263957e+00    0.0173265   0.01035714  80.96  0.001323618    2.617    0.618
        51 -11.1169     11.4984    205.9629   2.9286287640e+02   5.3261721567e+00   0.01619042   0.01230675  12.22  0.001254828    1.415    0.293
        52  -9.1173    125.0354     81.5254   2.9079636868e+02   6.1167914156e+00   0.00999473  0.006502494  26.65 0.0006393458    1.544    0.352
        53 -12.2687     12.8129    244.7835   2.9307829487e+02   4.8671600264e+00   0.02110151  0.007171017 -51.59  0.001604791    2.742    0.635
        54 -11.2331      1.9345    246.6279   2.9321584305e+02   4.9082822331e+00  0.006407895  0.002998711 -57.87 0.0005367185    2.025    0.506
        55  -8.6060    229.5746    244.5214   2.9055616914e+02   3.6176563391e+00  0.006506827  0.006419807 -66.86 0.0001020353    1.022    0.021
        56  -9.5800     13.5198     59.7645   2.9196714953e+02   7.0137716640e+00   0.01133092  0.009097078  26.89 0.0003777818    1.250    0.200
        57  -9.4234    131.2061     28.7087   2.9040739533e+02   6.6939441593e+00   0.01048614  0.007625581  43.84 0.0007321216    1.416    0.294
        58 -10.8950     20.7001    242.8850   2.9297522853e+02   4.8438477078e+00   0.02089165    0.0129182  24.35  0.002092746    1.650    0.394
