#   1 NUMBER                 Running object number                                     
#   2 MAG_AUTO               Kron-like elliptical aperture magnitude                    [mag]
#   3 X_IMAGE                Object position along x                                    [pixel]
#   4 Y_IMAGE                Object position along y                                    [pixel]
#   5 X_WORLD                Barycenter position along world x axis                     [deg]
#   6 Y_WORLD                Barycenter position along world y axis                     [deg]
#   7 A_WORLD                Profile RMS along major axis (world units)                 [deg]
#   8 B_WORLD                Profile RMS along minor axis (world units)                 [deg]
#   9 THETA_WORLD            Position angle (CCW/world-x)                               [deg]
#  10 FWHM_WORLD             FWHM assuming a gaussian core                              [deg]
#  11 ELONGATION             A_IMAGE/B_IMAGE                                           
#  12 ELLIPTICITY            1 - B_IMAGE/A_IMAGE                                       
         1 -11.1355    158.6194     14.1121   4.2347644653e+01   4.3449225657e+01    0.3042265     0.244111   7.11  0.001113137    1.557    0.358
         2  -9.7824    182.5293      8.9680   3.7901154770e+01   3.8058427962e+01    0.1715643    0.1084307  19.16 0.0008098157    2.557    0.609
         3  -9.5298    222.7903    245.9086   8.5540513339e+01  -8.2814002721e+00    0.1715927    0.1334969  11.81 0.0007541766    1.026    0.026
         4 -16.4813    241.9174    224.5343   7.8530267757e+01  -8.1289614353e+00     4.166188     1.408751 -35.76   0.01868649    2.882    0.653
         5 -10.8406    176.1648    250.4565   9.4978666795e+01  -2.1068954400e+00    0.1016922   0.08975222 -30.77 0.0002196352    1.355    0.262
         6 -21.1005    105.2919    184.8345   1.0031692519e+02   2.1940863417e+01     10.51541     8.504622  34.50   0.05607332    1.270    0.213
         7  -9.6534    206.2237    198.9361   8.0475746107e+01   1.1494279502e+00     0.178794    0.1504051 -14.42 0.0002901255    1.115    0.103
         8  -9.6450     38.6225    250.8756   1.2137131111e+02   1.7510564069e+01    0.0959952   0.06505928  34.94 0.0001794205    1.638    0.390
         9 -11.5186     43.2472    245.8719   1.2021798277e+02   1.7894833013e+01    0.1648398    0.1357535  71.30 0.0003827584    1.137    0.121
        10 -11.5112    157.8140    241.1923   9.7265078613e+01   2.1578570249e+00    0.2673008    0.1955643 -33.38  0.001611191    1.622    0.383
        11 -10.0982    212.0630    195.8729   7.8754291381e+01   6.7648813829e-01    0.2441183     0.174804 -16.14  0.001330094    1.394    0.283
        12 -10.0908    200.3293    241.2867   8.8970231371e+01  -4.4370342710e+00     0.116744   0.09079175  19.68 0.0001378146    1.042    0.041
        13 -10.7191    227.4885    172.8089   7.1240551189e+01   1.9084243031e+00    0.2290301    0.1867216  28.23 0.0004248815    1.254    0.203
        14 -10.7265    187.6878    241.2981   9.1395253717e+01  -2.5274533033e+00    0.1159961    0.0943781  24.17 0.0001991986    1.039    0.037
        15 -11.3848      2.4787    165.6051   1.2286065633e+02   3.9164970472e+01    0.3967686    0.2132543 -58.78  0.001480171    1.801    0.445
        16 -11.4928      3.4741    157.6293   1.2200676513e+02   4.0952334818e+01    0.3514938    0.1869123 -62.08  0.001968907    1.665    0.399
        17  -9.8239    218.1142    159.6674   7.0189086818e+01   5.8576844321e+00    0.2239569    0.1814465 -39.99 0.0003919798    1.232    0.188
        18  -9.8194      1.9954    149.5289   1.2169409706e+02   4.2966717383e+01    0.4256749    0.1640995  83.36  0.001747104    3.031    0.670
        19  -9.7178     12.1839    150.8127   1.1925470441e+02   4.1912265321e+01     0.165797    0.1371121  89.37 0.0003830896    1.057    0.054
        20  -8.8068     10.8987    146.8207   1.1919282067e+02   4.2969998777e+01    0.2465381    0.1160028  34.98  0.001265839    2.290    0.563
        21 -10.8469     13.3419    141.8837   1.1804650169e+02   4.3974795989e+01    0.3250076    0.2052844  30.86  0.001886242    1.843    0.457
        22  -8.9989      6.9475    141.9922   1.1974371404e+02   4.4418591797e+01    0.1403997     0.104484 -79.49            0    1.064    0.060
        23  -9.6411     19.0949    139.8981   1.1627686546e+02   4.4001562289e+01    0.1846634    0.1451878 -74.26 0.0004264281    1.051    0.049
        24  -9.7514     18.8794    134.0265   1.1563398240e+02   4.5454084197e+01    0.1805708     0.147043 -76.50 0.0002836523    1.002    0.002
        25  -9.4514     27.7141    130.7319   1.1267989618e+02   4.5517116129e+01    0.1820464    0.1468777 -71.73 0.0006976794    1.035    0.034
        26  -9.9626     11.4375    129.3323   1.1716605560e+02   4.7158554453e+01    0.2370075    0.1446477 -62.25 0.0008461355    1.352    0.260
        27  -9.2265     15.0420    128.4629   1.1603589395e+02   4.7108732702e+01    0.1944942    0.1480541 -75.24 0.0003103722    1.068    0.063
        28 -10.0810      6.9193    125.3296   1.1798539286e+02   4.8432465165e+01    0.1886325    0.1381636 -72.94 0.0003466301    1.081    0.075
        29 -12.3918     23.8800    123.5918   1.1279702013e+02   4.7606472085e+01    0.3022859    0.2375367 -87.22 0.0006385839    1.198    0.165
        30  -8.8582     22.0957    118.1712   1.1254542928e+02   4.9080994414e+01     0.462188    0.2569275 -18.96  0.002149448    2.767    0.639
        31 -10.7638     24.3973    110.9402   1.1069379939e+02   5.0661073890e+01     0.256276    0.2095719 -46.32 0.0003229303    1.192    0.161
        32 -11.9459     29.8590    112.7320   1.0924445964e+02   4.9759373516e+01     0.271836    0.2305716 -72.81 0.0002777092    1.072    0.067
        33 -11.5255     32.7844    107.4442   1.0735545825e+02   5.0785996854e+01    0.3530674    0.2822331  57.73 0.0005349324    1.459    0.314
        34  -9.9656     37.0173    119.2172   1.0809279134e+02   4.7492646296e+01    0.2379826    0.1824049  28.23 0.0003630801    1.515    0.340
        35 -11.8495     35.6593    114.9143   1.0777266046e+02   4.8686587300e+01     0.597036    0.2842924 -41.08  0.002607198    2.301    0.565
        36  -9.0341     16.0451    115.9731   1.1408480554e+02   5.0076331305e+01    0.1419356    0.1227685 -69.56            0    1.066    0.062
        37  -9.0868     20.0109    112.6986   1.1236743611e+02   5.0578439968e+01    0.1657552    0.1451058 -64.59 0.0002736128    1.072    0.067
        38  -9.1748     11.5273    110.9930   1.1478139594e+02   5.1592078044e+01    0.1670218    0.1515383 -65.45  0.001139392    1.132    0.117
        39  -9.8674     38.5336    240.6667   1.2073521290e+02   1.9438156852e+01    0.1199104   0.09692921 -84.13 0.0005920944    1.297    0.229
        40 -10.3011     34.9715    101.3149   1.0544116178e+02   5.2065849347e+01    0.2517079     0.170391 -58.96 0.0002770271    1.242    0.195
        41  -9.9040     31.6705    101.7220   1.0664521518e+02   5.2273058106e+01    0.2000579    0.1992737 -45.61 0.0004152892    1.175    0.149
        42 -11.7292    168.6300    236.5507   9.4426037097e+01   1.1819877366e+00    0.2095345    0.1530537 -57.84  0.001214814    1.845    0.458
        43 -12.2600     55.2840     90.4585   9.5845717120e+01   5.2396312008e+01    0.4415998    0.3121604 -19.93 0.0006551137    1.643    0.391
        44 -11.5313     42.0325     97.9534   1.0230266997e+02   5.2166265051e+01    0.4800845    0.2678636 -30.73  0.001645241    2.167    0.539
        45 -10.7814     46.2722    249.9777   1.1994410327e+02   1.6768027689e+01    0.1667844    0.1573652 -82.97  0.001306536    1.448    0.309
        46 -11.0930     57.4484    100.9215   9.7686567880e+01   4.9657228071e+01    0.2647979    0.2599733  34.72 0.0004155525    1.142    0.124
        47 -11.8331     54.7894     96.4028   9.7510982450e+01   5.1067754535e+01    0.3322971    0.2885279 -41.70 0.0003393474    1.051    0.048
        48  -9.5026     15.3559     99.9879   1.1185297909e+02   5.3976414237e+01    0.1807727    0.1355889 -64.21  0.001107403    1.080    0.074
        49 -10.4812    210.0903    236.0264   8.6281310411e+01  -5.1484632824e+00    0.1553375    0.1275407   8.01  0.001030626    1.047    0.045
        50 -11.1776    143.7205    235.8571   9.9368140346e+01   5.2953004592e+00    0.2186908    0.1416293  41.30  0.001215678    1.313    0.238
        51 -11.9924    163.5953    233.2981   9.4952035584e+01   2.5173505930e+00    0.1747196    0.1579974  38.61 0.0005546852    1.139    0.122
        52 -11.1841    170.8585    232.1982   9.3317775405e+01   1.5236736634e+00    0.1407812    0.1277487 -14.14 0.0003543874    1.197    0.165
        53 -10.1757     32.1134     93.9026   1.0490952967e+02   5.4101084476e+01    0.1924913    0.1659344 -82.88 0.0003509829    1.254    0.203
        54 -12.8506     44.8456     86.6190   9.8631052311e+01   5.4524131729e+01    0.6706614    0.4444517 -36.99  0.003533108    1.435    0.303
        55 -11.0779     39.1160     82.3592   9.9682766332e+01   5.6111515468e+01    0.2589042     0.216049 -82.38 0.0007023014    1.427    0.299
        56 -11.7484     48.0224     79.9704   9.5707544196e+01   5.5671491287e+01    0.3377745    0.3082701  52.78 0.0009701494    1.336    0.252
        57 -10.4615    176.9572    231.0712   9.1917600871e+01   7.2252266657e-01    0.1186386    0.1077222   2.06 0.0007647203    1.129    0.114
        58 -10.3873     17.9291     87.9589   1.0878506132e+02   5.6637594927e+01     0.191747    0.1557641 -55.93 0.0003272233    1.006    0.006
        59 -11.4811     22.3507     86.4872   1.0687513377e+02   5.6656084606e+01    0.3040752    0.2139622  45.00  0.001756794    1.768    0.434
        60 -11.8904     78.7646     82.9450   8.5513486918e+01   5.0642684309e+01     0.381442    0.2787766 -50.25  0.001395503    1.341    0.254
        61 -11.4989     49.5040     75.5034   9.3891292038e+01   5.6482761300e+01    0.2728864    0.2121343 -29.95 0.0008420256    1.195    0.163
        62 -10.8624     64.8384     82.4876   9.0247636965e+01   5.2908022046e+01      0.28071    0.2159761 -32.66 -0.0001210906    1.231    0.188
        63 -12.3262    112.2662     80.5338   7.4140995603e+01   4.4757404510e+01    0.5302885    0.3579324 -57.92  0.001265219    1.802    0.445
        64 -12.4830     83.9107     72.9531   8.0619614708e+01   5.1850397470e+01    0.4693888    0.3828634  34.63  0.002243635    1.265    0.209
        65 -12.2648     73.5696     71.8990   8.3868408945e+01   5.3828857243e+01    0.4375941    0.3586136  75.85  0.001338421    1.788    0.441
        66 -11.3960    199.6671    228.6250   8.7045555217e+01  -2.4962592857e+00    0.2877544    0.1893133  53.48 0.0009481563    2.153    0.536
        67  99.0000    181.4190    230.2954   9.0903566695e+01   1.2966037801e-01    0.2942361    0.1017656  36.99  0.001189748    2.531    0.605
        68  -9.9736    190.5488    229.7061   8.9001952249e+01  -1.2312558549e+00    0.1273721   0.09926815  25.73 0.0002336002    1.092    0.085
        69 -10.0359    179.7647    225.2751   9.0425557342e+01   1.2016966601e+00      0.32211    0.2628092 -10.76  0.001974066    1.278    0.218
        70  -9.8564    204.0366    220.6101   8.4837348358e+01  -1.9644670966e+00    0.1619997    0.1102421  32.59 0.0002370076    1.327    0.246
        71 -11.0243    150.6259     65.0386   5.9489749831e+01   3.8701481043e+01     0.287263    0.2227737  55.60 0.0002973939    1.263    0.208
        72 -10.4437     66.9655     63.2415   8.3388665973e+01   5.6617779605e+01     0.191673    0.1697325  -2.75  0.000272935    1.072    0.067
        73  -9.8683    204.5527    215.5692   8.3853614117e+01  -1.2650745508e+00    0.1279202    0.1126522  15.70 8.625688e-05    1.111    0.100
        74  -8.1896    214.6064    211.1584   8.1127365060e+01  -2.1792487181e+00    0.1436582    0.1113147 -13.31 0.0003864581    1.202    0.168
        75  -9.6107    210.2172    209.9700   8.1751035634e+01  -1.2948223522e+00    0.2600468    0.1990811 -70.33  0.001336974    2.502    0.600
        76 -11.6785    204.4484    206.7745   8.2287250291e+01   1.5546819976e-01    0.3776355    0.3069387   6.49  0.001799878    1.113    0.102
        77  -9.8753    208.2247    202.0106   8.0664952191e+01   3.0752646396e-01    0.2302864    0.1871204   2.27 0.0007459401    1.124    0.110
