#   1 NUMBER                 Running object number                                     
#   2 MAG_AUTO               Kron-like elliptical aperture magnitude                    [mag]
#   3 X_IMAGE                Object position along x                                    [pixel]
#   4 Y_IMAGE                Object position along y                                    [pixel]
#   5 X_WORLD                Barycenter position along world x axis                     [deg]
#   6 Y_WORLD                Barycenter position along world y axis                     [deg]
#   7 A_WORLD                Profile RMS along major axis (world units)                 [deg]
#   8 B_WORLD                Profile RMS along minor axis (world units)                 [deg]
#   9 THETA_WORLD            Position angle (CCW/world-x)                               [deg]
#  10 FWHM_WORLD             FWHM assuming a gaussian core                              [deg]
#  11 ELONGATION             A_IMAGE/B_IMAGE                                           
#  12 ELLIPTICITY            1 - B_IMAGE/A_IMAGE                                       
         1 -14.7887     68.0056    144.0536   1.1465880515e+02   3.7616971519e+01     4.562001     1.825041  55.39   0.01490783    4.448    0.775
         2 -14.4176    197.7194     31.6424   5.6827411607e+01   3.2821430731e+01     1.802755     1.211035  33.24  0.008540359    2.167    0.539
         3 -14.3283    209.8586     17.6098   5.2117063935e+01   3.1744072613e+01     1.164522     0.903938  27.44  0.006930667    1.957    0.489
         4 -10.1053     61.9739      8.2116   7.9284327442e+01   6.3137795692e+01    0.1472894   0.07746157  40.06 0.0007989391    1.716    0.417
         5 -10.0545     57.0000      2.9785   7.8932341093e+01   6.4369553089e+01    0.1669079    0.0562981 -27.89 0.0008110239    3.002    0.667
         6 -10.8060     41.9647      3.0193   8.4209747753e+01   6.6374115696e+01    0.1389067    0.1328577  -2.60 0.0009832323    1.705    0.413
         7 -11.1240     27.0476      2.0000   8.9534298281e+01   6.8184982671e+01     0.263226   0.05032742  34.58  0.001058826    5.002    0.800
         8 -11.8501    183.5692    215.7332   1.0077788485e+02   1.2604506507e+00    0.3454337    0.2452801  50.43  0.001796932    1.408    0.290
         9 -15.9860    106.8235    247.1663   1.2086277085e+02   8.7312035114e+00     10.42535     2.290394  40.59   0.03456342    4.180    0.761
        10 -10.3090    146.9898    185.3093   1.0313793815e+02   1.4524677756e+01    0.2108036     0.189943  60.69 0.0004843903    1.069    0.065
        11 -10.9252    208.0864    183.6866   8.9682558845e+01   2.7866422295e+00    0.4081587    0.3008802  -3.19  0.001813414    1.788    0.441
        12  -9.9158    211.3983    179.1822   8.8106606126e+01   3.0255449151e+00    0.2832929    0.1740195 -33.79  0.001285797    1.718    0.418
        13 -11.9734     70.1143    181.7788   1.2009237475e+02   2.8437235915e+01    0.4092953    0.2680362 -39.91  0.002049318    2.051    0.513
        14 -11.9060     74.6243    176.1841   1.1826034992e+02   2.9111407301e+01    0.3181663    0.2527749 -41.39 0.0008597654    1.523    0.343
        15  -9.8753     99.2504    180.7379   1.1328463792e+02   2.4247972680e+01    0.1831788    0.1684957 -30.14 0.0009711903    1.351    0.260
        16  -9.8515    198.2544    176.5695   9.0244635584e+01   6.1352945213e+00    0.2831576    0.1403912  49.16  0.001125458    2.123    0.529
        17 -13.3882     57.3425    128.0168   1.1455294246e+02   4.2689084030e+01     1.881106    0.6601603 -70.87  0.004941405    6.357    0.843
        18 -13.6084     84.0695    165.6596   1.1437769596e+02   3.0211131697e+01     2.601526    0.5865661  46.99 0.0009923879    5.433    0.816
        19 -12.4511     89.2482    159.2506   1.1201451981e+02   3.0937903180e+01    0.6648151    0.5205764 -14.29   0.00152559    1.860    0.462
        20 -13.4248     70.8387    162.4048   1.1703245367e+02   3.2894837793e+01    0.6435978    0.4245829 -37.52  0.001135161    1.942    0.485
        21 -14.3402     20.3052    192.8288   1.3182601160e+02   3.1801702455e+01     1.415218    0.8663471 -71.99 0.0004428152    1.332    0.249
        22  -9.0328    139.2900    167.3113   1.0144095948e+02   2.0102068860e+01    0.1468338    0.1218703 -13.33 0.0001810202    1.584    0.369
        23 -10.4428    137.4856    170.4841   1.0249054562e+02   1.9726344279e+01    0.1505857    0.1432462  84.57 -1.314974e-05    1.000    0.000
        24 -10.8905    133.9292    145.4645   9.8173254458e+01   2.6210441755e+01    0.9641371    0.2242977 -54.44   0.00221388    5.844    0.829
        25 -16.3783      6.8158    247.0444   1.3813121596e+02   2.2042761430e+01     2.038971     1.924458 -71.75   0.01736408    1.744    0.427
        26 -12.4162    194.5699    194.1474   9.4512321360e+01   3.3433968841e+00    0.8373405    0.6605471 -83.56  0.004206101    1.749    0.428
        27 -12.4360     90.2367    143.2690   1.0878112817e+02   3.4575316768e+01    0.4255122    0.3283022  -6.41  0.001076705    1.856    0.461
        28 -10.9490    103.3140    142.4813   1.0524987494e+02   3.2607186981e+01    0.5747589    0.3226134 -31.19  0.002173057    2.777    0.640
        29 -15.2390      9.5372    206.5283   1.3497730532e+02   2.9898685249e+01     1.296931    0.8132758  57.07  0.005971828    1.500    0.333
        30 -10.6979    195.7339    170.4434   8.9500849571e+01   7.8971077668e+00    0.3606796    0.3247894 -80.82  0.001514982    1.244    0.196
        31 -10.2462    105.8378    130.6671   1.0206689966e+02   3.4922620291e+01    0.2933595    0.2593639  83.15  0.001463641    1.225    0.184
        32 -11.1052     99.3760    128.7030   1.0334647380e+02   3.6487242311e+01    0.3086632    0.2308107 -39.69 0.0003966913    1.370    0.270
        33 -11.6160     42.9529    126.1462   1.1808650420e+02   4.4703329848e+01    0.2580166    0.1850779  60.48 0.0009994932    1.699    0.412
        34 -10.1288    111.9924    132.0374   1.0075901240e+02   3.3506407603e+01    0.2822661       0.2264  11.73 0.0009727806    1.587    0.370
        35 -10.1293    174.8958    149.0992   8.9384090127e+01   1.6819231601e+01    0.2435322    0.2113176 -89.89   0.00059786    1.279    0.218
        36 -10.1980    160.3978    128.2119   8.7875272549e+01   2.4539909075e+01    0.2313271    0.1440766 -56.61 0.0009561211    1.738    0.424
        37  -9.6100    125.6703    127.3309   9.6149541624e+01   3.1993906421e+01    0.1572821    0.1196381  86.61 0.0004084988    1.717    0.417
        38 -11.0073    117.4966    126.3847   9.8038959587e+01   3.3779744190e+01    0.2999108    0.2452857 -33.67  0.001097295    1.305    0.234
        39  -9.7892    108.1872    120.2421   9.9064132990e+01   3.6878624173e+01    0.2032436    0.1920657 -22.78    0.0004123    1.105    0.095
        40 -11.9670     44.7023    114.7077   1.1552356519e+02   4.7091378673e+01    0.3299594    0.2437857  86.90  0.001888287    1.696    0.410
        41 -11.9509     45.1981    109.5998   1.1438782946e+02   4.8166351396e+01    0.3213689    0.2575003 -43.46  0.001347413    1.126    0.112
        42 -10.9380     41.7536    108.9967   1.1525715503e+02   4.8644247636e+01    0.3171302    0.1382783 -50.27  0.001508828    1.877    0.467
        43 -10.4208    193.5979    164.9656   8.8795173733e+01   9.4715523779e+00    0.4005838    0.2656397 -71.98  0.001650035    2.249    0.555
        44  -9.9490    167.8925    112.7542   8.2428349038e+01   2.6156012972e+01    0.3098347    0.2011002 -70.70  0.001233646    2.181    0.542
        45 -11.7669     53.3856    109.8888   1.1209272518e+02   4.7222720666e+01    0.3453384    0.2196025 -67.27   0.00110879    1.619    0.382
        46  -9.7486    205.4238    110.1220   7.4089756919e+01   1.8142152471e+01    0.2487361    0.2033963  44.99 0.0006164912    1.316    0.240
        47 -10.5110    119.7535    110.5949   9.3644511420e+01   3.6845912855e+01       0.2129    0.1398158  53.20 0.0009557451    1.679    0.404
        48  -9.1644     94.9630    105.0399   9.9032845276e+01   4.2500739705e+01     0.161945    0.1555105 -31.02 0.0002983455    1.025    0.025
        49  -9.4482     87.1701     99.8373   9.9962360199e+01   4.4860542588e+01    0.2052643    0.1825557  84.37  0.000843923    1.371    0.271
        50 -10.3896     33.4270    100.3035   1.1596489906e+02   5.1291021217e+01     0.186628    0.1445271  57.88 0.0009662597    1.689    0.408
        51 -11.4561     55.4181     95.0013   1.0822136027e+02   5.0184447618e+01    0.3754801    0.2646846  49.70  0.001917131    1.814    0.449
        52  -9.2245     24.9680     82.4890   1.1484707343e+02   5.5655003868e+01    0.1447925    0.1137762   9.33 0.0003297102    1.462    0.316
        53 -12.0106    155.1475     57.7254   7.0853326880e+01   3.9109644816e+01    0.6888013    0.4107158 -89.22   0.00192068    3.458    0.711
        54  -9.5046    158.4776     52.4973   6.8746771090e+01   3.9129573458e+01    0.1388255    0.1281582  67.38 3.086034e-05    1.030    0.029
        55 -12.8916    188.9412     38.0770   5.9644494894e+01   3.4031454306e+01    0.5958789    0.4500764  38.52  0.001163081    1.591    0.371
        56 -13.7003     35.8210    209.8022   1.3042011177e+02   2.6452688385e+01     1.185218    0.6206419  57.16   0.00337855    1.798    0.444
        57 -15.8757      2.6908    224.5090   1.3740686534e+02   2.6852526094e+01     9.034248          nan -68.68   0.02335894    9.898    0.899
        58 -10.9417     13.4777     59.7849   1.1342289996e+02   6.0783733832e+01    0.2013785     0.155468 -35.59 0.0003819357    1.024    0.024
        59  -9.6863     95.3874     41.7282   8.0744587146e+01   5.3748616202e+01    0.2399525    0.1155509 -38.44  0.001142147    2.194    0.544
        60 -11.0628    189.6440     15.0989   5.4073306098e+01   3.6644566878e+01    0.2227759    0.1559531  82.61 0.0008688857    1.300    0.231
        61  -9.9966    160.3302     11.6603   5.7478298001e+01   4.3700611733e+01     0.128593   0.08935612 -76.03 0.0007051719    1.740    0.425
        62 -16.3705     55.1060    202.3584   1.2587962227e+02   2.5744259692e+01     15.88671     5.814361 -81.61   0.05162048    4.668    0.786
        63 -10.0009    146.8977     50.9486   7.0727837294e+01   4.1983618940e+01    0.2073929     0.162493 -83.63 0.0005124587    1.612    0.380
        64  -9.7188     94.9954    200.0161   1.1718370499e+02   2.0506338880e+01    0.2301527    0.1494552  75.18  0.001120692    1.731    0.422
        65 -14.1249     45.5662    210.7440   1.2865013603e+02   2.5094962071e+01     1.619456      1.04322 -28.53  0.001310494    3.800    0.737
