#   1 NUMBER                 Running object number                                     
#   2 MAG_AUTO               Kron-like elliptical aperture magnitude                    [mag]
#   3 X_IMAGE                Object position along x                                    [pixel]
#   4 Y_IMAGE                Object position along y                                    [pixel]
#   5 X_WORLD                Barycenter position along world x axis                     [deg]
#   6 Y_WORLD                Barycenter position along world y axis                     [deg]
#   7 A_WORLD                Profile RMS along major axis (world units)                 [deg]
#   8 B_WORLD                Profile RMS along minor axis (world units)                 [deg]
#   9 THETA_WORLD            Position angle (CCW/world-x)                               [deg]
#  10 FWHM_WORLD             FWHM assuming a gaussian core                              [deg]
#  11 ELONGATION             A_IMAGE/B_IMAGE                                           
#  12 ELLIPTICITY            1 - B_IMAGE/A_IMAGE                                       
         1 -10.1850    141.8515     20.0294   2.9034657675e+02   6.6862844482e+00   0.02322793   0.01083386 -38.49  0.001822453    2.723    0.633
         2 -10.0295    201.1552     12.1212   2.8959796561e+02   6.4127593563e+00   0.01006759  0.009019726 -18.91 0.0004054831    1.172    0.147
         3 -11.5451    241.1544     17.9417   2.8916194669e+02   6.1001358162e+00   0.02245312   0.01229123 -45.11  0.002082501    1.924    0.480
         4 -10.1529    229.3390      9.0832   2.8924695642e+02   6.2741701929e+00   0.01129094  0.009201336   5.27 0.0005614082    1.319    0.242
         5 -10.2044    211.4445      8.5835   2.8945491790e+02   6.3899692539e+00    0.0114634  0.008471333 -62.07  0.000636675    1.385    0.278
         6  -9.2444    139.4087      5.7999   2.9028840837e+02   6.8641408534e+00  0.009693254   0.00584592 -48.32 0.0004942915    1.683    0.406
         7 -10.3417    249.3671      4.7648   2.8898444871e+02   6.2002530382e+00   0.01270201  0.008439386 -50.58  0.001306638    1.514    0.339
         8  -8.9314    134.0002      4.0111   2.9034138517e+02   6.9177631661e+00  0.008041343  0.007727333  23.09 0.0004098313    1.018    0.018
         9  -9.5143    240.4838      2.4864   2.8907517094e+02   6.2810061902e+00   0.00662886  0.006459153  34.47 0.0008102501    1.018    0.017
        10 -10.5637    248.0253    235.0211   2.9040655923e+02   3.5715472811e+00   0.01905893   0.01231146  59.86  0.001037711    1.912    0.477
        11 -10.9594    247.4901    230.2980   2.9038410500e+02   3.6289530557e+00   0.02175784   0.01733552  54.14  0.001784856    1.338    0.253
        12 -10.7622    224.7052    245.0538   2.9074195032e+02   3.5993893493e+00   0.02133678   0.01424797 -87.08  0.001744268    1.943    0.485
        13 -10.1259    146.8143    243.3158   2.9164852459e+02   4.0958075472e+00    0.0194009  0.009300307 -72.32   0.00157115    2.658    0.624
        14  -9.4942    120.3090    245.6589   2.9197505643e+02   4.2308292372e+00  0.007073006  0.005012607  63.11 0.0004775602    1.691    0.409
        15 -10.5710    232.4584    238.2454   2.9060930999e+02   3.6299510295e+00   0.02364163   0.01412365  57.50  0.002161543    2.106    0.525
        16 -10.0590    204.5099    235.6809   2.9092264222e+02   3.8304799802e+00   0.01980496   0.01257231  72.50  0.001811046    2.255    0.557
        17  -8.7541    189.6915    237.3061   2.9110699077e+02   3.9025358861e+00  0.006929318  0.005005375  60.78 0.0005182102    1.611    0.379
        18 -10.3805    216.3590    234.0300   2.9077312301e+02   3.7768630584e+00   0.01953315   0.01251815  61.66  0.001544748    1.982    0.495
        19  -9.5589    194.9324    233.1900   2.9102025763e+02   3.9176630636e+00    0.0109155  0.008872537  56.73  0.001085772    1.323    0.244
        20  -9.8157    186.5095    231.1596   2.9110709965e+02   3.9924924658e+00   0.01891837   0.01006331  71.23  0.001345786    3.779    0.735
        21  -9.4332    157.6046    231.4252   2.9144919350e+02   4.1662515045e+00   0.01292919  0.008040169  77.45  0.001137716    2.422    0.587
        22  -8.9865    195.4863    239.9809   2.9105501846e+02   3.8364043325e+00  0.009051234  0.005761583  79.00  0.000235183    2.296    0.564
        23  -9.5264    223.2139    227.2211   2.9065101906e+02   3.8129405089e+00  0.009686311  0.007809258  68.31  0.001070522    1.413    0.292
        24  -9.2006    206.7786    226.9351   2.9084274246e+02   3.9168667211e+00   0.00899809  0.005440169 -60.08 0.0006275864    1.668    0.401
        25  -9.9557    149.6534    226.2239   2.9151128785e+02   4.2745302497e+00   0.01622223   0.01027189  86.21  0.001475982    2.276    0.561
        26  -9.9733    162.0841    225.6936   2.9136159425e+02   4.2046070088e+00   0.01174494  0.009519039 -80.49  0.001316743    1.366    0.268
        27  -9.3603    199.9716    224.9749   2.9091096545e+02   3.9810182366e+00   0.01102307   0.00793411  65.61   0.00112998    1.680    0.405
        28  -9.7587    181.5097    225.0057   2.9112857395e+02   4.0936624486e+00   0.01405861  0.008564615  44.93   0.00136879    1.693    0.409
        29  -9.9682    229.5929    222.8163   2.9054913782e+02   3.8243568787e+00   0.01463268    0.0117884  62.82  0.001636782    1.382    0.277
        30 -10.3750    226.3686    220.1851   2.9057106916e+02   3.8742716154e+00    0.0165034   0.01105167 -74.37 0.0009796961    1.702    0.413
        31  -9.8325    216.9396    223.4716   2.9070205367e+02   3.8943521155e+00   0.01799818   0.01155669 -82.68  0.001719618    1.996    0.499
        32 -10.1021    192.4731    220.8766   2.9097434069e+02   4.0739158991e+00   0.01642513   0.01187405  81.08  0.001427151    1.755    0.430
        33 -11.1471    248.6160    216.2057   2.9028505449e+02   3.7835525083e+00    0.0305601     0.019495  84.96  0.002810906    2.260    0.557
        34 -12.4746    224.4910    192.9063   2.9042706113e+02   4.1984848009e+00   0.05706273   0.03346869  89.58  0.004844457    2.671    0.626
        35 -11.4450    231.4315    186.7260   2.9030769558e+02   4.2267794206e+00   0.03254946   0.02219076  52.28  0.003346269    1.612    0.380
        36 -10.8841    235.7106    182.0982   2.9022911783e+02   4.2535835402e+00   0.01882532    0.0132161  48.54  0.001818049    1.497    0.332
        37 -11.6622    245.3802    203.5222   2.9024586687e+02   3.9487474279e+00   0.04704086   0.02401466  52.38  0.003967777    2.446    0.591
        38 -10.8741    249.6492    178.1864   2.9004121205e+02   4.2129180414e+00   0.03419167   0.01123431 -59.98   0.00253401    2.960    0.662
        39 -11.9815    247.4166    192.7992   2.9015656517e+02   4.0591507060e+00   0.03679045   0.02727712 -81.59  0.003933582    1.566    0.362
        40 -11.4914    243.8857    182.7489   2.9013685804e+02   4.1959864232e+00   0.04963776   0.02509027  54.15  0.004078586    2.617    0.618
        41 -10.5614    231.8438    195.0726   2.9035369912e+02   4.1285805295e+00    0.0160787   0.01247192 -84.22  0.001168907    1.484    0.326
        42  -9.5370    210.5044    219.7165   2.9075496163e+02   3.9768163030e+00   0.01366325  0.009080586  54.43   0.00134411    1.710    0.415
        43  -9.2957    203.8222    220.6059   2.9083904908e+02   4.0075389248e+00  0.009889154  0.005838918  37.88 0.0009507097    1.640    0.390
        44 -10.2128    233.0676    214.8137   2.9045952856e+02   3.8947988106e+00   0.01778147   0.01357746 -89.54  0.001786255    1.557    0.358
        45  -9.2499    168.5211    216.0012   2.9122684311e+02   4.2764095162e+00   0.01016724  0.006668739 -63.90  0.001026176    1.578    0.366
        46 -10.3217    185.7204    213.4306   2.9100858651e+02   4.2006403910e+00   0.01842019   0.01332704 -83.31  0.001333849    1.644    0.392
        47 -10.4282    131.5358    213.1825   2.9164561778e+02   4.5348879063e+00   0.02380319  0.006267715 -60.90   0.00157501    3.691    0.729
        48  -9.5323    240.4553    214.0407   2.9036788471e+02   3.8583835137e+00    0.0146048  0.009545783 -53.93 0.0009265791    1.526    0.345
        49 -10.9472    237.0314    208.3900   2.9037376226e+02   3.9441352135e+00    0.0318451   0.01741713  58.79  0.002686527    2.549    0.608
        50 -10.0452    210.8865    201.3114   2.9063843737e+02   4.1854963358e+00   0.01702292   0.01120349  86.43  0.001611975    2.092    0.522
        51 -11.1621    214.7783    210.6607   2.9064952914e+02   4.0544635721e+00    0.0267907   0.01886019 -83.19  0.002752865    1.717    0.418
        52 -10.5877    204.6790    207.0011   2.9074617275e+02   4.1582849942e+00   0.01548397  0.008535813 -53.53 0.0009966793    1.792    0.442
        53  -9.1119    161.5083    212.5098   2.9128825243e+02   4.3593573331e+00  0.006641975  0.006465379  36.06 0.0008104634    1.021    0.021
        54 -11.0223    227.4904    210.0091   2.9049591508e+02   3.9840472043e+00   0.01712976   0.01301994 -57.40  0.001892523    1.327    0.247
        55  -9.9199    175.9882    210.7548   2.9110696413e+02   4.2908948089e+00   0.01931411  0.009450018  52.01  0.001570488    2.593    0.614
        56  -9.3999    147.6136    209.8226   2.9143567734e+02   4.4751594677e+00  0.009424497  0.006527089 -77.80 0.0009513363    1.679    0.404
        57  -9.5038    191.9646    208.4977   2.9090502593e+02   4.2189845972e+00   0.01080414  0.008987037 -61.23 0.0006819278    1.227    0.185
        58 -10.5422    196.8243    204.7698   2.9082510047e+02   4.2319763111e+00   0.02327267   0.01064618  44.87  0.001941014    2.339    0.572
        59 -10.6800    124.2387    206.0645   2.9168841600e+02   4.6611475108e+00   0.01308384  0.008900053  34.45            0    1.419    0.295
        60  -9.4433    184.1602    202.6271   2.9096124258e+02   4.3340909221e+00   0.01874258  0.005829964 -53.02   0.00136415    2.992    0.666
        61  -9.2886    164.3060    203.3229   2.9119942305e+02   4.4476226250e+00  0.007010308  0.005003249 -26.35  0.000703328    1.642    0.391
        62 -10.0046    203.1545    198.2973   2.9071114409e+02   4.2674213170e+00   0.01302804  0.008622479  77.68  0.001226947    2.098    0.523
        63  -9.5698    178.2032    199.3270   2.9101134993e+02   4.4084055764e+00   0.01702541  0.005864911  43.61   0.00120859    3.153    0.683
        64  -9.9771    148.6728    197.1004   2.9134585480e+02   4.6146334537e+00   0.01334253  0.006546546 -71.63  0.001098424    2.516    0.603
        65 -10.8581    216.3881    195.3318   2.9053724055e+02   4.2203405579e+00   0.01735056   0.01252272  85.88  0.001520741    1.747    0.427
        66  -9.7806    210.6429    190.0621   2.9057280234e+02   4.3159634760e+00   0.01288086  0.008834841  54.22  0.001311001    1.633    0.388
        67 -10.7978    209.2659    194.3740   2.9061527978e+02   4.2749642021e+00   0.02846815   0.01597638  68.55  0.002281406    2.968    0.663
        68  -9.1513    191.3174    187.6670   2.9078586365e+02   4.4618238853e+00  0.007090213  0.005002485  62.14 0.0006003889    1.691    0.409
        69  -9.8410    147.5663    179.7270   2.9125323567e+02   4.8207057866e+00   0.01315131  0.006110076 -56.64  0.001139745    2.098    0.523
        70  -9.5976    218.1253    177.7106   2.9040943231e+02   4.4117043873e+00   0.01195474  0.009398554 -81.48  0.001314353    1.435    0.303
        71  -9.8781    185.1140    193.6698   2.9089549492e+02   4.4309755062e+00   0.01571529    0.0106325 -44.97  0.001625534    1.527    0.345
        72  -8.7420     25.6829    178.6426   2.9268496189e+02   5.5768443645e+00  0.007235898  0.004929411 -27.71 0.0007044672    1.753    0.429
        73 -11.6848    238.7498    189.0524   2.9023572737e+02   4.1552403904e+00   0.03173852    0.0217106 -58.14  0.003342284    1.470    0.320
        74  -8.9808    184.3145    165.3134   2.9073224485e+02   4.7610558320e+00  0.006995051  0.005023157 -24.99 0.0003250023    1.639    0.390
        75  -9.3426    243.1303    155.5177   2.8997968096e+02   4.5126880953e+00  0.009959093  0.006430089  29.14 0.0005120322    1.503    0.335
        76  -9.4758    229.1161    153.5118   2.9013245653e+02   4.6216728326e+00   0.00988123  0.006490473  27.11  0.000435505    1.493    0.330
        77 -10.0166    134.4940    152.4661   2.9124152646e+02   5.2133895130e+00  0.006625681  0.006469315  21.08 7.126991e-05    1.003    0.002
        78  -9.1250    118.4587    152.5070   2.9143099354e+02   5.3109704935e+00  0.006605669  0.006480591  25.41  8.51242e-05    1.008    0.008
        79 -10.2820    241.0487    149.3569   2.8996659879e+02   4.5960604395e+00   0.01235095   0.01067291  82.49 0.0007726405    1.286    0.222
        80 -11.2533    237.1748    198.0630   2.9030916908e+02   4.0616219268e+00   0.02721652   0.02164809 -87.74  0.003027416    1.447    0.309
        81 -10.5118    248.3234    143.1548   2.8984310339e+02   4.6224676951e+00   0.01549617   0.00780727 -45.51  0.001367152    2.095    0.523
        82  -9.1287    244.9543    144.7774   2.8989266986e+02   4.6245609515e+00  0.009033988  0.005430752  26.15 0.0008673573    1.646    0.392
        83  -9.2272    244.3291    140.6593   2.8987489565e+02   4.6755848798e+00   0.01285566  0.005671147  38.70 0.0008828677    2.176    0.541
        84 -10.0075    241.5161    138.4744   2.8989468042e+02   4.7178893160e+00   0.01214194  0.008804196  12.34  0.001277355    1.497    0.332
        85  -9.0032    162.5556    136.5123   2.9081330241e+02   5.2246088260e+00  0.006587231  0.006480304  23.21 9.608606e-05    1.008    0.008
        86  -9.3130     96.5076    135.4347   2.9158623580e+02   5.6409589887e+00  0.006623343  0.006428137  22.24 0.0001223681    1.009    0.009
        87  -9.8017    235.8591    130.0176   2.8990967412e+02   4.8495189476e+00   0.01148288  0.009275427  34.93 0.0005503301    1.206    0.171
        88  -9.2538    231.1739    129.8777   2.8996400152e+02   4.8798848492e+00  0.009592215  0.007725399 -25.14 0.0004772226    1.366    0.268
        89  -9.3560    186.5795    128.6575   2.9048209291e+02   5.1674548807e+00   0.01302079  0.006064199 -56.30  0.001002192    2.092    0.522
        90 -10.1490    200.8713    125.8040   2.9029619716e+02   5.1125222029e+00   0.01928874  0.009044752 -58.94  0.001685755    2.108    0.526
        91  -9.7370    212.9146    123.2527   2.9013868425e+02   5.0678744635e+00   0.01133435  0.007603293 -13.61  0.001084932    1.957    0.489
        92  -9.7298    232.2940    121.0372   2.8989683423e+02   4.9743024801e+00  0.009405815  0.008574134 -69.90 0.0005249144    1.138    0.121
        93 -10.0057    192.4147    118.4977   2.9035130749e+02   5.2481347998e+00   0.01367116   0.01080191  59.32 0.0008742072    1.396    0.284
        94  -9.0916    178.6638    115.7021   2.9049640488e+02   5.3644961256e+00   0.00700022  0.005045737 -22.24  0.000703213    1.653    0.395
        95  -9.8583    153.3501    114.3235   2.9078663252e+02   5.5354124994e+00   0.01409109  0.008893908  61.45  0.001315686    2.031    0.508
        96 -10.0674    109.4152    112.3803   2.9129344740e+02   5.8265364095e+00   0.01872811  0.003630613 -52.95  0.001133499    4.286    0.767
        97  -9.5876    241.6443    112.5065   2.8973460428e+02   5.0146080055e+00   0.01371228  0.007958518  55.40  0.001236023    2.126    0.530
        98  -9.7667     25.9709    111.3491   2.9227314968e+02   6.3473910976e+00   0.01253354  0.008925809 -31.19  0.001230291    1.590    0.371
        99  -9.8353    236.8910    107.3939   2.8975935798e+02   5.1023728219e+00   0.01328785  0.009747333 -16.02  0.001115469    1.640    0.390
       100  -9.2516    197.3111    107.0391   2.9022363628e+02   5.3494262996e+00  0.009399461  0.008445633 -60.74 0.0005536442    1.136    0.120
       101  -9.4379    209.4953    114.1385   2.9012334517e+02   5.1933041232e+00   0.01076193  0.008857979  55.80 0.0005498618    1.294    0.227
       102  -9.0815    214.1286    104.8634   2.9001210120e+02   5.2711455495e+00  0.009281601  0.007677785 -24.24 0.0004865094    1.314    0.239
       103  -9.8290    228.7481    104.2054   2.8983580641e+02   5.1889145787e+00   0.01235161  0.008227409  37.73 0.0006677171    1.460    0.315
       104  -8.3872    223.3432    104.6588   2.8990225922e+02   5.2169131245e+00  0.007265964  0.004944504  61.27 0.0007048104    1.780    0.438
       105 -10.1003    246.9251    102.6018   2.8961190030e+02   5.0956126860e+00   0.01200183  0.009866459 -72.35 0.0004624941    1.294    0.227
       106  -9.8231    205.6094     98.4582   2.9007340330e+02   5.3968295311e+00   0.01462574   0.01063695 -37.13  0.001329873    1.483    0.326
       107  -9.5917    171.7464     96.1991   2.9045898606e+02   5.6304509437e+00   0.01061899  0.008444628  82.55 0.0008688497    1.478    0.323
       108 -10.0901    234.0246     94.9759   2.8971724940e+02   5.2622229418e+00  0.008187892  0.007938071  23.29 0.0007230341    1.010    0.010
       109  -9.8119    150.9091     92.6851   2.9068344437e+02   5.7984284513e+00  0.009617717  0.008386509  32.54 0.0006115483    1.119    0.107
       110  -8.7414    227.6601     88.6824   2.8975377735e+02   5.3734093227e+00  0.007122925  0.005017862 -23.69 0.0007048994    1.709    0.415
       111  -8.7481    245.2969     87.3310   2.8953773981e+02   5.2805032444e+00  0.007005799  0.004986083 -27.45 0.0005620873    1.640    0.390
       112  -9.7694    218.4896     86.0163   2.8984555894e+02   5.4602802303e+00   0.01035678   0.00655487 -59.87  0.001032511    1.595    0.373
       113  -9.8697    172.1592     84.2709   2.9038128985e+02   5.7646192372e+00   0.01274577  0.008556496  74.57  0.001219621    2.018    0.505
       114  -9.0708    192.4702     84.0458   2.9014030320e+02   5.6426010026e+00   0.01004014    0.0066173 -62.04 0.0005607067    1.552    0.356
       115  -9.8617    186.3222     83.3822   2.9020876737e+02   5.6879284013e+00   0.01690129   0.01030272 -51.58  0.001674091    1.639    0.390
       116  -9.3430    244.9686     80.9441   2.8950255780e+02   5.3556559607e+00   0.01109992  0.007697582  60.34 0.0008045481    1.711    0.415
       117  -9.6059    240.4055     76.2972   2.8952789554e+02   5.4369153185e+00   0.01357787   0.01016139 -25.44  0.001062143    1.531    0.347
       118  -9.4844    189.5418     76.5396   2.9012898578e+02   5.7465675912e+00    0.0116557  0.006712862 -78.66 0.0007011121    2.282    0.562
       119  -9.5791    158.3231     76.5318   2.9049732513e+02   5.9381290205e+00   0.01201423  0.006197185 -62.01  0.001080163    1.981    0.495
       120 -10.1557    139.8639     74.5267   2.9070302324e+02   6.0742070345e+00    0.0138413  0.009193874 -88.93  0.001302053    1.993    0.498
       121  -9.0473    207.8288     74.3867   2.8990016168e+02   5.6589610717e+00  0.009288125  0.006367763  11.44 0.0003407355    1.635    0.388
       122 -10.8685    230.3088     71.7573   2.8961910003e+02   5.5509609058e+00   0.01151206  0.008447151 -66.89 0.0004182771    1.432    0.302
       123  -9.6794    127.5138     72.4921   2.9083646451e+02   6.1731449484e+00  0.006628014  0.006474343   6.68  5.56882e-05    1.014    0.014
       124  -9.9029    239.3424     68.1971   2.8949088486e+02   5.5361909463e+00   0.01166914   0.01057574 -70.44 0.0006210118    1.147    0.128
       125  -8.9717    219.9300     68.9807   2.8972444697e+02   5.6465367143e+00  0.007865427  0.007537939  22.07 0.0003100278    1.022    0.022
       126  -9.2268    188.1853     69.2470   2.9010042630e+02   5.8384324536e+00  0.009301412  0.007660323  62.03 0.0005507384    1.333    0.250
       127 -10.7209     43.9085     68.0295   2.9179749527e+02   6.7349879340e+00   0.01396892   0.01185214  28.16  0.001627041    1.151    0.131
       128  -9.9517    245.4110     65.9487   2.8940564046e+02   5.5246146560e+00   0.01247146  0.008885236  46.01 0.0006099404    1.439    0.305
       129  -9.4692    215.4966     69.9168   2.8978243295e+02   5.6630547487e+00   0.01010093  0.006585889 -60.59 0.0007897399    1.556    0.357
       130  -9.1513    234.5575     66.4923   2.8953683612e+02   5.5851279295e+00   0.00658892  0.006470234   2.43 5.459068e-05    1.014    0.014
       131  -9.4400    214.3217     61.9991   2.8974787217e+02   5.7609413611e+00  0.009397445  0.008522416 -61.82 0.0005145576    1.128    0.114
       132  -8.9271    218.6484     61.6947   2.8969500127e+02   5.7378412762e+00  0.007101308  0.005031364 -22.08 0.0007041604    1.707    0.414
       133  -8.9703    205.4663     61.5163   2.8984933930e+02   5.8208701332e+00  0.006680341  0.006404672 -12.61    0.0002132    1.056    0.053
       134  -9.0610    202.2941     61.6807   2.8988775618e+02   5.8384716526e+00  0.006890266  0.005037573  63.05 0.0004806451    1.609    0.378
       135  -9.5471    231.5229     58.9963   2.8952674584e+02   5.6896007959e+00   0.01009302  0.006606284 -61.51 0.0006057713    1.558    0.358
       136  -9.3055    174.1000     59.3039   2.9020586278e+02   6.0387589969e+00  0.009550174  0.008327916  35.24 0.0009025063    1.122    0.109
       137  -9.4338    140.3170     54.3315   2.9057435305e+02   6.3028385959e+00  0.007101255  0.004991418 -26.06 0.0007047183    1.687    0.407
       138  -9.5019    234.3193     53.3253   2.8945909782e+02   5.7373233192e+00  0.007073119  0.005006779 -25.41 -0.000185565    1.678    0.404
       139  -9.5013    154.6436     53.2962   2.9039883503e+02   6.2268982837e+00  0.007152017   0.00489991  57.68 0.0007033605    1.697    0.411
       140  -9.5574    149.5110     52.4771   2.9045443983e+02   6.2677433774e+00  0.006626673  0.006468758  27.66  8.15992e-05    1.009    0.009
       141  -9.4298    194.9313     49.1808   2.8989817035e+02   6.0268270995e+00   0.01814962  0.009138259 -74.26  0.001409767    2.608    0.616
       142  -9.2431    220.9499     44.5281   2.8956285829e+02   5.9202221066e+00   0.01035823  0.006509861  26.07 0.0008914958    1.573    0.364
       143  -9.1725    189.8053     44.4153   2.8992950372e+02   6.1128701462e+00  0.009241576  0.006423366  10.50 0.0004867495    1.616    0.381
       144  -9.1743    164.0242     43.0022   2.9022515918e+02   6.2872768927e+00  0.008255046  0.007538586 -60.23 0.0004795891    1.118    0.106
       145  -9.1646    132.4742     43.5268   2.9060099635e+02   6.4746570946e+00  0.006614736  0.006469585  19.00 0.0001060922    1.000    0.000
       146  -9.6832      5.0310     41.0393   2.9209314785e+02   7.2810247956e+00   0.01117607  0.007891935  62.34  0.001064366    1.693    0.409
       147  -9.4917    173.9142     40.2783   2.9009174814e+02   6.2577890511e+00  0.009554838  0.008896955  15.58  0.001156589    1.065    0.061
       148  -9.6949    105.2521     40.0291   2.9090134436e+02   6.6813502431e+00  0.008952368  0.005720838 -60.84 0.0008910441    1.588    0.370
       149  -9.4332     93.1912     40.3871   2.9104612072e+02   6.7509997420e+00   0.01004072  0.005730276  38.48 0.0009494197    1.701    0.412
       150 -10.0386     95.4986     37.5078   2.9100125998e+02   6.7698805549e+00   0.01030052  0.005993492 -50.30 0.0009841835    1.723    0.419
       151 -10.5024    248.5260     37.9381   2.8919753517e+02   5.8260174784e+00   0.01356415   0.01208244 -25.70 0.0004834896    1.175    0.149
       152  -9.6899    242.5175     37.8842   2.8926799469e+02   5.8636081455e+00  0.009869711  0.006560131 -59.81 0.0004490284    1.522    0.343
       153  -9.9713    229.4314     37.0476   2.8941709532e+02   5.9536826584e+00   0.01280715  0.009881688  24.76 0.0005428098    1.280    0.219
       154  -9.8318    218.2657     34.4640   2.8953291834e+02   6.0519101896e+00   0.01192304  0.009065394 -63.64 0.0005676844    1.355    0.262
       155  -9.4962    111.6542     35.3036   2.9079680498e+02   6.6963150469e+00  0.007125119  0.004928049  58.58 0.0007040445    1.689    0.408
       156  -9.5155    104.8693     34.2157   2.9087036732e+02   6.7502867996e+00   0.01120589  0.007596807 -10.31 0.0007578909    1.913    0.477
       157 -10.0662    163.8248     31.0265   2.9015428775e+02   6.4256304181e+00   0.01989463   0.01129918 -84.52  0.001677143    2.632    0.620
       158  -9.1548    248.6526     31.2984   2.8915539079e+02   5.9012005015e+00  0.007110396  0.004921936  58.29 0.0007035818    1.681    0.405
       159  -8.9694    194.2457     29.9918   2.8978887526e+02   6.2507157807e+00  0.008695073  0.005707069 -62.06  0.000590953    1.559    0.359
       160  -8.9150    170.4826     28.5247   2.9006037566e+02   6.4134189364e+00  0.006624814  0.006464058  29.27 0.0008098864    1.011    0.011
       161  -8.7280    101.3025     26.6386   2.9086625672e+02   6.8588907258e+00  0.007101723  0.005016997  64.71 0.0007037162    1.725    0.420
       162 -10.1323    220.9615     23.9805   2.8943695992e+02   6.1552955347e+00  0.008473025  0.007392406  26.35 0.0009884593    1.122    0.109
       163  -9.4319    249.4213     22.7251   2.8909383445e+02   5.9945367133e+00   0.01147643  0.008280665  -8.09  0.001172429    1.697    0.411
       164  -9.4056     91.1802     23.3980   2.9096616180e+02   6.9579005141e+00  0.009988175  0.005780661  38.44 0.0009511877    1.677    0.404
       165  -9.7080    206.2537     20.4654   2.8958890102e+02   6.2859477851e+00   0.01163383  0.009317417 -58.77 0.0006033516    1.267    0.211
       166 -10.8860    242.9412    246.8882   2.9053857249e+02   3.4666938605e+00   0.02286427   0.01515744 -72.98  0.001433075    1.700    0.412
       167  -8.6542    227.6630     17.6715   2.8931931588e+02   6.1862508440e+00  0.007163437  0.004998842 -24.55 4.556624e-05    1.729    0.422
       168  -8.7941    174.8161     17.6352   2.8994258851e+02   6.5114653112e+00  0.009410476  0.005785164  38.23 0.0005023865    1.580    0.367
       169  -9.5274    120.6570     16.7921   2.9057726412e+02   6.8531984648e+00  0.009457641  0.006397298 -74.94 0.0009469255    1.691    0.409
       170  -9.1170     87.2865     15.3398   2.9096299200e+02   7.0739838275e+00  0.007004713  0.004951046 -28.88 0.0002858123    1.637    0.389
       171  -9.5377     62.7056     15.3425   2.9125382950e+02   7.2240868106e+00  0.006977347  0.005035826  64.38 0.0007030405    1.660    0.398
       172  -9.7168    131.3262     13.9018   2.9043348338e+02   6.8209375770e+00  0.009643592  0.008440845 -52.10  0.001132394    1.156    0.135
       173 -11.2296    241.2163    239.2957   2.9051266659e+02   3.5642719906e+00   0.03352753   0.01549835 -58.49  0.002791701    2.129    0.530
       174  -9.1991    218.4784     10.5628   2.8938407907e+02   6.3240671235e+00   0.00664612  0.006393405  -3.02 0.0001113073    1.045    0.043
       175 -10.3335    237.2901    230.7905   2.9050709867e+02   3.6858013677e+00   0.02857461   0.01262335  52.66  0.002105186    3.214    0.689
       176  -9.3799    218.9475    248.9313   2.9083328108e+02   3.5901908251e+00   0.01102513  0.007782065  61.09  0.001122958    1.675    0.403
       177 -10.5535    233.6508    246.8585   2.9064767793e+02   3.5239285273e+00   0.01858761   0.01597083  83.93  0.001600307    1.298    0.229
       178  -9.3455    211.0024    247.0372   2.9091526685e+02   3.6605380526e+00   0.01702809  0.008815809  88.20  0.001144393    4.235    0.764
       179 -10.9149    240.2162    221.8745   2.9041839776e+02   3.7700630424e+00   0.05437336   0.01644908  46.21  0.003324484    4.451    0.775
       180 -11.6092    249.1308    241.9461   2.9043570133e+02   3.4854178199e+00   0.03178495   0.01747514 -69.39  0.002827643    2.056    0.514
