#   1 NUMBER                 Running object number                                     
#   2 MAG_AUTO               Kron-like elliptical aperture magnitude                    [mag]
#   3 X_IMAGE                Object position along x                                    [pixel]
#   4 Y_IMAGE                Object position along y                                    [pixel]
#   5 X_WORLD                Barycenter position along world x axis                     [deg]
#   6 Y_WORLD                Barycenter position along world y axis                     [deg]
#   7 A_WORLD                Profile RMS along major axis (world units)                 [deg]
#   8 B_WORLD                Profile RMS along minor axis (world units)                 [deg]
#   9 THETA_WORLD            Position angle (CCW/world-x)                               [deg]
#  10 FWHM_WORLD             FWHM assuming a gaussian core                              [deg]
#  11 ELONGATION             A_IMAGE/B_IMAGE                                           
#  12 ELLIPTICITY            1 - B_IMAGE/A_IMAGE                                       
         1 -12.3855    198.5017     38.5012   4.6362133235e+01   3.0955453935e+01    0.9657473    0.9574034  45.53  0.003569209    1.128    0.114
         2 -12.5577    209.1543     26.9803   4.2004867496e+01   2.9809366913e+01    0.9463317    0.7714643  34.11   0.00248475    1.524    0.344
         3 -10.4523     32.6782      5.4257   7.7431143424e+01   7.0696188237e+01    0.5877965   0.09872039 -34.88  0.001896427    5.500    0.818
         4  -8.9545     40.6803      7.3175   7.4585887257e+01   6.9387328483e+01    0.1019967   0.09562914 -31.72 0.0006658396    1.660    0.398
         5 -11.1122    233.4276      3.1170   3.4069692136e+01   2.6844095887e+01    0.7858923    0.3309846  75.75  0.003790077    2.239    0.553
         6  -9.2562     56.2507      3.7431   6.6043707756e+01   6.7381229665e+01    0.1938751   0.09086515 -11.85 0.0008986309    2.433    0.589
         7  -9.4315     29.2796      3.0166   7.7843264198e+01   7.1428161667e+01    0.1725797    0.1257161 -13.62  0.001177752    1.113    0.101
         8  -8.5089     33.6540    227.8347   1.2317280843e+02   2.2787365316e+01    0.1661994    0.1391591  52.60 0.0006744151    1.286    0.222
         9 -10.0050    116.9161    249.7866   1.0944735272e+02   7.8456710839e+00    0.3145938    0.1833809  57.83   0.00178235    1.741    0.426
        10 -11.8988     86.2724    225.5786   1.1286228102e+02   1.6624969298e+01    0.9078209    0.7781729  64.44  0.001587348    1.043    0.042
        11 -12.2851     44.5217    202.4761   1.1916458157e+02   2.6725808924e+01     1.219309    0.6854714  83.32   0.00225467    1.758    0.431
        12 -12.5742     55.4998    191.2990   1.1576314187e+02   2.7856332960e+01     2.487902     1.181662 -84.03    0.0113588    2.381    0.580
        13 -14.3135     51.8207    246.5713   1.2115831065e+02   1.7206142930e+01      6.28779     2.157595  26.62  0.007397109   10.662    0.906
        14  -8.8827     99.0535    180.7018   1.0437087505e+02   2.4114467542e+01    0.1966473    0.1706448  45.84 0.0009143353    1.132    0.116
        15 -10.0517     69.4453    176.4760   1.1083385164e+02   2.9431198726e+01    0.2554165    0.2518071 -55.41 0.0006674208    1.231    0.187
        16 -10.6389     73.8298    171.2393   1.0906708972e+02   3.0053298775e+01    0.5176759     0.312567 -37.03  0.002362445    2.376    0.579
        17 -10.5895    162.8806    224.6781   9.7098849894e+01   4.7874818842e+00    0.4834882    0.2842725 -22.82   0.00227116    2.578    0.612
        18  -9.3562    113.7760    173.4636   9.9648839911e+01   2.3310522737e+01    0.2909374     0.130855  42.31  0.001159303    2.128    0.530
        19 -10.1596     97.1142    169.0024   1.0298272016e+02   2.7099073285e+01    0.5276096    0.1446437  42.36  0.001710294    3.438    0.709
        20 -12.0598     58.8810    132.2962   1.0695102350e+02   4.1446181130e+01     1.966501    0.6603696 -73.77  0.004920905    6.286    0.841
        21 -11.0058     82.6982    161.9017   1.0545298077e+02   3.0992140714e+01    0.7212633    0.3972059  60.74 0.0006038966    2.270    0.560
        22 -12.0024     70.9043    156.9034   1.0769680393e+02   3.3866782511e+01    0.5957572    0.4442353 -36.67  0.001510975    1.640    0.390
        23 -12.0618     68.5792    144.3241   1.0629336566e+02   3.7241887544e+01    0.9276256    0.6107906  88.15  0.003320523    1.815    0.449
        24  -9.7333     32.8401    165.1357   1.1822908043e+02   3.6356193551e+01    0.1964063    0.1470329  78.23 0.0006344433    1.197    0.164
        25  -8.6108    158.8323    162.2814   8.6710372933e+01   1.7338102032e+01    0.2490477    0.2083659 -61.09 0.0005759155    1.360    0.265
        26 -10.4535     88.9982    155.1885   1.0270431656e+02   3.1643900098e+01    0.5770148    0.3780771 -28.03  0.001328636    2.258    0.557
        27  -7.6351    112.6753    151.3266   9.5795369975e+01   2.8606334343e+01    0.1551983    0.1158958  77.67 0.0007049235    1.693    0.409
        28 -10.2828     52.4104    145.9910   1.1092567774e+02   3.8851671029e+01    0.4304375    0.1564768  50.09  0.001572964    3.410    0.707
        29  -9.2719    133.8106    145.7009   8.9173755756e+01   2.5932130976e+01    0.6234511    0.1717338 -54.01  0.001582244    4.826    0.793
        30  -9.1987     39.8800    146.9965   1.1438079393e+02   3.9971714743e+01     0.214912    0.1907001  40.49 0.0009848563    1.297    0.229
        31  -8.1533     84.4315    143.7526   1.0186217688e+02   3.5113497382e+01    0.1931487    0.1284465 -50.56 0.0003331496    1.457    0.314
        32  -9.7495    102.8222    139.6638   9.6025544893e+01   3.3112609684e+01    0.5768055    0.3580084 -20.45  0.002163172    2.862    0.651
        33 -10.6416     90.5095    140.0004   9.9472792514e+01   3.5079969044e+01     0.305399    0.2951107 -59.59 0.0005033688    1.056    0.053
        34  -8.7722    105.8753    130.8840   9.3274064524e+01   3.4679175619e+01    0.3357287    0.2186114 -57.73  0.001499435    1.537    0.349
        35  -8.8155    112.3317    130.0697   9.1300744537e+01   3.3694130252e+01    0.2879552    0.2209255  13.62  0.001338547    1.628    0.386
        36 -10.2264     43.7503    129.7656   1.1086803949e+02   4.3781665411e+01    0.3093133    0.2146019  42.65  0.001709843    1.591    0.371
        37  -8.9988     67.0074    125.2938   1.0329482681e+02   4.2135531191e+01    0.1953831    0.1898594  78.84  0.001170511    1.106    0.095
        38  -9.5803    119.0170    123.6502   8.7929624601e+01   3.3925923906e+01    0.4540843    0.2754751  12.17  0.001562188    3.116    0.679
        39  -9.2649     99.1374    126.5179   9.4183487022e+01   3.6911829952e+01    0.2924194    0.2397524 -19.07 0.0006165758    1.437    0.304
        40  -8.5387     39.6763    120.6996   1.1060418857e+02   4.6416969571e+01    0.1362278    0.0895387 -40.08 0.0007027392    1.631    0.387
        41  -8.4181    108.1000    119.1550   8.9878518560e+01   3.7058227786e+01    0.2256414    0.2008018 -14.58 0.0003227642    1.223    0.183
        42  -7.6417    168.6534    113.3298   7.2711505642e+01   2.5505295011e+01    0.1628912    0.1272914 -80.59 0.0007049831    1.758    0.431
        43 -10.2767     51.4672    109.2769   1.0487581058e+02   4.7972019936e+01    0.3525346    0.2530251  66.08  0.001829297    1.757    0.431
        44  -8.0788    205.9779    110.0210   6.4159680033e+01   1.7675108536e+01    0.1793069    0.1746275  -8.10 0.0006826914    1.052    0.050
        45  -9.8524     43.7658    108.9654   1.0726410497e+02   4.8874743748e+01    0.2115279    0.2052241  24.91  0.001076337    1.205    0.170
        46  -8.5788    135.0000    105.9810   7.8970845871e+01   3.4606964425e+01    0.2668961   0.08871549 -43.49 0.0008022169    2.941    0.660
        47 -11.1370     46.7063    221.6062   1.2028976882e+02   2.2532241467e+01    0.5339071    0.3410435  75.61  0.001436569    1.384    0.278
        48  -8.4293    115.6551    100.6646   8.2820674955e+01   3.9834968547e+01    0.1642239    0.1220916  -5.91 0.0001207096    1.769    0.435
        49  -9.7034    240.5866     99.6859   5.5877882094e+01   1.2058010209e+01    0.2934341    0.1270049 -30.97  0.001158291    2.241    0.554
        50  -7.8325     41.4607     91.5403   1.0443013605e+02   5.3284001327e+01    0.1355495    0.1140843 -51.67 7.380679e-05    1.003    0.003
        51  -9.3636     32.5939     86.2826   1.0638757209e+02   5.5337771119e+01    0.2616626     0.114281 -65.25  0.001141106    2.119    0.528
        52  -8.0098     60.8621    220.1737   1.1741163346e+02   2.1093965349e+01    0.1422761     0.133518  81.14 0.0004109353    1.263    0.208
        53  -8.5618    158.4570     81.5460   6.6083114338e+01   3.4125523876e+01    0.1537676    0.1516263 -16.96 0.0001839793    1.009    0.009
        54  -8.8398     92.9611    218.0111   1.1067333236e+02   1.7139737126e+01    0.1950575    0.1706298 -87.40 0.0006640007    1.168    0.144
        55  -8.5061     58.5294     67.4585   9.1719136548e+01   5.6742078240e+01    0.1381375    0.1198962 -30.73 0.0008083765    1.022    0.022
        56 -15.7290      6.2807    207.0595   1.2697579741e+02   2.9633521830e+01     19.57107     0.898222 -76.37   0.02514842   12.076    0.917
        57  -9.4004     54.5625    222.4960   1.1884437580e+02   2.1415021539e+01    0.3833991    0.1410544  51.56  0.001508808    2.369    0.578
        58  -9.7941    146.1783     50.5386   5.9100538074e+01   4.2349910038e+01    0.4922008    0.3330804 -83.82   0.00205932    2.300    0.565
        59 -11.5073    188.5263     45.4960   4.9739009986e+01   3.2482299584e+01    0.5495419    0.4517274  61.22  0.001939118    1.197    0.164
        60 -15.2622      9.5067    242.9002   1.2814900974e+02   2.2454166096e+01     4.473945      1.70452  31.66   0.02454946    3.036    0.671
        61  -8.6607    114.0330    208.7146   1.0503343025e+02   1.5758114214e+01    0.2632873    0.1603151  85.23  0.001164374    2.632    0.620
        62  -9.0771    147.9995     44.3227   5.6661305876e+01   4.2803434979e+01    0.2694227    0.2364664 -82.07 0.0003977863    1.289    0.224
        63 -11.3484     16.1614    191.0667   1.2408767477e+02   3.2099265322e+01    0.2720694    0.2087505  71.39 0.0005113429    1.093    0.085
        64  -9.9626     32.6579     31.0026   8.9537462488e+01   6.6821483472e+01    0.2873434   0.09836628 -45.44  0.001245936    2.542    0.607
        65  -7.9644     71.5048    185.9250   1.1155048206e+02   2.6994496793e+01    0.1829371    0.1210764 -71.32 0.0004423773    1.452    0.311
        66  -9.5589     60.5686    233.0545   1.1855674796e+02   1.8623477495e+01    0.2189336    0.1641207  66.46 0.0004861033    1.076    0.070
        67  -8.9094     53.8846    231.0324   1.1965401337e+02   1.9835092212e+01    0.3182679    0.1444762 -87.09  0.001593201    2.551    0.608
        68  -9.2358    193.8082    195.9164   8.5851935347e+01   4.3468404803e+00     0.307427    0.1857673 -62.08  0.001242042    3.271    0.694
        69  -8.8126     22.4595    192.6568   1.2291641076e+02   3.1164951443e+01    0.3378888    0.1269358  57.14  0.001586751    2.586    0.613
