#   1 NUMBER                 Running object number                                     
#   2 MAG_AUTO               Kron-like elliptical aperture magnitude                    [mag]
#   3 X_IMAGE                Object position along x                                    [pixel]
#   4 Y_IMAGE                Object position along y                                    [pixel]
#   5 X_WORLD                Barycenter position along world x axis                     [deg]
#   6 Y_WORLD                Barycenter position along world y axis                     [deg]
#   7 A_WORLD                Profile RMS along major axis (world units)                 [deg]
#   8 B_WORLD                Profile RMS along minor axis (world units)                 [deg]
#   9 THETA_WORLD            Position angle (CCW/world-x)                               [deg]
#  10 FWHM_WORLD             FWHM assuming a gaussian core                              [deg]
#  11 ELONGATION             A_IMAGE/B_IMAGE                                           
#  12 ELLIPTICITY            1 - B_IMAGE/A_IMAGE                                       
         1 -10.1773     33.0000     51.4478   9.7470649858e+01   6.3124907230e+01    0.6666959   0.04384039 -53.74  0.001388666   10.142    0.901
         2 -11.8206    221.8442     17.7985   3.9341954024e+01   2.7755900577e+01    0.7354239    0.5822424 -60.10  0.002969644    1.122    0.109
         3 -10.2040     33.0000      8.5868   7.9674052418e+01   7.0410081706e+01    0.9334332    0.0580085 -37.88  0.001840041   14.775    0.932
         4 -10.4481     33.0000     21.1080   8.5760434595e+01   6.8590510853e+01    0.8109112     0.110137 -43.96  0.002225917    7.071    0.859
         5 -11.3542    114.5291    228.4391   1.0787644507e+02   1.1829354327e+01    0.6205327    0.2390521 -62.70  0.002625547    3.290    0.696
         6 -14.0023     65.2345    246.1175   1.1909061785e+02   1.5710840632e+01     4.944788    0.8773295  40.25   0.01888524    3.867    0.741
         7 -14.9860     42.5005    194.9091   1.1931059330e+02   2.8792412305e+01     10.35455     4.066978  77.72   0.03709343    4.200    0.762
         8  -9.4359    114.8238    198.4371   1.0383299831e+02   1.7662010574e+01    0.2518401    0.1049565 -60.39  0.001003974    2.718    0.632
         9 -10.8965     83.9190    226.8942   1.1384852737e+02   1.6736298693e+01    0.7345996    0.2224979 -66.74  0.002904505    3.823    0.738
        10 -13.0593     36.5442    207.9651   1.2160772468e+02   2.6676349875e+01     1.102476    0.8376124 -35.83  0.004449462    2.188    0.543
        11 -10.2982     73.9049    219.1056   1.1508131128e+02   1.9680282440e+01    0.2820114    0.1854942  77.49  0.001648391    1.490    0.329
        12 -10.7933     63.3220    179.6819   1.1308917527e+02   2.9642361288e+01    0.4042583    0.3019618 -22.39  0.001497621    2.200    0.545
        13 -10.0699     68.2406    174.1809   1.1123671621e+02   3.0256164404e+01    0.2903512    0.2511528 -44.08 0.0008728956    1.418    0.295
        14 -15.0156      6.9835    239.2300   1.2878176365e+02   2.3629812306e+01     8.916147     1.469255 -79.32   0.03318134    5.681    0.824
        15 -12.9940      9.8054    206.6871   1.2668969301e+02   2.9689549655e+01     0.898737    0.6443972  30.67  0.004122188    1.780    0.438
        16  -9.4012    114.7418    174.8059   1.0011642678e+02   2.2797019836e+01    0.3377292    0.1260146 -57.58  0.001203174    2.864    0.651
        17 -10.7263    164.3409    218.6275   9.6339808338e+01   5.3161402428e+00    0.5142899     0.164311 -51.64  0.001836896    4.170    0.760
        18 -10.0682     77.8854    164.2544   1.0747460777e+02   3.1232728337e+01    0.2796701    0.2420861 -62.27 0.0004007886    1.177    0.151
        19 -10.3992     84.3506    158.3958   1.0490849417e+02   3.1663506791e+01    0.5850211     0.293534 -49.27  0.002443922    2.096    0.523
        20 -11.6536     65.3140    160.2941   1.1006271498e+02   3.3943760902e+01    0.4892652    0.2816118 -47.40  0.001257565    1.971    0.493
        21 -10.7915     72.5025    154.0691   1.0727950663e+02   3.4457630250e+01    0.5482924    0.3347671 -88.05  0.002499866    1.954    0.488
        22 -11.4266     68.7414    144.4916   1.0672850337e+02   3.7319768290e+01    0.7313339    0.4877515  83.64   0.00336595    1.752    0.429
        23  -9.6487     94.6824    221.1257   1.1106338619e+02   1.6276060776e+01    0.2222252    0.1951485  53.11  0.001048464    1.126    0.112
        24 -10.8755     32.9545    104.8613   1.1043281018e+02   5.1130964683e+01     1.429262    0.1151788 -65.22  0.002701465   11.015    0.909
        25 -10.3406     32.9338    120.8296   1.1307705200e+02   4.7264561295e+01    0.8996683    0.1060066 -67.75  0.001961132    8.322    0.880
        26  -9.5069     98.8605    143.1447   9.8314657038e+01   3.2983653082e+01    0.2392023    0.1824764 -26.72  0.001141169    1.687    0.407
        27 -10.3853     87.0004    141.8703   1.0128346595e+02   3.5254232266e+01    0.2901363    0.2571285 -36.11 0.0004836488    1.269    0.212
        28 -10.6372     58.9151    132.1630   1.0737595364e+02   4.1649133889e+01    0.6783766    0.2223068 -69.84  0.002124112    3.820    0.738
        29  -9.8758    108.3686    131.5086   9.3264364581e+01   3.4084750145e+01    0.5288228    0.2639865  46.64  0.002068224    2.098    0.523
        30  -9.0383     96.9942    127.9886   9.5651171910e+01   3.6971548175e+01    0.2269585    0.2141256 -39.37 0.0005553855    1.108    0.097
        31 -11.9454    126.7980    229.4842   1.0552894984e+02   9.6859971656e+00    0.5877701    0.3716016  58.99  0.003199935    1.642    0.391
        32  -9.7271    115.0000    125.5327   9.0062655628e+01   3.4244686792e+01    0.5267316   0.08614763 -50.23  0.001158321    5.955    0.832
        33  -8.2731    106.9974    119.7737   9.0910588931e+01   3.7132146058e+01    0.2036024    0.1951959  44.74 0.0003262466    1.084    0.077
        34 -10.7783     88.9990    227.9946   1.1295051903e+02   1.5790990417e+01    0.6029605    0.2950767  88.40  0.001489965    3.508    0.715
        35  -8.7562     73.6001     83.8145   9.1816565437e+01   5.1193424091e+01    0.2000312    0.1307788 -59.72 0.0005743374    1.628    0.386
        36  -9.7751     32.8694     80.7951   1.0556361108e+02   5.6799758892e+01    0.5375799   0.09338859 -59.80   0.00163452    4.306    0.768
        37  -9.9065     33.0000     69.5138   1.0273552367e+02   5.9317662820e+01    0.6104014   0.06990279 -59.00  0.001391426    7.953    0.874
        38  -8.4796    115.0000     63.9906   7.2294446331e+01   4.7460803909e+01    0.2508966   0.08409265 -38.19 0.0008066971    2.972    0.664
        39  -9.3637     13.3609     60.0240   1.0821230170e+02   6.2875629182e+01    0.1809407    0.1225341 -54.03 0.0005330164    1.160    0.138
        40 -12.4109     40.4878    234.6184   1.2274682844e+02   2.0904585329e+01     1.398995    0.5939203  76.72  0.004978525    2.644    0.622
        41  -8.2756    138.1684     44.1796   5.9586890513e+01   4.5270979583e+01    0.1958205    0.1706008 -72.99 0.0003765455    1.314    0.239
        42 -10.6026    198.0214     39.5228   4.7607727690e+01   3.0822100108e+01    0.5967891    0.3366717  38.90  0.002532623    2.403    0.584
        43 -11.3574    206.4565     33.9025   4.5025195948e+01   2.9481150240e+01    0.6861044    0.6230003  73.40  0.003882044    1.127    0.112
        44 -10.8854    214.5603     25.7968   4.2028581996e+01   2.8534001456e+01    0.4690596    0.3316109  33.05  0.001131296    1.990    0.498
        45 -10.8841    114.6382    240.9857   1.0930759694e+02   9.5776911349e+00    0.2797203    0.1989317 -58.45  0.001752855    1.676    0.403
        46  -8.2691    142.3398     39.7099   5.7164960868e+01   4.4870184266e+01    0.1474718     0.112317 -75.25 0.0004169543    1.645    0.392
        47 -11.3505    109.7432    229.0597   1.0891460006e+02   1.2463391273e+01     0.490673    0.2441362 -56.19  0.002490327    2.297    0.565
