#   1 NUMBER                 Running object number                                     
#   2 MAG_AUTO               Kron-like elliptical aperture magnitude                    [mag]
#   3 X_IMAGE                Object position along x                                    [pixel]
#   4 Y_IMAGE                Object position along y                                    [pixel]
#   5 X_WORLD                Barycenter position along world x axis                     [deg]
#   6 Y_WORLD                Barycenter position along world y axis                     [deg]
#   7 A_WORLD                Profile RMS along major axis (world units)                 [deg]
#   8 B_WORLD                Profile RMS along minor axis (world units)                 [deg]
#   9 THETA_WORLD            Position angle (CCW/world-x)                               [deg]
#  10 FWHM_WORLD             FWHM assuming a gaussian core                              [deg]
#  11 ELONGATION             A_IMAGE/B_IMAGE                                           
#  12 ELLIPTICITY            1 - B_IMAGE/A_IMAGE                                       
         1 -15.2110      5.2110     75.8385   7.2629590374e+01   6.2411217950e+01     3.506883    0.8331558 -82.65  0.009643291    5.061    0.802
         2 -15.0310      7.8384    149.2069   7.7996501771e+01   4.2477516215e+01     4.750146     1.303356  78.58   0.01365833    4.892    0.796
         3 -14.8278      4.9039    169.5674   7.9877049526e+01   3.7509054382e+01       3.0243     1.124005 -89.22   0.01255316    2.564    0.610
         4 -15.1482    176.9766     93.9020   1.7105608509e+01   2.7218036696e+01     2.118085    0.9281376 -43.86  0.008476658    2.103    0.524
         5 -14.0251    181.8083     75.0517   1.1403713998e+01   2.9356531771e+01     1.697304    0.8651237 -49.47  0.007374362    1.904    0.475
         6 -11.1818    159.4815      2.7062   3.5321525823e+02   4.4194625208e+01    0.2954184    0.2369183 -75.37 0.0009362243    1.056    0.053
         7 -12.3109    152.8416      3.7807   3.5412325171e+02   4.5768436529e+01     0.699279    0.3234976 -74.00  0.002985351    2.294    0.564
         8 -15.0384    143.3048     24.5796   2.0971802730e+00   4.6042916042e+01     1.495606    0.8728862 -73.95  0.006714969    1.915    0.478
         9 -14.9099    152.4523     15.3976   3.5789881360e+02   4.4721963298e+01     2.962907     1.315092 -89.98   0.01175514    2.558    0.609
        10 -11.3545    177.5803     25.4835   3.5828478814e+02   3.7360956625e+01    0.6113518    0.2782254 -51.06  0.002729513    1.998    0.499
        11 -13.9928    146.9675      8.1522   3.5612202074e+02   4.6859595013e+01     1.334985    0.6115288 -80.99  0.005433822    2.463    0.594
        12 -13.7392    164.0330     13.2330   3.5602547471e+02   4.2032564237e+01       2.1168    0.5172026 -42.65  0.007566625    3.191    0.687
        13 -14.0819    175.5362      6.0958   3.5296574596e+02   3.9939143242e+01     1.189131    0.8525003 -78.96  0.006992687    1.220    0.180
        14 -11.9557    126.0077     12.1565   1.4633031827e-01   5.1934510180e+01    0.2353266    0.2041439 -36.90 0.0007822953    1.239    0.193
        15 -10.6611     14.0060     12.0150   4.6050951062e+01   7.6941846841e+01     0.156766     0.132395 -25.70 0.0008749928    1.086    0.079
        16 -12.2798      7.9225     10.6379   5.1088509962e+01   7.7831283251e+01    0.3326798    0.1621314 -50.68  0.001500428    1.901    0.474
        17 -11.5087      1.7660      5.8178   5.4728963290e+01   7.9286970885e+01    0.3010706    0.1408017 -48.92   0.00154624    1.860    0.462
        18 -10.2606    207.1832     11.3516   3.5222600260e+02   3.2180535453e+01     0.230217   0.08907636 -26.04  0.001014129    2.648    0.622
        19 -12.0167    166.1672      6.9870   3.5395979842e+02   4.2132503321e+01    0.8392503    0.1549955 -41.52  0.002868816    3.615    0.723
        20 -11.0503    138.0131      1.7890   3.5488678467e+02   4.9752422523e+01     0.222853    0.1569438 -68.00  0.001031602    1.316    0.240
        21 -10.2283     75.0044    230.0152   6.5846205515e+01   1.6724884040e+01    0.2037801    0.1223465  54.15  0.001126293    1.626    0.385
        22 -16.1910    241.5614    234.1067   3.3394805804e+01  -3.7613918088e+00     4.675159     2.224975 -35.64   0.03020184    2.097    0.523
        23 -12.0089    194.5823    244.8900   4.2686079731e+01  -2.0841001320e-01    0.4764975    0.2684579  -8.58  0.002918699    1.859    0.462
        24  -9.8096    201.4819    220.4751   3.7959292226e+01   2.1749704436e+00    0.1176903   0.08819526   0.52 0.0001176738    1.049    0.047
        25 -10.3668     12.8461    219.7519   7.9751589623e+01   2.5397266542e+01    0.2521186    0.1011989  61.13  0.001230975    2.151    0.535
        26 -10.4105    210.5012    217.4406   3.5919269645e+01   1.5263916950e+00    0.1937117   0.08778569 -26.67 0.0009147145    2.203    0.546
        27 -14.7607    246.3336    197.5224   2.7013251314e+01   4.9713386218e-02     1.927439    0.7615013 -41.13   0.01000931    2.732    0.634
        28 -10.1329     67.8280    215.8125   6.6320061104e+01   2.0400921438e+01    0.1881461    0.1266976  53.76 0.0007933339    1.373    0.272
        29 -10.6820     55.7304    215.5952   6.9257059265e+01   2.1880530911e+01    0.2962027    0.1320108  59.49   0.00130292    2.480    0.597
        30 -10.8278     44.7607    214.7532   7.1878930979e+01   2.3289069293e+01    0.2674612     0.176366  73.44  0.001042803    1.539    0.350
        31 -15.1747    244.9168    158.4719   2.0423498146e+01   5.3306859509e+00     2.946294    0.9456312 -43.39   0.01232744    3.389    0.705
        32 -10.0294     45.0193    248.0389   7.3798880709e+01   1.6748707494e+01    0.1467578    0.1052953  39.74 0.0006369803    1.053    0.051
        33 -10.2860    216.4783    210.5484   3.3823744823e+01   1.7436653591e+00    0.2160985   0.09715305 -35.62 0.0008130487    2.074    0.518
        34 -15.7392    247.1091    120.2446   1.2814049548e+01   1.0363757758e+01     4.297382    0.9110733 -36.28   0.01569097    3.601    0.722
        35 -11.3424    229.0932    205.8227   3.1002535815e+01   9.1238472805e-01    0.3404869     0.156444 -33.02  0.001284915    1.914    0.478
        36 -10.5732    226.4967    196.5073   2.9888317542e+01   2.4349900755e+00    0.2062126    0.1592431 -25.17 0.0008305233    1.249    0.199
        37 -10.9510    223.9388    192.6666   2.9654137636e+01   3.2626397134e+00    0.3179497    0.1618317 -43.39  0.001107165    2.231    0.552
        38 -10.6197    227.5992    200.7700   3.0418021520e+01   1.7401499334e+00    0.2270505   0.09569731 -36.09 0.0009825005    2.139    0.532
        39 -11.2872    230.5804    198.3380   2.9543563117e+01   1.7133730978e+00    0.2753688    0.1723361 -28.74  0.001152789    1.372    0.271
        40 -11.3097    230.7059    193.1488   2.8657182769e+01   2.3838944366e+00    0.3212217    0.1619043 -28.95  0.001212584    1.699    0.412
        41 -10.8299    224.3427    206.8714   3.1935763856e+01   1.3175308656e+00    0.2477477    0.1243058 -34.92  0.001231379    1.831    0.454
        42 -10.9558     51.6409    207.6669   6.9657826293e+01   2.4037608322e+01    0.2567164     0.187859  56.29 0.0008837731    1.213    0.176
        43 -10.1621     41.4108    206.2530   7.2136104554e+01   2.5484227376e+01     0.172851    0.1101336  77.24 0.0008798733    1.610    0.379
        44 -10.5588     60.7002    203.5592   6.7012045127e+01   2.3866373747e+01    0.2262487    0.1406404  69.01  0.001039042    1.755    0.430
        45 -10.5319     45.1830    201.0953   7.0802534399e+01   2.6215423235e+01    0.2780977    0.1616946  87.74    0.0012411    1.888    0.470
        46 -11.0436    223.3907    200.5934   3.1068123867e+01   2.2568172880e+00    0.2168762    0.1155327 -29.32   0.00123743    1.638    0.390
        47 -10.3733     53.3371    199.3666   6.8547630401e+01   2.5672706337e+01    0.2587992    0.1321752  72.89  0.001136845    2.402    0.584
        48 -14.6115      5.1121    111.2802   7.6403875296e+01   5.2819529931e+01     1.898176    0.8927003 -59.85  0.008393596    1.951    0.488
        49 -11.0219     39.6492    194.8308   7.1785294512e+01   2.8244044258e+01    0.3376018    0.1757904  68.86  0.001340907    2.026    0.506
        50 -10.9872     37.0018    202.9876   7.3037384855e+01   2.6676550993e+01    0.2255862    0.1179744  55.29  0.001029511    1.701    0.412
        51 -10.6633     46.9090    192.4486   6.9665770959e+01   2.7992172826e+01    0.2592221    0.1631456  75.81  0.001034263    1.665    0.399
        52  -9.7393     52.3164    192.6627   6.8235103835e+01   2.7317932708e+01     0.149119   0.08457959  56.98 0.0007048187    1.699    0.412
        53 -10.5480     33.5640    191.2426   7.3152221763e+01   2.9717136508e+01    0.2664909    0.1466729  69.10  0.001181836    1.810    0.448
        54 -11.1110     29.7819    185.7739   7.3806942899e+01   3.1391458859e+01    0.3259569    0.1871295  71.95  0.001162004    1.708    0.415
        55 -10.7096     40.2654    184.6179   7.0835861796e+01   3.0575708181e+01    0.3256634    0.1695938 -86.80  0.001442828    2.071    0.517
        56 -10.3109     35.4197    185.6245   7.2250211427e+01   3.0851846715e+01    0.2387545    0.1237853 -87.79   0.00110594    2.039    0.509
        57 -10.5460    223.7110    183.4436   2.8101615551e+01   4.5703496701e+00    0.2047714    0.1201531 -39.72  0.001043694    1.701    0.412
        58 -13.8391      3.6859    125.4972   7.7974125728e+01   4.9045722766e+01     1.220591    0.9580333  41.00  0.007013812    1.277    0.217
        59 -10.1619     37.4386    180.2013   7.1271180435e+01   3.1945514979e+01    0.1881725    0.1161591  78.25 0.0009299936    1.645    0.392
        60  -9.9346     32.4668    179.9527   7.2652926031e+01   3.2523897289e+01    0.1968412   0.08990332  67.76  0.000807014    2.375    0.579
        61 -10.4511    225.5392    178.9696   2.7020510186e+01   4.9672547230e+00    0.2276421   0.09581816 -32.46 0.0008566966    2.084    0.520
        62 -10.1405    227.4627    175.4920   2.6096897958e+01   5.2107681868e+00     0.211006    0.1233951 -24.01 0.0006952697    1.499    0.333
        63 -10.1046     45.3949    179.2083   6.8934933214e+01   3.1311006673e+01    0.1929311    0.1214166  83.49 0.0009431693    1.677    0.404
        64 -10.4911     28.5306    178.4041   7.3652135630e+01   3.3295446465e+01      0.26368    0.1262485 -81.63  0.001186598    2.102    0.524
        65 -10.2660    218.6669    177.4880   2.7864873532e+01   6.0793111168e+00    0.2026717   0.09617086 -35.15 0.0009061274    1.855    0.461
        66 -10.1134     41.0665    175.0546   6.9801624032e+01   3.2814891037e+01    0.2347278    0.1357489  59.06  0.001071098    1.662    0.398
        67 -10.9395    223.1892    173.2572   2.6369585418e+01   6.0914449230e+00    0.2455291    0.1412953 -37.95 0.0008416474    1.601    0.375
        68 -11.4399     28.1838    171.7296   7.3273620575e+01   3.4979589641e+01    0.5482472    0.2212408  60.15  0.002159747    2.568    0.611
        69 -10.1817     36.4303    172.1563   7.0898333582e+01   3.4035513101e+01    0.2013201    0.1170759  79.74 0.0009393865    1.790    0.441
        70 -10.6604    227.2314    170.7217   2.5271399191e+01   5.9200626400e+00    0.2015445    0.1334603 -37.84 0.0006763534    1.446    0.308
        71 -10.0453    233.3937    169.2442   2.4058814419e+01   5.3229584027e+00    0.1562893   0.09409861 -38.83 0.0005376238    1.564    0.361
        72 -14.2957      7.9710    197.1184   8.0128749869e+01   3.0731037418e+01     1.549007     1.136539  27.48  0.009635749    1.362    0.266
        73 -10.1882    217.9209    167.6587   2.6190906001e+01   7.6325609874e+00    0.1634827    0.1389846  -9.33 0.0005981731    1.075    0.069
        74 -10.2516     32.5177    167.4322   7.1658469835e+01   3.5629569992e+01    0.2396021    0.1192931  83.77  0.001013682    2.188    0.543
        75 -11.0222    228.9046    165.6262   2.4078762815e+01   6.4285323789e+00    0.2316762    0.1611042 -26.44 0.0007280987    1.182    0.154
        76 -10.8386     24.8430    163.8944   7.3685445066e+01   3.7277633858e+01    0.3038383    0.1668679  83.27  0.001056879    1.819    0.450
        77 -10.0030    212.4838    162.4941   2.6114460109e+01   9.1924238143e+00    0.1261419       0.1041 -15.23 1.655929e-05    1.008    0.008
        78 -16.9324    241.6016     76.5675   4.3968717933e+00   1.7335762418e+01     6.273864     2.994783 -39.06   0.03347073    1.603    0.376
        79  -9.5975     44.3262    161.6687   6.7535610781e+01   3.5825801668e+01    0.1585302   0.09242404  58.88 0.0007051073    1.709    0.415
        80  -9.9304     36.6050    160.7819   6.9827370103e+01   3.6905939166e+01    0.1969168    0.1229166  83.60 0.0009331774    1.631    0.387
        81 -10.2925     28.9038    160.4137   7.2171983474e+01   3.7784330062e+01     0.249436     0.165818  80.66 0.0009278816    1.450    0.310
        82 -11.2586    226.0967    156.0678   2.2715206391e+01   8.2102348769e+00    0.3037939    0.1488691 -35.34 0.0007094193    1.726    0.420
        83 -11.0539    228.3364    150.1722   2.1244538063e+01   8.7640763415e+00    0.4798624    0.1728295 -29.56  0.001971811    2.886    0.653
        84 -10.3637    191.3449    160.3023   2.9410045759e+01   1.2766077633e+01    0.1365509   0.09429321  -2.09 0.0007039241    1.684    0.406
        85 -10.8725     24.3960    158.1962   7.3388854343e+01   3.8784917419e+01    0.3858338    0.1532988 -74.15  0.001560102    2.367    0.578
        86 -10.0479    221.6541    155.8703   2.3365199007e+01   8.8739592787e+00    0.1724265   0.09803038 -41.39  0.000656801    1.663    0.399
        87  -9.5730     30.6888    156.3180   7.1262088555e+01   3.8671777054e+01    0.1540302   0.08967551  58.45 0.0005008533    1.642    0.391
        88  -9.7278     36.3750    155.7174   6.9408940300e+01   3.8245801254e+01    0.1585982   0.08909249  54.75 0.0007013541    1.710    0.415
        89 -10.5608    198.9190    225.4026   3.9154369189e+01   1.8145232555e+00    0.2336542    0.1239776 -19.47  0.001314734    1.993    0.498
        90 -10.1136    220.2679    151.6056   2.2756537601e+01   9.7227467911e+00    0.1606058    0.1101237  22.97  0.000940486    1.619    0.382
        91 -10.4412     25.9620    150.8963   7.2293004679e+01   4.0548963029e+01    0.2436452    0.1345068  56.20 0.0009499402    1.725    0.420
        92 -11.3669    222.5111    146.3684   2.1381284238e+01   1.0187473288e+01     0.327482     0.211092 -18.30  0.001854306    1.549    0.355
        93 -10.3858     32.9526    145.9439   6.9530242072e+01   4.1183811308e+01    0.2418629    0.1457881  62.57 0.0008092141    1.658    0.397
        94 -10.0659     23.5164    144.4982   7.2537320385e+01   4.2470049250e+01    0.2022326    0.1229457  82.02   4.8365e-05    1.610    0.379
        95 -10.3568     20.8205    141.5990   7.3190957003e+01   4.3480648969e+01    0.2467086    0.1655082  58.69 0.0005521542    1.396    0.284
        96 -10.1428    224.0118    139.2792   1.9742937660e+01   1.1040295614e+01    0.1712015    0.1428141 -22.33 0.0006063044    1.021    0.021
        97 -10.2786     25.8417    134.8777   7.0824686440e+01   4.4851150066e+01    0.2108877     0.151161  69.00  0.001068048    1.339    0.253
        98 -10.4144    179.2137    132.2321   2.5854258341e+01   1.9815279869e+01    0.2264626    0.1004061 -48.84 0.0008753645    2.448    0.591
        99 -10.8075     59.0296    246.2508   7.0649493644e+01   1.5566822008e+01    0.1880361    0.1604604  63.23 0.0009771362    1.225    0.183
       100 -10.7737    205.8494    224.1579   3.7746124575e+01   1.1793108499e+00    0.2519565    0.1298417 -23.07  0.001395161    1.926    0.481
       101 -11.1113    216.3097    222.6955   3.5736555906e+01   1.9006766628e-01    0.2490543     0.181432 -30.97  0.001112049    1.475    0.322
       102 -12.0836     16.1184    121.4167   7.3031841841e+01   4.9333854780e+01     0.362008    0.1849067  88.73  0.001537289    1.947    0.486
       103 -10.1237     25.0405    122.0123   6.9708696415e+01   4.8440676885e+01     0.241079    0.1493597  62.95 0.0007592952    1.657    0.397
       104 -14.9206    247.8869     50.6816   3.5835317695e+02   1.9613680326e+01     1.400612    0.5003344 -33.32  0.006692432    2.216    0.549
       105 -10.0598    194.5249    121.5072   2.0669394402e+01   1.8886856916e+01    0.1368803    0.1216738 -32.48 0.0001238902    1.015    0.014
       106 -10.4202     20.3564    121.2382   7.1403355339e+01   4.9051977224e+01      0.20823    0.1534262  64.32 0.0004813064    1.318    0.241
       107 -10.6137     19.3202    117.6675   7.1415097819e+01   5.0116367792e+01    0.2398775    0.1416929  58.62 0.0007426729    1.727    0.421
       108 -10.4424     16.4734    115.5258   7.2298753246e+01   5.0923518561e+01    0.2094744    0.1247953  84.03  0.000706968    1.665    0.399
       109  -9.9338     32.4753    115.4827   6.5977323294e+01   4.9535571633e+01    0.1510637    0.1317268  71.79   0.00020803    1.107    0.097
       110 -10.3698     24.8692    114.7411   6.8887137524e+01   5.0458754333e+01    0.2846348    0.1585069  70.99 0.0009217583    2.009    0.502
       111 -11.4809    195.2276    113.7996   1.8799933125e+01   2.0076171693e+01    0.2533784    0.1516522 -40.35 0.0008068777    1.485    0.327
       112 -11.6600    201.0858    109.9776   1.6976387078e+01   1.9617268012e+01    0.2851032    0.1708163 -37.13 0.0009047887    1.463    0.317
       113 -10.8866     20.1642    110.4300   7.0241354494e+01   5.2042331550e+01    0.2947035    0.1671841  80.70 0.0009684509    1.879    0.468
       114 -11.2145     16.2010    106.6196   7.1418588024e+01   5.3392934764e+01    0.3110313    0.1928137  61.66 0.0009876911    1.677    0.404
       115 -10.1434     16.2611    111.6440   7.1965201384e+01   5.2006379964e+01    0.1505914   0.09489428  65.30 0.0006325778    1.621    0.383
       116 -10.8357    196.5118    107.9709   1.7241915237e+01   2.0820110340e+01    0.2140751    0.1214211 -38.15 0.0007235021    1.557    0.358
       117 -12.6386    188.5387     77.1646   1.0938291235e+01   2.7543529658e+01     1.254324    0.3607534 -31.84  0.003867168    3.912    0.744
       118 -10.5650     28.0641    245.2852   7.7321964085e+01   1.8962345255e+01    0.2043003    0.1159786  62.94 0.0009805999    1.583    0.368
       119 -14.6377    167.9885     81.0901   1.5321988985e+01   3.1449046978e+01     1.739049    0.5605327 -38.77  0.005913546    2.828    0.646
       120 -10.8051    150.4712    103.0031   2.4743162022e+01   3.1280502270e+01       0.2398    0.1442233 -43.04   0.00103365    1.600    0.375
       121 -12.4653    161.0108    101.0792   2.1992919053e+01   2.9352382701e+01    0.3628578    0.2047312 -47.52  0.001029607    1.730    0.422
       122 -10.4229    195.3528     97.2028   1.4879349670e+01   2.2850046466e+01    0.2560642    0.1552724 -43.64   0.00124566    1.470    0.320
       123 -11.3456    177.3285    243.6042   4.5663756319e+01   1.8881184762e+00    0.3669147    0.1918432   6.36  0.001968883    2.212    0.548
       124 -10.7804    141.0032     91.5260   2.3767628477e+01   3.5699213069e+01    0.2559893    0.1965128 -44.40  0.000878172    1.268    0.211
       125 -13.0740      2.1581     98.6637   7.6573163469e+01   5.6401019353e+01     1.476482    0.3223498 -83.69  0.004176759    4.614    0.783
       126 -11.1577    158.4860     90.9364   1.9812287053e+01   3.1827122617e+01    0.2325761     0.141509 -39.61 0.0007079599    1.571    0.363
       127 -13.4914     16.0006    207.7450   7.8545807877e+01   2.7671970302e+01    0.7628148    0.6476498 -13.01  0.005005168    1.600    0.375
       128 -14.0830    175.9913     80.2365   1.3710289290e+01   2.9793031079e+01      1.32953    0.8085934 -69.77  0.005640241    2.298    0.565
       129 -10.2280    151.3586     88.1783   2.0525373780e+01   3.3970002415e+01    0.2196406    0.1319158 -48.80 0.0009070793    1.642    0.391
       130 -16.7109    245.0608     23.5365   3.5280771068e+02   2.3312394852e+01      3.09236     1.776628 -47.68   0.01954587    1.278    0.217
       131 -14.1329     27.0478    209.3240   7.5906425147e+01   2.6289951103e+01     2.032722    0.9981729 -74.52    0.0104305    2.155    0.536
       132 -10.6470    206.3819     85.2135   1.0411107541e+01   2.2584872492e+01    0.2611728    0.1621111 -53.53 0.0007682874    1.597    0.374
       133 -10.3544    200.7944     83.7214   1.0817597251e+01   2.3936517351e+01    0.1884654    0.1418331 -61.91 0.0006940123    1.374    0.272
       134 -10.1845    193.1894     83.2122   1.1781970283e+01   2.5584011819e+01    0.2016561    0.1446905 -56.24  0.001027433    1.375    0.273
       135 -12.3138    159.2255     81.9308   1.7184224459e+01   3.3309773550e+01    0.3634366    0.2351231 -43.63  0.001051439    1.455    0.313
       136 -11.1016    219.1539    217.5358   3.4472037467e+01   5.2928810612e-01    0.3075314    0.1419049 -28.57  0.001317153    1.997    0.499
       137 -10.6651    142.6295     81.1802   2.0411279209e+01   3.7335957096e+01    0.2197061    0.1439283 -29.82  0.000947608    1.720    0.419
       138 -11.6322     44.4577    223.6997   7.2530277998e+01   2.1469370127e+01    0.3092887    0.2429892  76.80  0.001154745    1.298    0.229
       139 -10.6320    211.7719     76.8419   7.7316950928e+00   2.2793393359e+01    0.2358163    0.1483366 -41.38  0.000734599    1.330    0.248
       140 -11.0056    157.5679     75.7001   1.5738402424e+01   3.4804520447e+01    0.2799531    0.1439397 -32.83 0.0008944474    2.044    0.511
       141 -11.4279    184.5458    250.1149   4.5182490368e+01   2.3632765683e-01    0.3286454    0.1502535  19.65  0.001626981    1.941    0.485
       142 -10.5587    201.2797     78.0981   9.3794508315e+00   2.4713866900e+01    0.3378091    0.1618799 -48.01 0.0009917662    1.936    0.483
       143 -10.8537    187.6765    245.1678   4.3963673916e+01   5.1610014702e-01    0.2592703    0.1509734   7.98   0.00124849    1.574    0.365
       144 -10.7416    150.8299     78.9382   1.8004244614e+01   3.5814310404e+01    0.2272395     0.206838 -10.12 0.0007994297    1.274    0.215
       145 -11.3391    163.7092     71.5781   1.3436229215e+01   3.4068885741e+01    0.3402089    0.2011793 -25.83  0.001378787    2.006    0.502
       146 -10.0927    139.5134     73.5124   1.8799411101e+01   3.9516995174e+01    0.1520212     0.145491 -74.12 0.0003531594    1.017    0.016
       147 -11.1433    168.1076    249.8109   4.8199485397e+01   2.1195956604e+00    0.2898979    0.1537859  13.43  0.001473874    1.810    0.448
       148 -10.2756    150.3680     71.7524   1.5987000379e+01   3.7213477520e+01    0.2082161    0.1414726 -28.80 0.0007584692    1.627    0.386
       149  -9.9236    157.3055     69.3238   1.3941373096e+01   3.5968879986e+01    0.1444907    0.1180872  15.61 0.0005059138    1.643    0.391
       150 -11.1897    203.4236     66.7353   6.3096572972e+00   2.5981625424e+01    0.3499934    0.1807861 -49.79  0.000993424    1.775    0.437
       151 -10.8589    192.0573     55.0673   4.7296861794e+00   3.0123027440e+01    0.3687018    0.1433429 -52.91  0.001388345    2.787    0.641
       152 -10.5711    193.4668     48.5322   2.8558830327e+00   3.0723633492e+01    0.7560332    0.2204139 -53.61  0.002207993    4.848    0.794
       153 -10.7440    201.0191     53.0450   3.1700193683e+00   2.8446091761e+01    0.3775381    0.2337385 -81.92  0.001890768    1.898    0.473
       154 -10.2147    203.3525     50.0246   2.1584258942e+00   2.8358570607e+01    0.2136011    0.1749424 -68.64 0.0007097657    1.133    0.118
       155 -10.1323    202.1831     58.0938   4.3079342909e+00   2.7489821905e+01    0.2426526    0.1679936 -37.58 0.0005323016    1.284    0.221
       156 -11.3939    197.9551     47.9284   2.2032447636e+00   2.9812947059e+01    0.6288759     0.209668 -42.69  0.002522029    2.420    0.587
       157 -10.5401    200.9655     61.8981   5.4032023029e+00   2.7204088545e+01    0.2584712    0.1746278 -58.89 0.0007892137    1.420    0.296
       158 -10.4909    197.3838     64.2515   6.4350084919e+00   2.7624930784e+01    0.2365797     0.132768 -50.19 0.0006983933    1.627    0.386
       159 -10.6082    208.5072     64.5111   5.1639324871e+00   2.5253403703e+01    0.2605501    0.1079139 -37.45  0.001001988    1.996    0.499
       160 -11.8073    206.2280     59.1153   4.1034096356e+00   2.6492638811e+01    0.6396336    0.2118549 -37.97  0.002580631    2.408    0.585
       161 -11.0791    197.0197     59.7531   5.3363978392e+00   2.8360721010e+01    0.3654044    0.2686553 -62.32  0.002047095    1.298    0.229
       162 -10.3165    197.7387     55.6433   4.2021240196e+00   2.8792382983e+01    0.2434092    0.1461764 -32.19 0.0006389883    1.580    0.367
       163 -11.5056     54.9610    225.3802   7.0165030654e+01   1.9971740828e+01    0.3060016    0.2378818  79.64   0.00119034    1.372    0.271
       164 -10.8827    145.9866     65.5241   1.4975663722e+01   3.9362071775e+01    0.2808831    0.2141435 -20.36 0.0009197354    1.581    0.368
       165 -11.7124    182.6292     63.0518   8.0847439685e+00   3.1061657974e+01    0.4320356    0.1899996 -55.73  0.001624006    2.729    0.634
       166  -9.8742    186.9963     62.7375   7.3974350018e+00   3.0126248449e+01    0.2008282    0.1867494 -16.36 0.0005518913    1.255    0.203
       167 -10.0611    192.2284     61.7336   6.4442742489e+00   2.9116409725e+01    0.3352439    0.1112419 -46.48   0.00122394    2.766    0.638
       168 -10.2355    157.9827     60.9734   1.1354744562e+01   3.7188294709e+01    0.2227398    0.1823422  12.22  0.001120117    1.662    0.398
       169 -10.1237     63.9715    222.6725   6.7826439631e+01   1.9472410609e+01     0.183995    0.1361969  39.72  0.000591144    1.089    0.082
       170 -11.4601     20.0564    103.5072   6.9401934875e+01   5.3958167863e+01    0.2840632    0.1829212  79.06 0.0009273007    1.619    0.382
       171 -12.8791     35.5899    219.6012   7.4391509331e+01   2.3245790576e+01     1.050231    0.3948699 -66.41  0.004859883    2.890    0.654
       172  99.0000    209.4741     49.4571   1.3909140159e+00   2.7139301738e+01    0.3361298    0.2268112 -83.14  0.001882521    1.607    0.378
       173 -10.0775    185.3844     53.1472   5.0492294706e+00   3.1900672482e+01    0.2025737    0.1074423 -44.92 0.0006519922    1.656    0.396
       174 -12.9500    165.0570     95.2993   1.9675918558e+01   2.9553076147e+01    0.4140383    0.2523762 -52.90  0.001576171    1.711    0.416
       175 -10.3633    178.7982     50.9554   5.3021551172e+00   3.3736569904e+01    0.2443349    0.1279832 -54.76 0.0009209763    1.917    0.478
       176 -10.6451    145.3416     48.6839   9.7725252662e+00   4.2252138625e+01    0.1591633    0.1053177 -69.23  0.000704835    1.709    0.415
       177 -11.1133    199.6267     42.1176   5.4195276633e-01   3.0218379122e+01    0.4852453    0.2370601 -43.07  0.002346548    1.697    0.411
       178 -10.7929    132.5959     43.8218   1.0541202794e+01   4.6238806483e+01    0.2110007     0.128638 -46.54 0.0006307718    1.626    0.385
       179 -11.9820      2.1964     40.6467   6.8072333851e+01   7.1535119740e+01    0.4416117    0.1713184 -68.41  0.001839639    2.253    0.556
       180  -9.6721    183.3212     43.6580   2.7235981692e+00   3.3698757920e+01    0.1512079   0.08833279 -61.10 0.0007050225    1.723    0.420
       181 -11.3191    140.6592     41.1817   8.1323658956e+00   4.4551735766e+01    0.2091821    0.1750851 -83.68 0.0006623134    1.150    0.131
       182 -10.0425    211.7445     39.9800   3.5886938520e+02   2.7895265462e+01    0.1637898   0.09542375 -35.30 0.0005728313    1.501    0.334
       183 -13.2288    115.0581     35.1099   1.1030755215e+01   5.2045156902e+01    0.5830905     0.347718  36.72  0.002454673    2.146    0.534
       184 -10.6162    144.4329     36.2176   5.8352585934e+00   4.4273089331e+01    0.2038784    0.1224024 -46.19 0.0006380011    1.602    0.376
       185 -11.6172    133.8605     36.1869   7.6330903868e+00   4.7007744414e+01    0.2308054    0.1877934 -74.96 0.0006655568    1.209    0.173
       186 -11.4377    122.9604     36.4668   9.8449086512e+00   4.9801443256e+01    0.2275036    0.1392483  66.85  0.000675228    1.567    0.362
       187 -10.1635    198.4187     33.7338   3.5851037667e+02   3.1550388990e+01    0.2923661    0.2036372  -9.03  0.001539895    2.029    0.507
       188 -10.7478    128.3078     35.6571   8.4816095687e+00   4.8523693476e+01    0.1577683    0.1041317 -66.14 0.0004419033    1.692    0.409
       189 -12.0129      3.2285     33.3121   6.5292336192e+01   7.3236341881e+01    0.3261802    0.2156732  82.05  0.001711287    1.952    0.488
       190 -11.5940      2.1064     28.8812   6.4829535850e+01   7.4320346661e+01     0.265851    0.1610505 -64.47 0.0008248262    1.525    0.344
       191 -11.1605    211.7323    226.1995   3.7037075365e+01   2.5378487582e-01    0.3983313    0.1348113 -28.80  0.001790995    3.358    0.702
       192 -11.6392    202.7501    239.9840   4.0574908974e+01  -4.8740125349e-01    0.3704728    0.2061492  -3.94  0.002244354    1.858    0.462
       193 -11.3992    207.0287    233.7407   3.8948389825e+01  -1.7734151690e-01    0.3986866    0.1826662 -17.95    0.0020367    2.696    0.629
       194  -9.8632    170.5098    239.5323   4.6418805037e+01   3.2367792529e+00    0.1178689   0.08913068  10.12 0.0005228368    1.036    0.035
       195 -11.1316    173.6872     27.3982   3.5923488459e+02   3.8069952086e+01    0.5395985    0.1464662 -47.78  0.001835693    3.365    0.703
       196 -10.7782    183.8748    236.9400   4.3545759501e+01   2.0214331012e+00     0.274375     0.155248  -3.33   0.00141189    2.002    0.500
       197 -12.3819    130.8008     27.4491   5.0537209052e+00   4.8951709162e+01     0.288925    0.2030086 -62.97 0.0007919389    1.460    0.315
       198 -10.5947     74.1596    243.7079   6.7144835694e+01   1.4309827162e+01    0.1879084     0.150865  66.80 0.0009504481    1.351    0.260
       199 -10.2933     37.0107    237.4832   7.5011863531e+01   1.9536369506e+01    0.1859262   0.09175423  32.61 0.0007838208    1.569    0.362
       200 -12.3960      2.5903     23.1315   6.2380685570e+01   7.5596966866e+01    0.3888983    0.2726457  72.19  0.002071335    2.004    0.501
       201 -10.8601     61.7084    235.7635   6.9343269230e+01   1.7193717580e+01    0.2426188     0.162798  37.48 0.0009790033    1.158    0.137
       202 -11.6932    120.3004     20.9944   4.4675881021e+00   5.2485983027e+01    0.1980954    0.1831163 -53.36 0.0005971146    1.125    0.111
       203 -12.8114    126.6823     18.9587   2.6057621600e+00   5.1036176610e+01    0.3718044    0.2279581 -62.67  0.001730923    1.752    0.429
       204 -11.6565      4.4895     17.0666   5.8002126772e+01   7.6797604105e+01    0.1847893     0.161521 -78.82 0.0009498027    1.396    0.284
       205 -11.6740    125.6971     30.9488   7.2545407257e+00   4.9839417085e+01    0.2059378    0.1841645 -56.84 0.0006467151    1.114    0.102
       206 -10.6932     27.0018    234.5082   7.7105837234e+01   2.1108466126e+01    0.1982796    0.1539429  58.79 0.0008533287    1.120    0.107
       207 -11.1724     23.9986    230.9986   7.7631372483e+01   2.2086490903e+01    0.4365242    0.1317872  56.11  0.001881716    2.870    0.652
       208 -10.4943     48.9464    233.2476   7.2081590669e+01   1.9092737067e+01    0.2178638    0.1304596  66.56  0.001247427    1.702    0.413
       209 -11.3123    191.4351    231.5722   4.1402549969e+01   1.8614944628e+00    0.4475079    0.2279689   2.34  0.002236818    2.596    0.615
       210 -10.2536     40.4457    232.2086   7.3960109681e+01   2.0200457776e+01    0.1629923   0.09775468  71.62 0.0009404086    1.707    0.414
       211 -10.6030    202.2163    230.4706   3.9313756035e+01   7.7226834298e-01    0.2475655    0.1430774  -4.40  0.001488823    1.765    0.433
