#   1 NUMBER                 Running object number                                     
#   2 MAG_AUTO               Kron-like elliptical aperture magnitude                    [mag]
#   3 X_IMAGE                Object position along x                                    [pixel]
#   4 Y_IMAGE                Object position along y                                    [pixel]
#   5 X_WORLD                Barycenter position along world x axis                     [deg]
#   6 Y_WORLD                Barycenter position along world y axis                     [deg]
#   7 A_WORLD                Profile RMS along major axis (world units)                 [deg]
#   8 B_WORLD                Profile RMS along minor axis (world units)                 [deg]
#   9 THETA_WORLD            Position angle (CCW/world-x)                               [deg]
#  10 FWHM_WORLD             FWHM assuming a gaussian core                              [deg]
#  11 ELONGATION             A_IMAGE/B_IMAGE                                           
#  12 ELLIPTICITY            1 - B_IMAGE/A_IMAGE                                       
         1 -11.6366     70.0716     21.4394   2.1777881626e+01   6.5199482253e+01    0.2427676    0.1974162 -41.25  0.001343251    1.307    0.235
         2 -11.1147     91.7683      9.8246   9.8062260375e+00   6.1158408439e+01    0.4025713    0.2177965  25.25  0.001314574    2.907    0.656
         3 -10.3833     49.4758      8.4336   2.2317935188e+01   7.1526957486e+01    0.1311942    0.1187301  40.53 0.0002293344    1.009    0.009
         4 -10.6152     45.0121      7.6703   2.3910167309e+01   7.2574123771e+01    0.1814659    0.1532631  46.78 0.0003724115    1.097    0.089
         5 -11.5094    145.5221      1.5558   3.5897194676e+02   4.7820182382e+01    0.2401765    0.1702967 -78.30 0.0008947644    1.224    0.183
         6 -10.6852      7.3904      1.9785   4.7613804984e+01   7.9805723970e+01    0.1593748    0.1336215 -25.40  0.001072637    1.112    0.100
         7 -11.4335    181.0351    244.4746   4.9372328754e+01   1.4904642930e+00    0.2445393    0.1510976  24.00  0.001638092    1.307    0.235
         8 -11.6755    139.4698    248.4013   5.7675800608e+01   5.9390831986e+00    0.2766816     0.169821 -35.51  0.001726871    1.971    0.493
         9 -13.3152     65.0988    246.5724   7.3026459878e+01   1.5371104743e+01    0.6333442    0.3045211  34.95  0.003503702    1.544    0.352
        10 -15.3742     21.5272    214.3380   8.1089049111e+01   2.6505420335e+01     2.823268    0.6140832  53.06   0.01030744    3.544    0.718
        11 -14.2428     21.1141    247.8095   8.2516492661e+01   1.9909712938e+01     1.003242    0.4477083  28.74  0.003443128    1.864    0.463
        12 -14.2290      3.4781    201.2764   8.4983245834e+01   3.1037132347e+01     0.597425    0.4755672 -71.97  0.002202498    1.474    0.321
        13 -14.5663     13.6358    207.1197   8.2691978790e+01   2.8831585279e+01     1.267679    0.7280203  -0.12  0.005831226    2.943    0.660
        14 -13.4790     15.3990    195.4561   8.1748394227e+01   3.1278963870e+01    0.5430325      0.51434 -82.90  0.001864685    1.300    0.231
        15 -13.8452     11.3406    216.7607   8.3601787831e+01   2.6975300085e+01    0.9619077    0.3264012  47.07  0.004604978    2.040    0.510
        16 -14.7145      3.3782    223.8200   8.5646418104e+01   2.6235189195e+01    0.9043634    0.4769475 -89.62  0.004151841    1.890    0.471
        17 -13.6963     19.8657    233.3849   8.2261643982e+01   2.2772581595e+01    0.3459322    0.2736263  31.74 0.0007745411    1.281    0.219
        18 -15.4287     15.4287    227.4839   8.3038667693e+01   2.4378428872e+01     1.357378    0.4845788  34.93  0.006723238    1.993    0.498
        19 -14.8659      3.9478    248.8866   8.6121432470e+01   2.1333808775e+01     0.781056     0.399863  18.25   0.00443402    2.256    0.557
        20 -13.8943      2.0338    243.3814   8.6398625224e+01   2.2525828821e+01    0.3373051    0.2300606  74.16  0.001692716    1.354    0.262
        21 -14.1605      8.4959    241.4028   8.4989491233e+01   2.2312191076e+01    0.4982115      0.17342  44.50  0.002640534    1.844    0.458
        22 -15.5558      7.7215    236.1402   8.5013936296e+01   2.3391995406e+01     2.305026          nan  32.26   0.00765034    4.824    0.793
        23 -10.9500     98.8927    246.6966   6.5802433646e+01   1.1257320798e+01    0.2418672   0.09383371  25.39  0.001075502    2.496    0.599
        24 -10.8055    131.0017    243.7189   5.8842742379e+01   7.6937977790e+00    0.1513543   0.08435521  30.58 0.0008717254    1.420    0.296
        25 -10.9701    124.9427    249.5527   6.0698892601e+01   7.5635341401e+00    0.1927899     0.146529 -24.66 0.0007632707    1.600    0.375
        26 -10.6432    167.3397    240.5748   5.1374331248e+01   3.6311865663e+00    0.1503885    0.1202947  44.44 0.0001846484    1.561    0.359
        27 -10.4465    126.4883    241.5129   5.9518154169e+01   8.6083962538e+00    0.1200492    0.0950063  28.33 0.0001420285    1.011    0.011
        28 -10.6399    117.3461    241.3109   6.1390304316e+01   9.8085575590e+00    0.1191871   0.08384326   1.84 0.0007045582    1.707    0.414
        29 -12.1881     70.8969    239.0402   7.1211954149e+01   1.6034933170e+01    0.5519758    0.1891663 -62.20   0.00254069    3.372    0.703
        30 -11.3539     73.5132    233.5055   7.0189673544e+01   1.6734561564e+01    0.2320562    0.1684909  43.78 0.0008285511    1.093    0.085
        31 -12.3462     72.9394    230.0038   7.0030334734e+01   1.7463914103e+01    0.3040071     0.259595  14.02 0.0005191048    1.335    0.251
        32 -15.6287     25.8992    190.7286   7.8747083242e+01   3.1337652176e+01     2.145492     1.006955  73.23   0.00981867    2.158    0.537
        33 -10.7034    149.5910    239.2041   5.4603633491e+01   6.0238198371e+00    0.1481007    0.1023234 -27.95 0.0008244085    1.648    0.393
        34 -11.7287    102.6393    237.8957   6.4161840852e+01   1.2262852058e+01     0.293999    0.2033215 -49.89  0.001523143    1.790    0.441
        35 -11.9973     48.1306    236.3218   7.6094521740e+01   1.9207940301e+01    0.4086609    0.1845958  66.25  0.001432234    2.472    0.595
        36 -10.4721     53.1743    237.6209   7.5048867605e+01   1.8388403821e+01     0.151612    0.1374343  18.87 0.0006915662    1.328    0.247
        37 -10.7844    217.3377    237.8461   4.2324399819e+01  -1.7230524991e+00    0.1417887    0.1035799  -7.64 0.0006708929    1.115    0.103
        38 -10.7578     79.8633    237.0866   6.9070203914e+01   1.5290115569e+01    0.2372153     0.145975  20.84  0.001330897    1.653    0.395
        39 -10.9084    211.0070    235.7119   4.3051920419e+01  -7.9309384086e-01    0.1509765    0.1124666   7.82 0.0006710363    1.050    0.048
        40 -10.5484    138.1550    236.1808   5.6519718587e+01   7.9413382800e+00    0.1550283    0.1184153  41.36            0    1.296    0.228
        41 -11.1390     58.5344    234.3712   7.3630713572e+01   1.8380003068e+01    0.2052921   0.09563342  31.23 0.0006170071    1.736    0.424
        42 -11.6252    222.8387    232.4859   4.0697782359e+01  -1.6814737395e+00    0.1922913    0.1355446 -12.50 0.0005070739    1.171    0.146
        43 -10.3907    214.4613    233.4748   4.2175129355e+01  -9.0127479172e-01    0.1070883   0.08022268   1.89 0.0001102092    1.003    0.003
        44 -11.5490    182.8303    232.3890   4.7439931363e+01   2.8682120607e+00    0.3099775    0.1695971  43.61  0.001758931    2.229    0.551
        45 -10.7051    143.0191    231.7078   5.4984927353e+01   8.0039381866e+00    0.1649098    0.1276116  25.85  0.000334871    1.056    0.053
        46 -11.0442     61.7035    231.3658   7.2697319755e+01   1.8577256621e+01    0.1339902   0.07244004  56.04 0.0007031161    1.721    0.419
        47 -12.3135    194.7783    228.9738   4.4844312154e+01   1.8931584088e+00    0.2123369    0.1865423  14.26 0.0003355174    1.290    0.225
        48 -11.3791    230.7864    228.7751   3.8933373011e+01  -2.0850227886e+00    0.1348828     0.128883  73.50  0.001069761    2.231    0.552
        49 -10.4975     85.6514    228.7021   6.7026846790e+01   1.6095995618e+01     0.120228   0.09224644  -0.98 0.0003328173    1.682    0.406
        50 -11.8864     49.3781    226.6349   7.5200416061e+01   2.0952207577e+01    0.2274605    0.1935833  38.85 0.0009765503    1.155    0.134
        51 -10.1998    138.2976    226.7002   5.5321086633e+01   9.4265168075e+00    0.1161356   0.08610908  52.12 0.0002849382    1.576    0.366
        52 -10.8478    129.2946    226.3400   5.7162589223e+01   1.0699264195e+01    0.1215575   0.08803588  -4.20 0.0002997925    1.655    0.396
        53 -11.6112     80.8545    225.6452   6.7836475192e+01   1.7290601629e+01    0.2616669    0.1998959   2.07  0.001453823    1.675    0.403
        54 -11.2629    116.2417    225.2414   5.9840111151e+01   1.2656755711e+01    0.1748036    0.1284471  49.88  0.001061295    1.372    0.271
        55 -11.0143    114.5180    221.5199   5.9782136220e+01   1.3551112963e+01    0.1583655    0.1251684 -81.42 9.816566e-05    1.666    0.400
        56 -12.1286     92.9522    223.6763   6.4873758653e+01   1.6078823868e+01      0.36206    0.2626655 -11.49  0.002035349    1.954    0.488
        57 -11.8131    160.0308    222.7492   5.0406230067e+01   7.1441831861e+00    0.3213854    0.2263868  37.30  0.002033847    1.362    0.266
        58 -11.2016     73.0505    222.9776   6.9403477089e+01   1.8804894075e+01    0.1512144    0.1271699  49.54 0.0004418273    1.065    0.061
        59 -12.6955     57.8501    220.6810   7.2791251439e+01   2.1148610893e+01    0.2903751    0.2557784 -65.84  0.001943855    1.388    0.280
        60 -11.9304    189.5105    221.0109   4.4627034185e+01   3.6017713171e+00    0.2294061    0.1535812  -6.93  0.001463139    1.497    0.332
        61 -11.9329     49.6429    221.3856   7.4785660117e+01   2.1979152420e+01    0.2419522    0.1502078 -67.26  0.001380751    1.863    0.463
        62 -12.6078     43.8406    220.6544   7.6110959510e+01   2.2795562091e+01    0.3748731    0.2186661  53.19  0.002033373    1.417    0.294
        63 -11.2422    212.9882    220.6900   4.0562120585e+01   8.3390022211e-01    0.2018866    0.1479141 -30.58  0.001461827    1.408    0.290
        64 -11.9512     76.8043    219.4319   6.8202632339e+01   1.9021855396e+01    0.2721049    0.1627031  56.77 0.0006810676    1.652    0.395
        65 -10.8990    223.4847    219.5377   3.8705850499e+01  -2.0845992477e-01    0.1081831   0.08213118  -2.17 0.0007149586    1.002    0.002
        66 -12.4712     63.1857    217.0149   7.1226978225e+01   2.1240966365e+01     0.321962    0.2826737  35.16  0.001712507    1.159    0.137
        67 -11.3431    197.0000    218.0319   4.2866215277e+01   3.0838681744e+00    0.1376474    0.1096181 -11.96 0.0004613594    1.130    0.115
        68 -12.2323    145.9995    216.3757   5.2357492820e+01   1.0065571821e+01    0.3823136     0.285594  34.09  0.002262077    1.192    0.161
        69 -12.4410    142.0349    212.0358   5.2584185905e+01   1.1353068840e+01    0.3479606    0.2071614 -61.97  0.001790106    2.388    0.581
        70 -12.0853    129.1705    217.4962   5.6073517405e+01   1.2226856903e+01    0.2381357    0.1522308 -10.65  0.001061749    2.328    0.570
        71 -12.7660    121.3362    216.4013   5.7647141845e+01   1.3520534479e+01    0.3670717    0.2610127  88.27 0.0007900923    2.189    0.543
        72 -12.2258     40.6908    212.4170   7.6339067125e+01   2.4878311999e+01    0.3083072    0.2667536 -54.10  0.001680166    1.486    0.327
        73 -12.8315     46.6012    211.3073   7.4814289053e+01   2.4438232241e+01    0.4294991    0.2609958  49.89  0.001809639    1.341    0.254
        74 -12.8096     48.0168    216.4790   7.4834320967e+01   2.3180789865e+01    0.5001218    0.2027373  27.56  0.002238331    2.242    0.554
        75 -11.5463     44.4713    215.4805   7.5621888051e+01   2.3799504515e+01    0.2353153    0.1399559  32.59  0.001133433    1.440    0.305
        76 -11.5284     77.3425    214.2648   6.7583098163e+01   1.9986143614e+01    0.3426107    0.1393418  27.70  0.001450275    2.327    0.570
        77 -11.9241     87.1017    215.2243   6.5357372673e+01   1.8491439049e+01    0.2519933    0.2279401 -53.26 0.0009225539    1.329    0.248
        78 -11.6962     83.6696    214.3278   6.6078380007e+01   1.9131742667e+01    0.3471132    0.2215763  39.74  0.001793064    1.283    0.221
        79 -11.7415    107.9627    214.7988   6.0457152519e+01   1.5695629085e+01    0.1999296    0.1939605 -81.19 0.0008105687    1.212    0.175
        80 -11.5198    155.4914    212.9992   4.9936382622e+01   9.2973474412e+00    0.2416453    0.1937081  29.54  0.001568909    1.127    0.113
        81 -10.7155     94.8436    217.4704   6.3784056806e+01   1.7002820684e+01    0.1882053    0.1083939  33.35 0.0003166326    1.447    0.309
        82 -11.8968     73.0054    212.0062   6.8411565608e+01   2.1017067913e+01     0.289742    0.2806694  69.79  0.001457838    1.194    0.163
        83 -12.6681    229.4666    208.5543   3.6098837761e+01   4.7492301095e-01    0.3353443    0.1787047 -13.29  0.001697981    2.047    0.511
        84 -12.2369    174.1477    218.7986   4.7126419965e+01   5.8777365574e+00    0.4006046    0.2239349 -27.40  0.002227501    2.005    0.501
        85 -11.2534     96.7793    209.4693   6.2432011517e+01   1.8297519177e+01     0.336873     0.181756 -71.38  0.001605686    2.427    0.588
        86 -12.1772     52.4366    209.6494   7.3251471915e+01   2.4101663160e+01    0.3355038    0.1931177  46.22 0.0002040936    1.405    0.288
        87 -13.0386     53.9434    205.1646   7.2516815517e+01   2.4887843552e+01     0.632076    0.2602856  43.23  0.002861956    1.917    0.478
        88 -11.5872     59.5240    207.4757   7.1314411644e+01   2.3697405989e+01    0.2627784    0.1659652 -53.52  0.001169846    1.935    0.483
        89 -11.8606    169.8977    209.2864   4.6532926806e+01   7.8922281527e+00    0.2806064    0.2209884  87.41 0.0009391701    2.454    0.592
        90 -11.5511     89.8420    209.1960   6.4055707914e+01   1.9320946185e+01    0.3077675    0.2138127  68.96   0.00168302    1.658    0.397
        91 -11.2408    180.3459    207.7998   4.4317866431e+01   6.6957103733e+00    0.1934036    0.1494828  33.12  0.001157835    1.297    0.229
        92 -11.9579    160.5296    207.0132   4.8038701656e+01   9.5636025480e+00    0.2301421    0.1572648  44.05 0.0006292238    1.561    0.359
        93 -11.4793    116.1257    204.3407   5.7258735851e+01   1.6512481330e+01    0.2317305    0.1981879 -78.81 0.0007804232    1.415    0.294
        94 -11.9703    104.6722    205.4231   6.0075194629e+01   1.7973277574e+01    0.3382962    0.1200769  30.16  0.001164007    2.669    0.625
        95 -11.4367    239.0096    204.5006   3.4032583430e+01  -9.4411624080e-02    0.1446618   0.09315699  25.37 0.0004293603    1.535    0.349
        96 -12.5996     83.4790    196.8047   6.4213516369e+01   2.2799957587e+01    0.7596783    0.4413543  62.65  0.003572192    1.998    0.500
        97 -14.5790     93.3632    181.9019   5.9776452496e+01   2.4614206080e+01    0.9277961     0.567636  26.34  0.004385203    1.689    0.408
        98 -13.2853    100.3878    195.5702   5.9845827177e+01   2.0602637416e+01    0.5814856     0.367086  44.07  0.001804113    1.410    0.291
        99 -13.7511     91.3588    197.9963   6.2382239252e+01   2.1418278978e+01    0.8818402    0.4348932 -48.56  0.003973894    2.419    0.587
       100 -13.0274     91.0152    189.2723   6.1372228821e+01   2.3341666356e+01     0.395233    0.3175694  64.29  0.000977862    1.261    0.207
       101 -12.7781    145.1455    200.3446   5.0222195699e+01   1.2936804196e+01    0.4707448    0.3803774 -86.95  0.002513817    1.832    0.454
       102 -11.5387     59.5469    210.5309   7.1568506660e+01   2.3043556411e+01    0.3160141    0.2094579   8.36  0.001143101    2.043    0.510
       103 -12.7246    226.6977    206.3177   3.6175216692e+01   1.0725671323e+00     0.307489    0.2424504 -54.54  0.001873611    2.184    0.542
       104 -11.5237    212.3211    199.8175   3.7433013357e+01   3.6639107357e+00    0.2487699    0.1944413 -58.22  0.001599993    2.131    0.531
       105 -11.2063    137.5203    201.4147   5.2031720300e+01   1.3882251405e+01      0.20098    0.1758953  29.76 0.0004873513    1.041    0.040
       106 -11.0064    134.5317    198.4974   5.2259738880e+01   1.4866572982e+01    0.2346605    0.1890895 -88.36 0.0006467081    1.728    0.421
       107 -11.8212    138.0471    196.9789   5.1254348198e+01   1.4614197752e+01    0.3254838    0.2014346  17.25 0.0006513215    1.864    0.464
       108 -12.1686     48.9948    198.9947   7.3274367867e+01   2.6853698642e+01    0.3833403    0.3426282 -29.62  0.001404659    1.476    0.322
       109 -10.4509    180.3185    199.2905   4.2984367357e+01   8.0035478613e+00     0.124127   0.08493827  -0.41 0.0002589136    1.600    0.375
       110 -11.1676    224.8707    198.1075   3.5147748347e+01   2.3469949706e+00    0.1568306    0.1365776 -13.44 0.0004891265    1.245    0.197
       111 -13.0553    173.1362    195.6546   4.3769105445e+01   9.6053681602e+00    0.3423946    0.2621279  41.60 0.0004607707    1.407    0.289
       112 -11.0151     60.8086    197.5748   7.0096498551e+01   2.5701144088e+01    0.1941129    0.1706746 -71.69 0.0003091496    1.289    0.224
       113 -14.1237      4.5055    164.9982   8.3352810111e+01   3.9542114156e+01     1.569813    0.3798647 -82.07  0.005326124    3.801    0.737
       114 -10.1999    233.2787    197.3161   3.3735741032e+01   1.4515612597e+00    0.1112533   0.06925771  -7.32 0.0002359975    1.572    0.364
       115 -12.7891    121.7417    196.4780   5.4868733115e+01   1.7194629125e+01     0.437503    0.2915175  28.00   0.00232397    1.407    0.289
       116 -10.6514    115.9814    196.2001   5.6176532132e+01   1.8126048750e+01    0.1834693    0.1609578  33.21 0.0004507691    1.018    0.018
       117 -12.1121    192.3029    195.2154   4.0119808073e+01   6.9627481500e+00    0.3076091    0.2509443  -5.42  0.001123401    1.077    0.072
       118 -13.7786     11.1863    189.2987   8.2570517584e+01   3.3092587050e+01    0.7952119    0.4953229 -23.59    0.0038925    2.739    0.635
       119 -11.0881    212.6177    193.7936   3.6398337834e+01   4.4592068977e+00     0.152336   0.09931612 -41.73 0.0004719187    1.659    0.397
       120 -11.4714    160.7308    193.2861   4.5854948068e+01   1.1833931988e+01    0.2273579    0.1949881 -19.89  0.000723544    1.166    0.142
       121 -12.0573     41.1845    192.0386   7.4769768730e+01   2.9362881017e+01     0.250736    0.2181048  29.59  0.001542364    1.245    0.197
       122 -13.5545     36.9770    190.2850   7.5760309800e+01   3.0250056118e+01     0.492129    0.3152838 -53.14   0.00179404    1.918    0.479
       123 -12.6273     63.3524    177.2309   6.7295366584e+01   3.0075988613e+01    0.3646667    0.2624776  29.65 0.0008718242    1.373    0.272
       124 -12.1923     66.4389    182.6591   6.7060984546e+01   2.8367499506e+01    0.6076177    0.3776223 -43.36  0.002878089    2.100    0.524
       125 -13.7392     79.4714    173.4728   6.2341429706e+01   2.8662887598e+01     0.549705    0.4373875  75.78  0.002326907    1.295    0.228
       126 -11.9434     70.3731    187.1226   6.6504232274e+01   2.6791553463e+01    0.5056543    0.2215042  49.17  0.002098665    2.139    0.532
       127 -13.9493     75.9925    184.8614   6.4742436940e+01   2.6520654588e+01     1.050743    0.5732513 -62.94  0.004559383    1.971    0.493
       128 -12.2821     50.8281    190.0467   7.2029466929e+01   2.8674028605e+01    0.3078997    0.2016203  49.38 0.0004757088    1.294    0.227
       129 -10.3329    168.3143    189.2978   4.3669905788e+01   1.1371596983e+01    0.1292718    0.0919873  -1.52  0.000228605    1.606    0.377
       130 -12.8974    110.8931    188.0452   5.6230238655e+01   2.0569306821e+01    0.3528369    0.2614635  23.04  0.001405883    1.376    0.273
       131 -10.7765    174.4913    188.5178   4.2325644562e+01   1.0575687358e+01    0.1271341    0.1100682   2.94 7.524277e-05    1.038    0.037
       132 -12.0210    248.6803    185.6589   2.9608926700e+01   1.1397119614e+00    0.2130118    0.1552581  -9.26 0.0006326131    1.127    0.113
       133 -10.6980    208.5388    186.4757   3.5842573481e+01   6.0396448179e+00     0.120576   0.09659421  -6.70 -0.0001066422    1.077    0.071
       134 -11.4437    157.0069    185.6768   4.5369743360e+01   1.3739529494e+01    0.2451859    0.1753351 -14.89   0.00132462    1.644    0.392
       135 -12.8571    126.8146    185.8843   5.2094340876e+01   1.8494559477e+01    0.4605614    0.1919539  35.25  0.001891526    2.193    0.544
       136 -11.8230    100.0887    184.6476   5.8433201437e+01   2.2972480893e+01    0.2212083    0.1896071  85.44 0.0004023813    1.283    0.221
       137 -10.8463    137.2682    184.6255   4.9489360384e+01   1.7068577176e+01    0.1312845     0.105067  75.99 0.0006992813    1.676    0.403
       138 -10.6147      1.7591    190.0445   8.5062562057e+01   3.3731927318e+01    0.1766641    0.1354769  69.63 0.0004891199    1.095    0.087
       139 -11.5411    134.2318    181.9829   4.9748860236e+01   1.8074288534e+01    0.1805137    0.1735176   8.47 0.0002235147    1.060    0.057
       140 -12.9986    138.2545    177.6552   4.8105210378e+01   1.8268146967e+01    0.7003306    0.4445876  84.14   0.00263984    3.783    0.736
       141 -12.2005    133.9435    190.6057   5.1192691359e+01   1.6444671885e+01    0.3141811    0.2357246  25.63   0.00107701    1.263    0.208
       142 -11.4882    223.9913    178.7845   3.2038578344e+01   5.0753516298e+00    0.3250983    0.1230454 -25.65  0.001302497    3.593    0.722
       143 -12.7473    116.3832    178.2469   5.3389645859e+01   2.1751135939e+01    0.3195506    0.2423858  39.99  0.001288322    1.206    0.171
       144 -11.2043    191.1810    178.1143   3.7396467404e+01   9.7778367215e+00    0.1551188    0.1495887 -44.94  0.000551059    1.309    0.236
       145 -13.5986    126.8701    176.6053   5.0580844304e+01   2.0365920039e+01    0.4764706    0.4229484 -44.03  0.002790187    1.208    0.172
       146 -12.0830     24.4579    178.4792   7.8371256920e+01   3.4408204739e+01    0.2178639    0.1462687  42.45 0.0005821288    1.281    0.219
       147 -14.0034      6.4474    183.7798   8.3600827559e+01   3.4806900884e+01     0.811583     0.474145  44.15  0.004478861    1.394    0.282
       148 -11.8756    247.2510    176.6397   2.8289514668e+01   2.4466152363e+00     0.232525    0.1491936  15.51 0.0008950105    1.687    0.407
       149 -12.4758    106.6322    175.5555   5.5412234995e+01   2.3922449649e+01    0.2756759    0.2318827  54.66 0.0007692808    1.153    0.133
       150 -11.5638     31.7491    176.0591   7.6136501422e+01   3.4238029053e+01     0.231598    0.1872216  34.02  0.000357729    1.238    0.192
       151 -12.0924    147.0670    174.5733   4.5595075062e+01   1.7406058289e+01    0.3997669    0.2154578  60.72  0.001307631    3.535    0.717
       152 -13.9377     91.6478    170.9483   5.8649952145e+01   2.7375028505e+01    0.5151023    0.3812461  37.80  0.002459174    1.246    0.197
       153 -10.9758     13.9606    171.5345   8.0934896979e+01   3.7117853362e+01     0.219005    0.1691521 -54.62 0.0007627919    1.559    0.358
       154 -12.3726     18.5393    167.1549   7.9340344002e+01   3.7789110629e+01    0.3854995    0.2948799   3.11  0.002030553    1.690    0.408
       155 -12.1732     13.6596    165.8009   8.0698937101e+01   3.8574963844e+01    0.4202246    0.2604473 -15.67  0.001964429    2.578    0.612
       156 -10.8088    236.9894    171.0025   2.8748828497e+01   4.4584184834e+00     0.137601     0.109937 -15.69 0.0004043964    1.014    0.014
       157 -11.5876    197.8973    170.4502   3.4824134100e+01   9.9914028247e+00    0.2400862    0.1658475 -27.69  0.001010158    1.352    0.260
       158 -12.0033    152.9952    170.2044   4.3518244003e+01   1.7248743557e+01    0.2461553    0.2079987  43.21 0.0004203249    1.201    0.167
       159 -12.1355     61.7189    170.6898   6.6993308582e+01   3.1885179628e+01    0.3289307    0.2042725  27.62  0.001308319    1.631    0.387
       160 -12.2979    118.2488    169.1065   5.1418939630e+01   2.3397207981e+01    0.3410991    0.2650148  13.71 0.0002884831    1.498    0.332
       161 -11.7234    122.9973    168.0114   5.0053048134e+01   2.2821405306e+01    0.2600061    0.2291012   8.90 0.0004821876    1.235    0.190
       162 -12.4206    127.0911    166.0026   4.8697962359e+01   2.2542056092e+01    0.3199005     0.274377   7.04 0.0008907961    1.298    0.230
       163 -11.5495    159.5764    168.1599   4.1741681160e+01   1.6524695725e+01    0.2277215    0.1764403  44.98  0.000526156    1.337    0.252
       164 -12.2769     84.8321    167.7649   6.0046950915e+01   2.9196245324e+01    0.3716382    0.1865537  58.07  0.001431234    2.436    0.590
       165 -12.7231     53.0793    167.8284   6.9174840898e+01   3.3746020057e+01    0.4392016    0.1957593  25.02  0.001733258    2.407    0.585
       166 -12.3905     99.9319    166.2446   5.5683916349e+01   2.7118694662e+01    0.2458931    0.2101091 -49.37 0.0001967915    1.280    0.219
       167 -11.4584    110.8116    165.1902   5.2640934362e+01   2.5526591424e+01    0.1976332    0.1714306   5.31  0.000652608    1.332    0.249
       168 -10.7525     31.2007    167.8977   7.5649605012e+01   3.6326708827e+01    0.2197593    0.1569328  60.36 0.0006558379    1.221    0.181
       169 -11.0571    212.0762    163.9973   3.1260849298e+01   8.8837572528e+00    0.1778815    0.1511265 -17.91  0.001197517    1.014    0.014
       170 -10.9733    205.7348    164.0295   3.2304039832e+01   9.8208140983e+00     0.176376    0.1458408 -21.97 0.0006089267    1.061    0.057
       171 -10.2636    198.2960    164.3361   3.3622985614e+01   1.0905680818e+01    0.1293025   0.08999264  -6.83 0.0004452099    1.649    0.394
       172 -12.1765    153.0077    165.5363   4.2655187566e+01   1.8140074108e+01    0.3420866    0.2390795  89.22  0.001503116    2.703    0.630
       173 -12.1871     44.6220    172.2107   7.2100563044e+01   3.3715474988e+01    0.2819824    0.2237083  31.00 0.0005150422    1.277    0.217
       174 -11.0290     64.4912    164.5377   6.5422487620e+01   3.3018474873e+01    0.1464962    0.1300671  59.59 4.235484e-05    1.007    0.007
       175 -11.8745     35.9721    162.4756   7.3743405496e+01   3.7176562053e+01    0.3760424    0.1526715 -61.72  0.001516658    2.459    0.593
       176 -10.9351    141.6734    162.9631   4.4699850923e+01   2.0620850623e+01    0.1901687    0.1741246 -40.82 0.0003602893    1.127    0.113
       177 -11.3949     68.9584    163.4710   6.3970896363e+01   3.2641638422e+01    0.2266252   0.09262926  50.77 0.0008095801    2.536    0.606
       178 -11.6598     12.4418    160.7462   8.0768297302e+01   3.9959814996e+01    0.3622121     0.185906  53.45  0.001734776    1.677    0.404
       179 -11.5136     16.5402    160.4872   7.9507573549e+01   3.9662951236e+01    0.2808346    0.1414098  47.95  0.001295753    1.699    0.411
       180 -12.0506    170.1862    160.0766   3.8037945665e+01   1.6212756720e+01    0.2880833    0.2395577 -59.94  0.001181795    1.419    0.295
       181 -11.0059     40.6772    161.5582   7.2221561739e+01   3.6868691002e+01    0.2461642    0.1379177  23.07 0.0007354479    1.925    0.481
       182 -11.9473     46.3278    160.0902   7.0339662988e+01   3.6560335826e+01    0.3043247    0.1775728  42.70 0.0001614087    1.522    0.343
       183 -11.9755    105.7327    159.1156   5.2925492014e+01   2.7779318641e+01    0.3476747    0.1874612  50.22    0.0014459    1.910    0.476
       184 -13.0202    133.4762    157.0273   4.5495126030e+01   2.3309977307e+01    0.4808759    0.3135934 -53.25  0.001296674    1.616    0.381
       185 -11.0457    118.3227    157.3372   4.9306998752e+01   2.5968039953e+01    0.1487267    0.1156837 -10.83 0.0007050738    1.715    0.417
       186 -11.4611     70.1972    157.6209   6.2784085874e+01   3.3917587729e+01    0.2016524    0.1393951  20.89 0.0003517281    1.669    0.401
       187 -13.4730     83.7394    150.3304   5.7604350014e+01   3.3613791559e+01    0.5181144    0.3694913 -23.22  0.001513156    2.076    0.518
       188 -11.5061     29.5602    155.7467   7.5109496943e+01   3.9608945089e+01    0.2735067     0.119656 -69.70  0.001140279    2.173    0.540
       189 -10.8098    190.5052    155.1149   3.3227048306e+01   1.3666651696e+01    0.1902431    0.1188182 -38.97  0.000427259    1.497    0.332
       190 -11.3137    141.3356    155.0885   4.3269557828e+01   2.2288818844e+01    0.1970263    0.1804311 -49.44 0.0004783768    1.125    0.111
       191 -10.8862     20.7602    154.6697   7.7789083336e+01   4.0769164718e+01    0.2107106    0.2008655 -70.78 0.0005909153    1.223    0.182
       192 -13.0421     77.1104    155.4564   6.0401453153e+01   3.3402390545e+01    0.5376858    0.1950131  49.20  0.001779122    2.964    0.663
       193 -11.1410     67.5047    153.5047   6.2997737238e+01   3.5357763156e+01    0.1482761    0.1365107  64.09 2.526051e-05    1.033    0.032
       194 -12.1371     50.8407    152.8766   6.8088472166e+01   3.7845507841e+01    0.2152931    0.2028098 -52.43  0.001228235    1.234    0.190
       195 -12.5336     26.4038    125.2052   7.3050251662e+01   4.8079814581e+01    0.4103327    0.2818204 -36.94  0.001765825    1.805    0.446
       196 -11.8699     14.2309    153.0812   7.9734574477e+01   4.1773986120e+01    0.5050215    0.2090542  82.99  0.002014902    2.471    0.595
       197 -12.4795      9.1245    146.4310   8.0941801248e+01   4.3929628056e+01    0.5037802    0.2015204  51.35  0.002111266    2.206    0.547
       198 -13.4594     11.6923    142.0533   7.9804857180e+01   4.4874801785e+01      0.63467    0.3541102  79.90  0.002667939    1.670    0.401
       199 -12.8378     20.1782    131.1139   7.5954929957e+01   4.7070399524e+01    0.4226229    0.2617424 -55.02  0.001505347    1.703    0.413
       200 -13.1952     14.7869    135.0420   7.8214069283e+01   4.6484519733e+01    0.4987738    0.2955965  28.77  0.002448354    1.688    0.408
       201 -13.1554     15.9854    131.5006   7.7489673127e+01   4.7333905016e+01     0.479643    0.2384858  24.32  0.002138077    2.063    0.515
       202 -11.6010     99.8141    150.9337   5.3080485766e+01   3.0728923380e+01    0.2481395    0.2043905  27.05 0.0003535118    1.293    0.227
       203 -12.2242     96.2924    149.0243   5.3725755650e+01   3.1803132602e+01    0.2732943     0.215087  55.18 0.0005739285    1.235    0.190
       204 -12.1828    108.6791    148.9535   5.0268682249e+01   2.9613889900e+01     0.334999    0.2825669 -58.78 0.0008110848    1.227    0.185
       205 -12.3348     27.7566    149.5935   7.5125480498e+01   4.1404624160e+01    0.3435405    0.2237127  11.59  0.001655631    1.900    0.474
       206 -12.1821     19.6625    149.1457   7.7711034873e+01   4.2313497300e+01    0.3064646    0.2240995   2.78 0.0009932824    1.758    0.431
       207 -10.7680    147.1530    148.6190   4.0645554916e+01   2.2541882668e+01    0.1973305    0.1324921  29.99 0.0004154306    1.628    0.386
       208 -11.7899    170.9302    145.3979   3.4950819948e+01   1.8781285045e+01    0.2532792    0.1905911 -33.94  0.000411888    1.300    0.231
       209 -11.6858     62.4767    145.9683   6.3445131964e+01   3.8034398931e+01    0.3374928    0.1401821  59.13 0.0008560302    3.462    0.711
       210 -13.1867    102.2639    142.6994   5.0832553030e+01   3.2258756536e+01    0.6760019    0.3913543  69.77   0.00245586    2.772    0.639
       211 -14.6199     36.4167    248.1795   7.9285593499e+01   1.8278716858e+01     1.286436    0.9159071  63.58  0.007180575    1.269    0.212
       212 -10.5040    233.8605    143.7988   2.4201883880e+01   8.6899006937e+00    0.1500797    0.1259284 -44.26   0.00037381    1.285    0.222
       213 -10.8669    187.2507    143.9892   3.1579934942e+01   1.6125256813e+01    0.1855181     0.159668 -33.97 0.0003684738    1.079    0.073
       214 -13.0763     51.3340    142.7266   6.6589449404e+01   4.0439987141e+01    0.4289922    0.2791288  31.24  0.001090801    1.538    0.350
       215 -11.1272    143.7997    143.4013   4.0327853826e+01   2.4246597184e+01    0.1992495    0.1364625  31.03 0.0004366598    1.595    0.373
       216 -11.5272    210.6869    142.9562   2.7434629620e+01   1.2361221106e+01    0.2503353    0.1929851 -78.16  0.001403783    2.085    0.520
       217 -11.9811     85.8365    143.8317   5.5839946962e+01   3.4881497748e+01    0.2509024    0.2048665  29.43 0.0003644112    1.297    0.229
       218 -12.9912     94.4478    140.4453   5.2644633073e+01   3.4217892014e+01    0.4236087    0.3511118  -4.68  0.001145548    1.591    0.371
       219 -12.8711     72.4268    138.8201   5.9104527348e+01   3.8368985530e+01    0.4235273    0.2163478 -61.62  0.001133408    1.956    0.489
       220 -10.8812     60.2929    139.3134   6.3126909573e+01   4.0092239498e+01    0.1461628      0.11573 -33.03 0.0002800347    1.594    0.373
       221 -13.3160    128.4889    135.1946   4.2248808741e+01   2.8984575857e+01    0.5914402    0.4676992 -89.04   0.00176207    1.552    0.356
       222 -12.2005    123.0487    134.8589   4.3563334059e+01   3.0132240525e+01    0.2622406    0.2190868 -46.02 0.0003300071    1.233    0.189
       223 -11.5273    109.3227    138.0565   4.7920559093e+01   3.2049209542e+01    0.2160507    0.1981679 -70.02 0.0006577828    1.103    0.094
       224 -12.4098     66.6862    136.2924   6.0526793684e+01   3.9927219890e+01    0.3148023    0.2290958  53.32  0.001127694    1.318    0.241
       225 -12.3931     46.4673    136.2692   6.7323627045e+01   4.2794661979e+01    0.3073593    0.1986186 -80.47   0.00097412    1.539    0.350
       226 -12.1070     43.3780    132.5176   6.7867949436e+01   4.4192437066e+01    0.3352572    0.1837012  85.94  0.001356715    2.118    0.528
       227 -13.3039     85.8734    134.9031   5.4147507515e+01   3.7116039017e+01      0.42261    0.3696742   7.58  0.001354056    1.394    0.283
       228 -13.3727     82.6048    128.3018   5.3855579487e+01   3.9363617498e+01    0.4840846    0.3713109 -28.27   0.00223904    1.715    0.417
       229 -10.5692     26.4887    135.9793   7.4215156555e+01   4.5156576830e+01    0.2124557   0.09953399  71.49  0.000808796    2.419    0.587
       230 -12.6116    200.2298    133.1730   2.7105362089e+01   1.5699463675e+01    0.3078907    0.2479528   9.08 0.0006919514    1.439    0.305
       231 -12.8654    102.9734    133.9017   4.8841012573e+01   3.4241186119e+01    0.3956486    0.2569137  44.05  0.001290173    1.486    0.327
       232 -12.7684     59.6314    133.8116   6.2459249347e+01   4.1641324085e+01    0.4237284    0.1837115  36.21   0.00161367    2.146    0.534
       233 -12.2137     77.9350    133.0200   5.6281932694e+01   3.8960322566e+01    0.2384186      0.22111  75.82 0.0004785453    1.012    0.012
       234 -11.1508    230.1414    130.5956   2.2134527117e+01   1.1174018265e+01    0.1934555    0.1372173 -39.39 0.0003588881    1.214    0.176
       235 -12.9838    130.3262    128.5157   4.0295817774e+01   3.0090136049e+01    0.2988994     0.294887  -9.51 0.0006438576    1.081    0.075
       236 -12.5525    122.0335    128.3411   4.2377503056e+01   3.1808417971e+01    0.3967118    0.2167244 -53.98  0.001613421    1.889    0.471
       237 -12.5222    110.1851    129.4169   4.5826853274e+01   3.3920339757e+01    0.4133417    0.2464116 -72.91  0.001583866    2.348    0.574
       238 -12.9343     40.2624    137.3645   6.9602071143e+01   4.3269774620e+01    0.4417515    0.2346303  81.05   0.00048619    2.196    0.545
       239 -11.6250     50.4810    130.4986   6.5075615081e+01   4.3813616858e+01    0.1502029     0.138057  77.34 0.0008102914    1.022    0.021
       240 -13.5151     58.5114    126.0013   6.1507016806e+01   4.3882416366e+01    0.4850149    0.3284221 -39.38  0.001808305    1.827    0.453
       241 -13.0379      9.3090    126.1193   7.9452468937e+01   4.9311259169e+01    0.4281372    0.2622735 -34.39  0.002028515    2.109    0.526
       242 -11.4431     64.8422    126.8468   5.9462894057e+01   4.2696862411e+01    0.2200249     0.171039  70.19 0.0004728504    1.306    0.234
       243 -13.4575     73.8622    114.5828   5.3849498546e+01   4.4423284291e+01    0.5191589    0.2789996 -53.80  0.001640543    1.854    0.461
       244 -12.6875     75.3675    124.8531   5.5515085083e+01   4.1502655408e+01    0.3519479      0.24252 -52.50  0.001119363    1.501    0.334
       245 -13.6363     78.0265    119.7460   5.3558532060e+01   4.2361733632e+01    0.6356277      0.37917  33.08 0.0005137395    1.762    0.432
       246 -11.6664    169.8124    123.4479   3.0387519995e+01   2.3109953902e+01    0.3484948    0.1751549 -39.42  0.001480625    1.920    0.479
       247 -11.4302    186.6633    124.0163   2.7416646153e+01   1.9732485227e+01    0.1961657    0.1599869 -39.11 0.0003802925    1.122    0.109
       248 -11.4284    126.4153    123.7320   4.0176868574e+01   3.1950465158e+01    0.2074431    0.1444402 -39.42 0.0005951404    1.549    0.354
       249 -11.9490     40.0123    124.0440   6.7856220842e+01   4.6897277224e+01    0.2507943    0.1556546  61.31 0.0007231808    1.662    0.398
       250 -13.0642    104.8391    121.3139   4.5510062443e+01   3.6905329433e+01    0.4639883    0.3352204  65.09  0.001407932    1.545    0.353
       251 -11.8837    100.4877    119.5162   4.6375026852e+01   3.8202905500e+01     0.253502    0.2044471 -51.96 0.0007817416    1.266    0.210
       252 -12.2899     49.3445    122.9782   6.4264676259e+01   4.5991192571e+01    0.2499739    0.1919881  51.09  0.000451147    1.249    0.200
       253 -12.4585     11.1700    111.2503   7.7413535618e+01   5.3196212818e+01    0.3387672    0.2171931  89.39 0.0005986905    1.440    0.306
       254 -13.8432     14.6586    118.8078   7.6793403438e+01   5.0876282793e+01    0.6107191    0.4010783  87.02  0.003072249    1.412    0.292
       255 -12.9140      8.5903    117.7574   7.9034481709e+01   5.1618359271e+01    0.4640055    0.3402033  -9.10  0.001885804    1.721    0.419
       256 -10.4581    224.4430    120.5160   2.0859372277e+01   1.3594644418e+01     0.125759     0.104265 -35.33 9.850166e-05    1.018    0.017
       257 -10.6960     35.3912    119.1145   6.8862567946e+01   4.8780648993e+01    0.3106391    0.1763551  85.61  0.001303418    1.955    0.488
       258 -11.5727     94.3257    117.4662   4.7774517713e+01   3.9912500638e+01    0.2906778    0.1437358 -55.10  0.001097447    2.034    0.508
       259 -10.2908     29.7842    116.9538   7.0713198663e+01   4.9983443145e+01    0.1943082    0.1102934 -73.13 0.0005917332    1.645    0.392
       260 -11.5091    120.7222    112.8589   3.9020965269e+01   3.5584738504e+01    0.3520849    0.2334699  86.58  0.001364116    2.364    0.577
       261 -12.7698    115.1417    113.8637   4.0785705079e+01   3.6540374058e+01    0.4799839    0.3598947  -6.12  0.001189364    2.124    0.529
       262 -11.7924    113.6777    109.1004   3.9985527956e+01   3.7945181280e+01    0.3331499    0.2333627  67.55 0.0009539729    1.665    0.399
       263 -13.3671     83.4391    114.4700   5.0572032361e+01   4.2730677173e+01    0.5061932     0.344559  74.54  0.002135817    1.848    0.459
       264 -10.2410     47.8515    115.3737   6.3502134387e+01   4.8246532624e+01    0.1888807    0.1460586  14.18 0.0002763721    1.543    0.352
       265 -11.2098     24.1779    115.1949   7.2673250484e+01   5.1025093243e+01    0.2038871    0.1511458  64.44 0.0003876788    1.299    0.230
       266 -11.9411    104.9713    114.5193   4.3845978901e+01   3.8501091279e+01     0.241046    0.1523735  43.57 0.0008244456    1.568    0.362
       267 -13.7046     63.3947    111.9625   5.7015564602e+01   4.6860172755e+01      0.73054    0.3046781 -62.05  0.002079087    2.363    0.577
       268 -12.0910     58.5272    113.9969   5.9231823033e+01   4.7082175000e+01    0.3180971    0.2187022  41.03 0.0001462916    1.422    0.297
       269 -12.0927     68.0312    111.7487   5.5284194501e+01   4.6155933482e+01    0.2197667     0.199824  53.30 0.0004324217    1.083    0.076
       270 -11.5601      6.0900    112.2413   7.9542500018e+01   5.3278550032e+01    0.2741818    0.1623098  45.32  0.001348165    1.631    0.387
       271 -10.8434     52.5880    110.8707   6.0844768582e+01   4.8798249496e+01    0.2460128    0.2067637  19.12 0.0005601069    1.356    0.263
       272 -12.4789    108.7665    107.9272   4.1077327721e+01   3.9262138095e+01    0.2931721     0.249511  66.53 0.0003463766    1.182    0.154
       273 -12.1542    109.6755    103.8917   3.9755201396e+01   4.0001562391e+01    0.3249457     0.274455 -49.44 0.0003480017    1.204    0.169
       274 -10.3602    139.6747    107.3228   3.2879494619e+01   3.2661342711e+01    0.1583544    0.1183936 -84.18 0.0007047852    1.686    0.407
       275 -10.3588    121.5272    106.5296   3.7182244390e+01   3.6826796042e+01    0.2772898     0.144335 -58.47  0.001020564    2.231    0.552
       276 -12.4861      6.8035    106.8803   7.8773110127e+01   5.4681405888e+01    0.2491793    0.2030795  23.44 0.0009922775    1.347    0.258
       277 -11.7304     11.8613    104.0926   7.6368948485e+01   5.5088823982e+01     0.342945    0.2436831 -23.84  0.001757096    1.728    0.421
       278 -11.7110      2.0977    107.0839   8.0730280046e+01   5.4912876295e+01      0.25304    0.1823646 -68.40 0.0005068242    1.289    0.224
       279 -10.1901    206.4985    104.5698   1.9913442590e+01   1.9255884172e+01    0.1318167    0.1153874 -41.51 9.041885e-05    1.013    0.013
       280 -11.4274    105.0605    102.4764   4.0725142036e+01   4.1320434801e+01    0.2464369    0.2096627 -57.80 0.0004358741    1.167    0.143
       281 -12.6475     79.1759    102.5460   4.9125802767e+01   4.6537932320e+01    0.3101114    0.2559934 -54.72 0.0007754274    1.222    0.182
       282 -11.8293    153.8275    100.7214   2.8060345752e+01   3.0853530470e+01    0.3222155    0.2245931 -54.54 0.0008866305    1.432    0.302
       283 -12.3368     55.9454    101.4397   5.7537185818e+01   5.0809729866e+01    0.3152128     0.273099 -46.83 0.0003712004    1.232    0.189
       284 -11.6320     57.6902     97.4406   5.5910031793e+01   5.1587704332e+01    0.4736268     0.293909  50.98  0.001419353    1.675    0.403
       285 -10.4978    185.4551    101.4588   2.2410240393e+01   2.3920718993e+01    0.1399031    0.1255428 -49.88  6.54038e-05    1.011    0.011
       286 -11.8550     85.2481    100.6518   4.6538456864e+01   4.5840771978e+01    0.2620498     0.206234  31.78 0.0004910434    1.403    0.287
       287 -12.5869      5.7815     99.7862   7.8518948334e+01   5.6661912298e+01    0.4193763    0.2062714  56.16  0.001836632    2.091    0.522
       288 -11.7675      8.9992     97.4855   7.6861267772e+01   5.7077331686e+01    0.4855282    0.1791237  31.73  0.001944326    2.563    0.610
       289 -11.3674    190.8674     99.5419   2.1085843532e+01   2.3143119408e+01    0.2753712     0.138859 -54.14   0.00115366    2.227    0.551
       290 -13.5123     94.5828     99.2374   4.3079385054e+01   4.4294794848e+01    0.7245253    0.3249941  51.57  0.002533469    2.403    0.584
       291 -11.5885    178.3544     96.4445   2.2369548901e+01   2.6283588095e+01    0.2845407    0.1631384 -43.84  0.001060612    1.586    0.369
       292 -13.6538     78.2428     92.4092   4.6749344931e+01   4.9236324290e+01    0.4639258    0.3504148  69.19  0.002143651    1.478    0.323
       293 -12.9133     74.0186     90.7441   4.7833263879e+01   5.0453855535e+01     0.340903      0.28318   6.09  0.001066697    1.564    0.361
       294 -11.3486    162.2231     99.3926   2.6037148838e+01   2.9248828134e+01    0.2014847    0.1399917  68.33 0.0009439592    1.647    0.393
       295 -11.0473     41.2322     92.0149   6.1552134024e+01   5.5399090489e+01    0.2466746    0.2129401  38.31 0.0006812354    1.190    0.160
       296 -11.5516    125.3985     90.1385   3.1667570870e+01   3.9493443388e+01    0.3471552    0.2716116 -55.02  0.001673097    1.257    0.205
       297 -12.9425     55.0715     85.9317   5.4058604025e+01   5.4977050201e+01    0.7892532    0.5797819  85.81  0.003680394    1.611    0.379
       298 -12.0211    149.6747     88.0291   2.5520248464e+01   3.4245543396e+01    0.2218914    0.1886847 -53.89  0.001151889    1.113    0.102
       299 -10.8767     27.9971     90.4652   6.7186708074e+01   5.7362886235e+01    0.2101682    0.1435518  23.69 0.0007496045    1.571    0.363
       300 -10.5822     11.8416     86.8449   7.4185784974e+01   5.9745113102e+01    0.1921992    0.1494252  64.46 0.0003976613    1.298    0.230
       301 -11.0555    100.5235     86.4708   3.7535788422e+01   4.5975934642e+01    0.1569993    0.1501792  86.29 7.287144e-05    1.026    0.025
       302  -9.8885     36.2890     86.3376   6.2507573906e+01   5.7525339321e+01    0.1520109    0.1055358 -37.36 0.0003120433    1.637    0.389
       303 -11.1229    170.4440     84.4948   2.0659387971e+01   3.0119277184e+01    0.1458942    0.1313528 -59.14 5.021393e-05    1.007    0.007
       304 -12.3002    151.4798     81.8006   2.3417230143e+01   3.4989834475e+01    0.4066541     0.289501  -2.83  0.001701912    2.440    0.590
       305 -11.1828    134.4578     84.0208   2.7699629456e+01   3.8606204131e+01    0.2948166    0.2125159  38.45  0.001343717    1.645    0.392
       306 -11.2609    164.4705     82.9793   2.1299273033e+01   3.1747012878e+01    0.2183125    0.1082585 -57.54 0.0006395306    2.464    0.594
       307 -12.8055     88.5579     80.0923   3.9431646328e+01   5.0036992669e+01    0.5674295    0.2584733 -43.51  0.002047407    2.336    0.572
       308 -12.1264      3.9300     88.5292   7.8167735533e+01   5.9792365198e+01     0.373336    0.2587621 -53.65  0.001999802    1.400    0.286
       309 -11.5367      4.6116     79.9481   7.6799478542e+01   6.2035629707e+01    0.2868219    0.2142311 -20.04 0.0004766179    1.524    0.344
       310 -11.0843      8.5145     78.0268   7.4537342735e+01   6.2312093704e+01    0.2413926    0.1579427 -82.56 0.0006170183    1.436    0.304
       311 -11.7282    112.6808     78.7730   3.1603056684e+01   4.4846377576e+01    0.3981887    0.2634328 -88.54  0.001567307    2.219    0.549
       312 -11.4750    205.0127     77.3034   1.3776505121e+01   2.3835054175e+01    0.1801878    0.1586378 -59.15 0.0004246718    1.062    0.058
       313 -11.0641    161.4657     77.5351   2.0346356669e+01   3.3404980030e+01    0.1469957    0.1357112 -64.58 4.619801e-05    1.031    0.030
       314 -11.6552    102.2053     77.0235   3.4066583966e+01   4.7661370471e+01    0.2410824    0.2156771  59.95 0.0003115197    1.098    0.089
       315 -11.6213    117.5998     75.6643   2.9298870216e+01   4.4308763242e+01    0.4728496    0.2587227  70.91  0.001438774    2.561    0.610
       316 -11.6608     74.9145     76.1629   4.3084026434e+01   5.3779097345e+01    0.2419861    0.2075843  84.13 0.0007528591    1.246    0.197
       317 -11.4225    105.7061     73.1626   3.1768315655e+01   4.7653033749e+01     0.397448    0.2213756  58.43  0.001519137    1.872    0.466
       318 -11.3529     86.4759     72.4932   3.7652670909e+01   5.2181766277e+01    0.2792287    0.1444376 -58.37  0.001028762    2.277    0.561
       319 -11.9507     70.7072     70.2299   4.2745523916e+01   5.5981422198e+01    0.4970144    0.3414632   2.97  0.001350472    2.670    0.625
       320 -13.1170     54.7687     68.7642   4.9050076364e+01   5.9266167250e+01      0.32151    0.3212198 -58.08 0.0004964549    1.043    0.041
       321 -10.8504      3.0278     71.5222   7.6478571386e+01   6.4330634419e+01    0.1869867    0.1333876  13.04 0.0005325112    1.553    0.356
       322 -10.6817    189.1857     70.3974   1.4122692670e+01   2.8260888119e+01    0.1765835    0.1281413  85.56 0.0009279459    1.518    0.341
       323 -12.3168     60.6660     67.8211   4.6104804681e+01   5.8447708323e+01    0.4314253    0.2290411 -57.11  0.001667913    1.953    0.488
       324 -11.1791    162.9524     69.0320   1.7707678665e+01   3.4510503795e+01     0.216182    0.1792407  19.55 0.0004589518    1.670    0.401
       325 -11.6347    154.3067     68.4440   1.9044358870e+01   3.6690466695e+01    0.2621428    0.2251568 -64.66 0.0002265334    1.075    0.070
       326 -11.0772     48.1983     66.8030   5.1477005508e+01   6.0812975400e+01    0.3820203    0.2435087   3.38  0.001527189    2.602    0.616
       327 -10.8523      9.2048     67.2315   7.2355374028e+01   6.5085514316e+01    0.3336479    0.1274207  28.68  0.001366781    2.581    0.613
       328 -11.1678    173.1698     62.8451   1.4371938163e+01   3.3094520282e+01    0.2109837    0.1704371 -66.46 0.0002921917    1.146    0.128
       329 -12.5356    110.5492     57.7966   2.5138725687e+01   4.9460144375e+01    0.7867453    0.3599017 -27.44   0.00254312    3.433    0.709
       330 -12.1776    115.3862     53.4860   2.2371115761e+01   4.9009930149e+01    0.3852047    0.2221413 -63.75  0.001507423    2.231    0.552
       331 -12.1731    109.4868     51.5173   2.3135118367e+01   5.0838240482e+01      0.30236    0.2227328  35.18 0.0007854826    1.675    0.403
       332 -11.9466    103.9875     59.2472   2.7453123579e+01   5.0809348162e+01    0.2487629    0.2174244 -50.19 0.0003140893    1.159    0.137
       333 -11.6005     41.8672     58.2543   5.1736499194e+01   6.3811590338e+01    0.3921954     0.249464 -49.88  0.001515987    1.528    0.346
       334 -11.2048     12.7550     59.6095   6.8701311685e+01   6.6778904540e+01    0.2352941    0.2072521 -74.48 0.0007780523    1.092    0.084
       335 -10.7662    197.3169     58.3012   1.0024732017e+01   2.8293573126e+01    0.1232548    0.1062239  19.15 0.0002195133    1.618    0.382
       336 -10.6231    154.3211     57.6783   1.5846557202e+01   3.8472486003e+01    0.1585065    0.1031273 -68.06 0.0007045068    1.673    0.402
       337  -9.8174     92.2568     57.3306   3.0278973800e+01   5.3991899949e+01    0.1450376    0.1225913   3.20  0.000278529    1.562    0.360
       338 -12.1987     36.6725     55.4070   5.3516115998e+01   6.5228610041e+01    0.4518793    0.2236903 -47.55  0.001657161    1.975    0.494
       339 -11.8456     23.9801     55.2779   6.0780719869e+01   6.6827027294e+01    0.3128459    0.1983198 -22.45  0.001321776    1.962    0.490
       340 -11.0784    120.4874     51.9680   2.0625351599e+01   4.7972216350e+01    0.2182642    0.1476314 -39.50 0.0004235936    1.503    0.335
       341 -11.5369    174.5060     51.4601   1.1017803751e+01   3.4509892660e+01    0.2513769    0.2010994  82.01 0.0007231752    1.240    0.194
       342 -10.6189    173.3621     48.3269   1.0286099405e+01   3.5239120024e+01    0.2619217    0.1999879   9.87  0.001026808    2.055    0.513
       343 -12.5073    100.2681     49.9729   2.5045713843e+01   5.3407500440e+01    0.4506204    0.2905126 -79.09  0.001830628    2.219    0.549
       344 -12.3553     30.5165     50.0470   5.5107094395e+01   6.7297695738e+01    0.3021201    0.2681652  53.00  0.001331424    1.222    0.182
       345 -11.9162     20.0815     46.4903   6.0355318955e+01   6.9328285985e+01    0.4727103    0.1449327 -49.64  0.001732457    2.889    0.654
       346 -11.1911     31.9114     56.4803   5.6549673556e+01   6.5609735138e+01    0.2068528    0.1370135  29.16  0.000668256    1.555    0.357
       347 -11.0494    115.8394     42.8505   1.8373919357e+01   5.0639010946e+01    0.2262939    0.1901836 -73.74  0.000353517    1.169    0.145
       348 -11.7124    119.2263     40.7933   1.6864444054e+01   5.0077536188e+01    0.3635622    0.2844782 -33.62  0.001109434    1.377    0.274
       349 -11.0104     87.8586     38.9418   2.4227633088e+01   5.8318462924e+01     0.440455    0.2072901 -23.23  0.001483028    3.468    0.712
       350 -12.1134     34.4346     40.1912   4.8750554870e+01   6.8943652415e+01    0.3378206    0.1850567  29.20  0.001545455    1.921    0.479
       351 -11.4338     80.4662     35.6949   2.5177449590e+01   6.0622712466e+01    0.4046249    0.2181796 -46.81  0.001725854    1.991    0.498
       352 -11.5240     46.8634     36.3755   3.9869156762e+01   6.7661434410e+01    0.2284977     0.182904 -54.20 0.0006012403    1.340    0.254
       353 -10.9666      9.8752     36.5337   6.4066641976e+01   7.2560691228e+01    0.1875415    0.1251395  14.96 0.0006757075    1.565    0.361
       354 -10.9418     95.3338     33.9950   1.9916397462e+01   5.7231751396e+01    0.1960766    0.1854713 -51.78  0.000415805    1.112    0.101
       355 -11.3803     52.9514     33.7742   3.5465729686e+01   6.6988697323e+01     0.224189    0.1974329 -36.03 0.0003395714    1.166    0.143
       356 -11.3981    106.8903     32.3576   1.6335188899e+01   5.4509538179e+01    0.2533675    0.1905742 -52.53 0.0006553135    1.351    0.260
       357 -12.1224     31.9866     32.2206   4.6510704555e+01   7.0946859883e+01    0.2943168      0.25229  46.90 0.0009232022    1.264    0.209
       358 -10.7319     14.6796     33.0760   5.9105824070e+01   7.2915391885e+01    0.1797979    0.1549881 -40.09 0.0003607888    1.072    0.067
       359 -12.2446     45.9113     25.9982   3.4927095217e+01   6.9711533376e+01    0.4344857    0.2485925 -41.24  0.002084714    1.804    0.446
       360 -11.8739     85.1115     24.4299   1.8467699404e+01   6.1146931252e+01    0.2618978    0.2262651 -49.58 0.0005083034    1.213    0.176
       361 -10.8838     89.7218     21.9024   1.6008402743e+01   6.0315990623e+01    0.1912978    0.1779495 -57.38 0.0003983662    1.121    0.108
       362 -10.8662    114.4867    248.9837   6.2771228799e+01   8.9492299430e+00    0.1437623    0.1191938 -58.13 0.0006680829    1.563    0.360
       363 -11.5584    116.6550     18.6021   8.8369527485e+00   5.3692892790e+01    0.2528358    0.2151406 -71.73 0.0003707058    1.111    0.100
       364 -10.7048     92.5582     17.7724   1.3373112216e+01   6.0093094223e+01    0.1940589    0.1253303 -44.52 0.0006031793    1.619    0.382
       365 -11.1697     79.4665     18.4767   1.7198549204e+01   6.3313210961e+01    0.1400215    0.1290399  64.54 0.0001488581    1.008    0.008
       366 -10.0484    129.3291     21.2553   7.7966132096e+00   5.0037124737e+01    0.1399677    0.1013761  47.76 0.0002562084    1.556    0.358
       367 -10.8244     54.1643    249.1241   7.5541384543e+01   1.6172105909e+01    0.1728126    0.1017168  48.45 0.0005834087    1.325    0.245
       368 -10.7151    248.4293    248.2225   3.9042945023e+01  -5.8653964894e+00    0.1147923   0.07707469 -28.34 0.0005369466    1.582    0.368
       369 -10.0790    121.2681    248.6659   6.1351527834e+01   8.1550403586e+00    0.1111872   0.07776911  52.08 0.0002839169    1.589    0.371
       370 -10.9468    178.4670    247.4534   5.0213064855e+01   1.4050263057e+00    0.2256679    0.1298823  20.62  0.001447358    1.443    0.307
