#   1 NUMBER                 Running object number                                     
#   2 MAG_AUTO               Kron-like elliptical aperture magnitude                    [mag]
#   3 X_IMAGE                Object position along x                                    [pixel]
#   4 Y_IMAGE                Object position along y                                    [pixel]
#   5 X_WORLD                Barycenter position along world x axis                     [deg]
#   6 Y_WORLD                Barycenter position along world y axis                     [deg]
#   7 A_WORLD                Profile RMS along major axis (world units)                 [deg]
#   8 B_WORLD                Profile RMS along minor axis (world units)                 [deg]
#   9 THETA_WORLD            Position angle (CCW/world-x)                               [deg]
#  10 FWHM_WORLD             FWHM assuming a gaussian core                              [deg]
#  11 ELONGATION             A_IMAGE/B_IMAGE                                           
#  12 ELLIPTICITY            1 - B_IMAGE/A_IMAGE                                       
         1  -8.9873     46.0765     20.9915   7.5763990758e+01   6.6930253010e+01    0.4329178    0.2128303 -33.89  0.002017914    1.953    0.488
         2 -11.8120     80.3548     23.3255   6.3444582647e+01   6.0753062920e+01    0.6395591    0.2476291  39.47  0.002638807    2.459    0.593
         3  -9.2121      7.8312     19.5134   9.4762863668e+01   7.1278576893e+01    0.3653001    0.2378225   9.20  0.002453768    1.516    0.340
         4  -8.5952     64.3978     13.9844   6.4956026633e+01   6.4854700654e+01    0.2966577    0.1671581  23.31  0.001007864    1.855    0.461
         5  -9.0818    133.9629     13.4917   4.6285559330e+01   4.9749755013e+01    0.2155144    0.1957111  -2.66 0.0003093243    1.257    0.205
         6  -8.1305     87.7416     13.5975   5.7044000381e+01   6.0346099318e+01    0.2705606    0.1594001  26.95  0.001041062    1.771    0.435
         7  -8.7653     74.5111     13.4838   6.1142492587e+01   6.3026090576e+01    0.2521445    0.1894623  33.64  0.001162348    1.137    0.120
         8  -9.1530     78.8210     12.6883   5.9380128781e+01   6.2263934246e+01    0.3834281    0.2214686  52.44  0.001631117    1.648    0.393
         9  -8.4835    155.6136     11.2839   4.2066845536e+01   4.4629385504e+01     0.319528    0.1193195 -29.55 0.0009158494    2.833    0.647
        10  -8.2911     96.8819     12.1022   5.3897863635e+01   5.8534006869e+01    0.2481769    0.1627068  40.34  0.001015346    1.335    0.251
        11  -9.3391     32.1250     10.7017   7.7513484890e+01   7.0220372879e+01     0.426459    0.2245058   8.76 0.0008168936    2.326    0.570
        12  -8.8983     32.1167      5.9426   7.5096160384e+01   7.0833048115e+01    0.2422279    0.1558045 -11.81 0.0002668627    1.394    0.282
        13  -7.0192      1.0000     11.9689   9.5625243463e+01   7.2983381433e+01    0.1736984   0.05150862 -51.24 0.0007987276    2.917    0.657
        14  -8.7186    125.1230     10.1846   4.6814174938e+01   5.2198269908e+01    0.2284113    0.1917633  35.83 0.0003666309    1.183    0.155
        15  -8.6825    108.3191     10.5893   5.0497141006e+01   5.6109077179e+01    0.3153475    0.1505131  61.77  0.001169567    1.915    0.478
        16  -8.5237     13.5636     10.6527   8.7578088857e+01   7.2236436684e+01    0.3067758    0.1681249  29.37  0.001156738    1.994    0.499
        17  -9.5872     20.6133      8.5542   8.2552402306e+01   7.1852127434e+01    0.2504438    0.1696992   5.07 0.0003061907    1.275    0.216
        18 -10.1995     13.4260      4.5323   8.4636161901e+01   7.3137225648e+01    0.3142409    0.2105791   6.86  0.002178665    1.295    0.228
        19  -7.8469    142.5411      9.9444   4.3658130482e+01   4.7984204970e+01    0.1740975    0.1038274  23.35 0.0004732756    2.315    0.568
        20  -8.6767     71.5660      8.7700   6.0011501370e+01   6.4083727188e+01     0.211418     0.189922  17.40 0.0005402477    1.142    0.124
        21  -7.0846     65.2856      9.3221   6.2464365637e+01   6.5204694903e+01    0.1293486   0.08107909  17.99 0.0001872598    1.597    0.374
        22  -8.1470      3.8929      7.0397   9.1648732390e+01   7.3569095113e+01    0.3003336    0.1255871 -11.17  0.001353652    3.434    0.709
        23  -8.6822    119.4516      6.4993   4.6618967030e+01   5.3876419826e+01    0.2725097     0.197071  31.12 -1.449318e-05    1.426    0.299
        24  -8.7416     76.2875      6.0764   5.7252035579e+01   6.3421145700e+01    0.3563719    0.1925583 -17.97  0.001739709    2.002    0.500
        25  -9.1588     46.5022      6.2400   6.8460128221e+01   6.8729670798e+01    0.2580643    0.1774897  29.14 0.0003443601    1.261    0.207
        26  -8.5678     41.0021      5.6586   7.0642214324e+01   6.9630355175e+01    0.2692005    0.1706926   2.99  0.001453045    1.527    0.345
        27  -8.3158     91.0633      5.5504   5.2751496977e+01   6.0402649926e+01    0.1848514    0.1638881  18.28 0.0004540239    1.121    0.108
        28  -9.6467     84.9080      5.5160   5.4427045597e+01   6.1712057443e+01     0.227286    0.1947885   6.52 -8.498765e-05    1.175    0.149
        29  -8.0795    193.8249      5.4078   3.5899874080e+01   3.5862495882e+01    0.1779409    0.1005187  63.57 0.0004062504    1.615    0.381
        30  -7.6132    131.5267      5.4966   4.4046535096e+01   5.1068520084e+01    0.1335036    0.1124786  57.09 0.0001566717    1.037    0.035
        31  -8.8986    110.4527      2.5235   4.6986366733e+01   5.6312873823e+01    0.2802237    0.2422215 -41.46  0.001790074    1.377    0.274
        32  -8.3149    106.1631      1.6194   4.7554057285e+01   5.7371011082e+01    0.3411146    0.1339879  51.77  0.001535203    1.997    0.499
        33  -8.9357     57.9387      3.2851   6.2295900954e+01   6.7135796273e+01    0.2434316    0.1640981  25.16 0.0005118201    1.266    0.210
        34  -8.1802    153.5044      3.4515   4.0029193511e+01   4.5866073301e+01    0.1319226    0.1117924  73.57 9.467816e-05    1.005    0.005
        35  -7.3140    143.3192      2.2627   4.1113115383e+01   4.8467002817e+01    0.1335373   0.08351518  46.36 0.0002182102    1.550    0.355
        36  -8.3016    125.4647      3.6731   4.4493784149e+01   5.2681298213e+01    0.1988904    0.1831475  -1.10 0.0003282557    1.244    0.196
        37  -8.2000      3.0580      1.7258   8.9582711816e+01   7.4425740049e+01    0.1538231    0.1263119 -10.52 0.0005236545    1.252    0.201
        38  -8.9193    159.7567      1.3828   3.8606123097e+01   4.4507105449e+01    0.2219406     0.106772  69.59 0.0002086812    1.748    0.428
        39  -7.4217    142.3212    112.3219   7.4846070404e+01   3.1592691785e+01    0.1620001    0.1268569   1.48  0.000704531    1.674    0.403
        40  -8.5856    238.0691    250.4424   8.2603510100e+01  -1.0733628060e+01    0.1610033    0.1119186  19.15  0.000427168    1.158    0.137
        41  -8.5701    218.9607    250.4938   8.6048277284e+01  -8.2194614376e+00    0.1848906   0.09594035  31.93  0.001041133    1.614    0.381
        42  -9.8044    199.9141    249.9350   8.9520267284e+01  -5.4705013107e+00    0.3512902    0.1887185  44.22  0.001121823    1.998    0.499
        43  -8.0903    168.6574    250.3193   9.5640246670e+01  -8.7171144862e-01    0.1213608   0.08847668  56.33 0.0007049612    1.720    0.419
        44  -7.6692     28.9684    112.4956   1.0962439783e+02   4.9929659539e+01     0.182115    0.1009386 -21.64 0.0008095689    2.618    0.618
        45  -9.2208      1.8692    110.2150   1.1793775657e+02   5.2334909155e+01    0.2831501    0.1340777 -65.98  0.001028007    1.611    0.379
        46  -7.8475    133.6841    106.3753   7.5507878829e+01   3.4795712708e+01    0.2672031    0.1916753 -22.76 0.0009368915    1.712    0.416
        47  -8.0134    124.0581    107.1516   7.8336521923e+01   3.6711375979e+01    0.2627506    0.1833607  13.02  0.001065761    2.064    0.515
        48  -7.1866     76.3483    107.2776   9.2901658130e+01   4.5547104416e+01     0.149048     0.111513 -17.57 0.0003322971    1.637    0.389
        49  -9.4645     14.9031    104.9209   1.1304079854e+02   5.2825857345e+01    0.4058938    0.1796159 -35.08  0.001798961    2.719    0.632
        50  -8.3994     65.3719    105.1833   9.6035780034e+01   4.7655008790e+01    0.2017144    0.1311089 -65.67 0.0009407221    1.608    0.378
        51  -8.0221     93.4277    103.8632   8.6547963024e+01   4.3497868744e+01    0.2992949    0.2072929  13.36  0.001306815    1.909    0.476
        52  -8.4680    243.5148    102.5228   5.2735994247e+01   1.1150099583e+01    0.1365599    0.1180263 -46.49 -2.120823e-05    1.029    0.028
        53  -7.2155    167.4446     99.5280   6.5452518006e+01   2.8447542776e+01     0.152649    0.1511636 -37.71 0.0001403113    1.022    0.021
        54  -9.8675     12.1383     93.9524   1.1225580446e+02   5.5598679163e+01    0.3815576    0.1649502 -44.68  0.001486354    2.079    0.519
        55  -7.2444     83.6616     93.6562   8.6951700008e+01   4.7533884613e+01    0.1574658     0.112364 -15.81            0    1.774    0.436
        56  -8.7133     44.2053     91.6828   1.0027742519e+02   5.3459246879e+01     0.384852    0.2486491 -12.75  0.001888051    1.992    0.498
        57 -10.2281     98.9200     86.7491   8.0005298173e+01   4.6281987181e+01    0.5266502    0.3098282 -25.04 0.0005830372    2.319    0.569
        58  -7.1352    127.7600     91.2493   7.2855029144e+01   3.9306930341e+01     0.140822    0.1208678 -84.27 0.0006695881    1.400    0.286
        59  -9.3944     22.3474     90.4493   1.0798226024e+02   5.5730872405e+01    0.3432482    0.1497567 -29.44  0.001403445    3.089    0.676
        60  -7.8597    109.5061     90.7626   7.7932577948e+01   4.3319573872e+01    0.3293939    0.1180422  33.21 0.0008848922    4.368    0.771
        61  -8.5512     66.1228     83.9872   9.0325927538e+01   5.2456081932e+01    0.2456022    0.2069219 -17.31 0.0004442075    1.198    0.165
        62 -10.3673     37.1152     81.3913   1.0047964076e+02   5.6555789497e+01     0.745354    0.3722861 -22.61  0.003057753    2.940    0.660
        63  -8.0516    195.5162     86.0431   5.6359510660e+01   2.4320236808e+01    0.2146185    0.2016904  77.66 0.0007576514    1.075    0.070
        64  -9.8740      7.8930     77.5216   1.1093380776e+02   5.9621870224e+01    0.7909616    0.2314616 -39.23  0.003099016    3.394    0.705
        65  -8.6459     20.8247     84.6493   1.0740229875e+02   5.7188100039e+01     0.191382      0.13669 -29.53 0.0004576982    1.412    0.292
        66  -7.8841    126.0536     83.8071   7.1119684143e+01   4.1191112817e+01    0.2592322    0.1730638  23.56 0.0009486344    1.950    0.487
        67  -8.8219     88.1243     78.8468   8.1119815444e+01   4.9967304518e+01     0.523398    0.3006827  20.95  0.002091706    2.394    0.582
        68  -7.6809    184.3130     77.9832   5.6263457113e+01   2.8378911176e+01    0.2080363    0.1869494 -46.12 0.0004039674    1.099    0.090
        69  -8.6958     49.2158     77.0558   9.4694110943e+01   5.6217535243e+01    0.3987256     0.230278 -13.33  0.001727282    2.521    0.603
        70  -8.2849    249.3287     91.6571   4.9574789357e+01   1.1775995560e+01    0.1406738   0.09108841 -63.04 0.0007051089    1.745    0.427
        71  -8.1457     23.4659     69.4437   1.0296923716e+02   6.0410394682e+01    0.2191149    0.1873587 -50.50 7.971234e-05    1.094    0.086
        72  -9.0205     23.7031     73.8855   1.0394121093e+02   5.9412326620e+01    0.3649315     0.157541 -50.36  0.001618509    1.826    0.452
        73  -9.4929     26.6553     70.6464   1.0196247428e+02   5.9892498752e+01    0.6399117    0.2528284 -24.53  0.002124471    4.781    0.791
        74  -8.2180     75.2049     74.1944   8.4144995607e+01   5.3161142835e+01    0.2389722    0.1844307  17.81 0.0005346285    1.367    0.269
        75  -7.6335     80.2740     70.9939   8.1329762280e+01   5.2962504280e+01    0.2031818    0.1734117 -32.44 0.0003938627    1.118    0.105
        76  -8.4079     47.9481     71.1028   9.3502884198e+01   5.7659785081e+01    0.2384517    0.1839328  10.82  0.001363528    1.375    0.273
        77  -8.0438    106.2946     67.1377   7.1540539843e+01   4.8693303717e+01    0.2661389    0.1968502  31.48   0.00130114    1.379    0.275
        78  -8.8497     83.6174     64.4265   7.7988936681e+01   5.3655825697e+01    0.4525492    0.2853904   6.49  0.001899906    2.386    0.581
        79  -8.9983     18.7849     61.7324   1.0299335145e+02   6.2421087649e+01    0.4435185    0.1671119 -31.70  0.001799764    3.130    0.681
        80  -9.6946     36.9793     59.5016   9.4544262703e+01   6.1304788646e+01    0.5060793    0.2520722 -33.85  0.001899864    1.988    0.497
        81  -7.8756    147.1759     62.5271   5.9353271073e+01   4.0073363392e+01    0.2835351    0.1467541  61.95  0.001109689    2.074    0.518
        82  -7.4663    121.7722     61.7977   6.5355782110e+01   4.6231967971e+01    0.2551975    0.1572623  14.63 0.0009506965    2.764    0.638
        83  -9.5853     62.2473     61.4417   8.4841567415e+01   5.7746454139e+01    0.5910876    0.2727916  22.92  0.001649339    2.843    0.648
        84  -9.4578     99.1349     55.8153   6.9881445788e+01   5.2194630242e+01    0.5580005    0.3428874 -11.29  0.002002891    2.373    0.579
        85  -8.8244     26.4468     59.8874   9.9186825745e+01   6.2214078769e+01    0.1939342    0.1395066   3.39 0.0008834463    1.482    0.325
        86  -8.9578     11.3836     60.7890   1.0594721928e+02   6.3103975178e+01    0.1975394    0.1717327 -67.99  0.001196047    1.265    0.209
        87  -7.9290    111.2267     58.0330   6.7026889078e+01   4.9238141778e+01    0.2719639    0.1747806  33.86  0.001105322    1.634    0.388
        88  -9.6642     74.8944     50.5632   7.6199177689e+01   5.7723731787e+01    0.3846351    0.2737687  -1.96 0.0004636434    1.601    0.375
        89  -8.8934     45.5254     48.5211   8.7215132387e+01   6.2484773232e+01    0.4647832    0.2278729 -26.81  0.002037355    2.429    0.588
        90  -8.1452    118.3420     50.9142   6.2622915605e+01   4.8792961871e+01    0.2446205    0.1955899  62.45 0.0007798508    1.326    0.246
        91  -7.6669    171.9797     50.0123   5.0754522104e+01   3.5857095952e+01    0.1639384    0.1536332  86.95 0.0009305535    1.010    0.010
        92  -8.3499    106.3295     49.0121   6.5302248404e+01   5.1776996076e+01     0.332071    0.2017482  23.09  0.001416297    2.155    0.536
        93  -7.8051     23.8164     36.5960   9.2909420364e+01   6.7005146011e+01    0.2311789    0.1068803  26.50  0.001190766    2.276    0.561
        94  -8.7314     18.2839     39.7109   9.6719734431e+01   6.6892889449e+01    0.3453138    0.1646262 -39.08  0.001769017    1.716    0.417
        95  -8.9883     19.1810     35.7943   9.4917191233e+01   6.7550506903e+01    0.3547184    0.2079157 -53.38  0.001268588    1.691    0.409
        96  -8.9473     21.9897     31.9958   9.2103593682e+01   6.7993537956e+01    0.2612977    0.1707802  14.36  0.001153437    1.541    0.351
        97  -8.6345     10.0889     47.4883   1.0306758775e+02   6.5938536808e+01    0.2192685    0.1832562 -15.19 0.0009211858    1.190    0.160
        98  -9.2261     13.9677     45.6985   1.0071189059e+02   6.6048038346e+01    0.2546138    0.2279418 -15.60 0.0009453207    1.194    0.163
        99  -8.6252     55.5892     43.1882   8.0956536037e+01   6.2084251372e+01    0.3947486    0.2196637 -16.70  0.001770232    2.372    0.578
       100  -8.2933     58.6317     40.6919   7.8730199608e+01   6.2053370145e+01    0.2347209    0.1464362  15.27 0.0009534445    1.783    0.439
       101  -8.8927      2.7691     44.3555   1.0568239635e+02   6.6965254241e+01    0.2715283    0.1748436 -19.93  0.001742033    1.476    0.323
       102  -8.8023     93.6876     42.6993   6.6825037392e+01   5.5422541150e+01    0.6037982    0.2603287  36.48  0.002342031    2.524    0.604
       103  -8.3068     87.6008     38.1908   6.7061293057e+01   5.7322121202e+01    0.2951012    0.1937762  27.26 0.0009130184    1.558    0.358
       104 -10.9113     82.9592     40.2428   6.9413819222e+01   5.7924220589e+01    0.3656989    0.2488311 -12.09            0    1.647    0.393
       105  -8.2782      3.5328     39.5403   1.0396168349e+02   6.7879097086e+01    0.2347351   0.09367163 -58.28  0.000875135    2.090    0.521
       106  -8.1676    105.9669     36.6541   6.0918395415e+01   5.3664707280e+01    0.3376144    0.2096044  25.02  0.001555364    1.916    0.478
       107  -8.2928     67.4924     37.5497   7.3960999071e+01   6.1132608501e+01    0.2829219    0.2166601 -46.04  0.001189761    1.578    0.366
       108  -8.9583     70.7893     35.3846   7.1835262770e+01   6.0893743245e+01    0.4201483     0.240997  46.05  0.002088313    1.828    0.453
       109  -8.4038     35.4661     37.5417   8.7670420742e+01   6.5658597800e+01    0.2889416     0.149382 -40.27 0.0007518065    1.699    0.411
       110  -8.6340     38.8737     35.4784   8.5276966133e+01   6.5621532977e+01    0.2962338    0.1630311  25.74   0.00158599    1.834    0.455
       111  -8.4096     92.5775     36.9309   6.4978912638e+01   5.6494193209e+01    0.3388266    0.1871302  30.77 0.0008004102    1.990    0.498
       112  -8.6005     96.2895     33.0631   6.2351270913e+01   5.6248765627e+01    0.2623971    0.1883486  29.21 0.0002621367    1.354    0.262
       113  -8.2407     55.7692     35.5341   7.7843804566e+01   6.3326073445e+01     0.224447    0.1619833 -30.40 0.0002747057    1.310    0.237
       114  -9.3196      5.7830     34.1252   1.0116324528e+02   6.8795334028e+01    0.2880646     0.259975 -30.49   0.00218913    1.240    0.194
       115  -7.9594      2.7202     31.7277   1.0198433488e+02   6.9415340427e+01    0.1597945    0.1223821 -44.69  0.000188467    1.153    0.133
       116  -8.7447      1.3847     28.7735   1.0172807210e+02   7.0034485918e+01    0.5219824   0.06940742 -45.77  0.002027925    3.590    0.721
       117  -7.8939     46.1543     35.1696   8.1845093104e+01   6.4751576021e+01    0.2025261    0.1486631  -9.03 0.0005730201    1.261    0.207
       118  -7.3793    167.4919     34.4972   4.7061928234e+01   3.9081638017e+01    0.1404465    0.1275742  78.28 -0.0001645228    1.004    0.004
       119  -7.3785     58.6335     30.7180   7.4653209599e+01   6.3625151990e+01    0.1356585   0.08844211   7.19 0.0001216077    1.688    0.408
       120  -8.5506     42.2389     27.7931   8.0536770256e+01   6.6452073537e+01    0.2460843    0.1657133   0.60  0.001433763    1.474    0.322
       121  -8.5504    226.2380    249.5863   8.4580731996e+01  -9.0861527313e+00    0.1680041   0.08929151  23.06 0.0007420751    1.640    0.390
       122  -7.2105    144.4623     27.5508   4.8934131791e+01   4.5668818159e+01    0.1395399    0.1249278  60.86 2.331304e-05    1.015    0.015
       123  -7.9684    109.7021     26.8163   5.6268550871e+01   5.4078410586e+01    0.2151314     0.162873  14.39 0.0005398848    1.452    0.311
       124  -8.9827    206.6617    248.6138   8.8043758451e+01  -6.2588969000e+00    0.2135544     0.148376 -33.62  0.001357774    1.623    0.384
       125  -8.8853     61.6095     26.8552   7.1796878311e+01   6.3699446323e+01    0.2426125    0.1677738  11.98  0.000650242    1.440    0.305
       126  -7.4782    144.5580     23.4636   4.7615494605e+01   4.6110452456e+01    0.1376005    0.1232136  63.71 0.0001460126    1.006    0.006
       127  -8.2088    129.0536     22.6810   5.0342168134e+01   4.9994343300e+01    0.2732024    0.1605527  47.39  0.001328987    1.549    0.354
       128  -8.6658     26.6864     21.3540   8.5318254291e+01   6.9308882737e+01     0.375272    0.2874014  18.40  0.002556636    1.329    0.248
       129  -8.9871     92.5883     20.5451   5.8492985115e+01   5.8576135970e+01    0.3103914    0.2197733  36.14 0.0007534048    1.261    0.207
       130  -9.6722    187.5054    248.4917   9.1687249519e+01  -3.4482804246e+00    0.2521459      0.09948  38.90  0.001168884    2.148    0.534
       131  -8.9236     14.1144     17.9693   9.0584793277e+01   7.1047778940e+01    0.3352695    0.1625742   5.30 0.0009831385    2.378    0.580
       132  -8.2190    140.5983     19.8838   4.7180647614e+01   4.7476524151e+01    0.2149956     0.162177  53.02 0.0003962679    1.195    0.163
       133  -8.5760    233.0364     19.0786   3.5488596491e+01   2.5406240304e+01    0.1897257    0.1491095 -68.69 0.0004025178    1.047    0.045
       134  -7.2609    146.6737     19.2620   4.5917327111e+01   4.6041268824e+01    0.1351081   0.09857824 -78.73 0.0002254976    1.562    0.360
       135  -7.6100    127.5240     16.9471   4.8684222209e+01   5.0969111790e+01    0.1748794    0.1355548 -21.51 0.0003698877    1.459    0.315
       136  -8.6900    151.7576    248.9963   9.8824473309e+01   1.9307814459e+00    0.1439083    0.1082355 -47.53 0.0008909307    1.629    0.386
       137  -8.6637    245.0568     13.7003   3.3422537295e+01   2.3469765535e+01    0.1618232    0.1310616 -78.12 0.0003595917    1.077    0.072
       138  -8.9303    167.3722    245.7843   9.5259579496e+01   1.6392631871e-02    0.1630034    0.1139898 -29.25 0.0009588673    1.703    0.413
       139  -8.2423    120.7614     14.0129   4.9035382773e+01   5.2878514364e+01    0.1989417    0.1744089 -73.88  0.001160708    1.327    0.247
       140  -7.7901    105.3394     14.2930   5.2618850050e+01   5.6433476749e+01    0.1421016   0.08611604  33.72 0.0007027557    1.650    0.394
       141  -8.6559     97.1808    244.8728   1.0936869869e+02   1.0947681107e+01    0.1929661    0.1400606  58.78 0.0004021129    1.228    0.185
       142  -8.6085    208.9185    240.2767   8.6314255529e+01  -5.4441607820e+00    0.1964511    0.1540597  -6.05 0.0002725885    1.195    0.163
       143  -9.3498    188.1360    233.8206   8.9322240342e+01  -1.3698677908e+00    0.2798305    0.1905439 -42.58  0.001622817    1.721    0.419
       144  -8.3908    247.0714    234.5184   7.8427023366e+01  -9.9231503043e+00    0.1636283   0.09814561  28.68 0.0004404502    1.510    0.338
       145  -8.2008    206.9655    222.0137   8.3670823351e+01  -2.4914638809e+00    0.1915525    0.1643899  13.03 0.0005287473    1.079    0.073
       146  -7.0736     55.7251    220.2506   1.1554023683e+02   2.1507305043e+01    0.1232124   0.07588125  62.83 0.0006818924    1.453    0.312
       147 -10.3534    227.4265    216.2323   7.8783480254e+01  -4.7262623097e+00     0.224087    0.1896657   8.14 0.0002782708    1.103    0.093
       148  -7.2392    101.0155    214.9970   1.0514291266e+02   1.6187134402e+01    0.1530823    0.1346762  58.50 -0.007547014    1.019    0.019
       149  -7.1730     56.0077    214.9418   1.1500457250e+02   2.2592208082e+01    0.1451153    0.1183598  65.70            0    1.020    0.019
       150  -8.8608    197.0157    212.5212   8.3986138252e+01   5.9408491983e-01    0.2172464    0.1830408 -23.11  0.001325974    1.213    0.176
       151  -8.1565    197.8505    207.9569   8.3006493909e+01   1.2105307363e+00    0.1928821      0.17171  11.10  0.000424387    1.061    0.058
       152  -8.0565    216.9724    207.3671   7.9149484114e+01  -1.7910263484e+00    0.1831169    0.1416816  21.56 0.0004031322    1.164    0.141
       153  -8.1474     11.5415    206.5371   1.2362023786e+02   2.9294939062e+01    0.1165303   0.09015596  77.75 0.0003159944    1.026    0.025
       154  -8.0769    224.5701    204.3099   7.7153534153e+01  -2.5034262309e+00    0.2112596    0.1468402  41.78 0.0005086869    1.606    0.377
       155  -7.3178    139.0153    198.9829   9.4150760282e+01   1.3150711083e+01     0.163201    0.1489524  39.27            0    1.002    0.002
       156  -7.7665    132.9939    199.0051   9.5539453843e+01   1.4206702300e+01    0.1963811    0.1622856   3.19  0.001047044    1.461    0.316
       157  -7.8281    222.9418    187.9339   7.4348671022e+01   3.6804854344e-01    0.1898995    0.1509111  -1.34  0.001105056    1.173    0.148
       158  -8.1571    186.8747    187.3268   8.1419011049e+01   6.7511180928e+00     0.206046    0.1893078 -41.59 0.0003313908    1.216    0.177
       159  -7.3384    157.3141    182.3065   8.6963863849e+01   1.3231757248e+01    0.1482498    0.1135645  -0.46 0.0004217052    1.623    0.384
       160  -8.2200     51.0094    175.7190   1.1210491793e+02   3.2112177328e+01    0.2163657    0.1692184 -79.12  0.000404569    1.160    0.138
       161  -7.4877    133.3390    148.3152   8.5856050515e+01   2.5375991635e+01    0.1593363    0.1241637  -5.05 0.0007047781    1.701    0.412
       162  -8.4494     68.4734    145.5090   1.0314431109e+02   3.7269426888e+01    0.2581391    0.2110492 -59.55 0.0009403522    1.162    0.139
       163  -8.1489     65.5214    143.5047   1.0364908713e+02   3.8173579676e+01    0.2263483    0.1825401  54.99 0.0007592379    1.280    0.219
       164  -7.8031    138.6181    139.5887   8.2539973390e+01   2.6301541154e+01    0.3141357    0.1431941  28.95 0.0009487749    3.411    0.707
       165  -8.9473    191.8449    134.2360   6.8969261722e+01   1.6069679219e+01    0.3087766    0.2344474 -34.58 0.0004472337    1.287    0.223
       166  -7.4354    125.3585    136.2757   8.5254872507e+01   2.9771221215e+01    0.1579952    0.1247025   0.10  0.000380025    1.656    0.396
       167  -8.5694     65.9360    129.8603   1.0107194409e+02   4.1523519031e+01    0.2368435    0.1654301 -16.15  0.001090997    2.033    0.508
       168  -7.5600     85.1915    121.6155   9.3455857966e+01   4.0678461207e+01     0.208828    0.1450807  19.60 0.0009451701    1.750    0.429
       169  -8.8044     15.0251    118.2389   1.1488221339e+02   4.9612593099e+01    0.1658149    0.1192407 -14.97 0.0005002969    1.774    0.436
       170  -7.8714    118.4717    119.3578   8.3081459214e+01   3.5102651660e+01    0.3167416    0.1423064  28.86 0.0009560106    3.448    0.710
       171  -8.2715    100.2151    118.6895   8.8216220939e+01   3.8782495574e+01    0.4069853    0.2216086  21.86  0.001452333    2.770    0.639
       172  -8.5594     20.5108    114.5219   1.1265337346e+02   5.0116698942e+01    0.1306168    0.1077014 -63.52 0.0008099225    1.036    0.035
