#   1 NUMBER                 Running object number                                     
#   2 MAG_AUTO               Kron-like elliptical aperture magnitude                    [mag]
#   3 X_IMAGE                Object position along x                                    [pixel]
#   4 Y_IMAGE                Object position along y                                    [pixel]
#   5 X_WORLD                Barycenter position along world x axis                     [deg]
#   6 Y_WORLD                Barycenter position along world y axis                     [deg]
#   7 A_WORLD                Profile RMS along major axis (world units)                 [deg]
#   8 B_WORLD                Profile RMS along minor axis (world units)                 [deg]
#   9 THETA_WORLD            Position angle (CCW/world-x)                               [deg]
#  10 FWHM_WORLD             FWHM assuming a gaussian core                              [deg]
#  11 ELONGATION             A_IMAGE/B_IMAGE                                           
#  12 ELLIPTICITY            1 - B_IMAGE/A_IMAGE                                       
         1 -14.2408    209.2142     10.6191   4.1249473995e+01   3.0030926069e+01     4.840726     2.240139  24.94   0.01630724    3.618    0.724
         2 -13.2560    173.4643     53.5866   5.9725060591e+01   3.4433115898e+01     1.980212     1.263018  21.44  0.005693364    2.153    0.535
         3  -9.6365     67.6581      5.6792   6.6245922326e+01   6.7312608119e+01    0.1418198   0.09921755  12.66 0.0004726865    1.722    0.419
         4 -12.3514    248.0124    246.8957   8.6670478097e+01  -2.2310227307e+00    0.6977713    0.4065665  35.52  0.005649574    1.270    0.213
         5 -12.6153    249.2546    230.8331   8.4430899712e+01  -1.2926573251e+00    0.5809184    0.3694769   6.52  0.004650998    1.433    0.302
         6 -19.5095     26.4621    146.4939   1.1600678793e+02   4.2851267816e+01     16.52676     4.378637 -80.77   0.06780503    3.763    0.734
         7 -11.0715     67.9359    207.0707   1.1169210457e+02   2.7164153538e+01    0.1701028    0.1173983  49.79 0.0002843939    1.134    0.118
         8  -8.9079     73.3007    205.4037   1.1058272959e+02   2.6756018417e+01    0.2643045    0.1595264  29.59  0.001670475    2.038    0.509
         9  -9.7591     75.1416    249.5791   1.1312783591e+02   2.0225161638e+01    0.1995053   0.09524988 -61.53  0.001423112    2.901    0.655
        10 -11.2841     59.3634    203.2414   1.1301426666e+02   2.8818675841e+01    0.2278378    0.2025432 -27.15  0.001441934    1.985    0.496
        11  -8.8458     87.7552    202.3949   1.0765266217e+02   2.5337247676e+01    0.1465757    0.0877889  36.66 0.0005566915    1.595    0.373
        12 -10.7781    193.1078    195.3852   8.7924569491e+01   1.0106113970e+01     0.632711    0.3444571 -58.73   0.00274352    5.189    0.807
        13 -10.4483    204.5851    199.2906   8.6632162687e+01   7.8582759845e+00    0.2108975    0.1070779  29.90  0.001203324    1.798    0.444
        14 -11.4477    150.0807    196.5800   9.5523598318e+01   1.6906831832e+01    0.3499961    0.2482511  38.32  0.001963669    1.169    0.144
        15 -11.5442     61.9402    196.1855   1.1204182684e+02   2.9667406309e+01    0.2553246    0.2085263 -40.89   0.00136207    2.059    0.514
        16  -9.2225     82.4614    194.9543   1.0800551735e+02   2.7240008718e+01    0.2195058    0.1132605  54.09  0.001239257    1.543    0.352
        17  -8.6026    159.5086    194.5023   9.3566116114e+01   1.5665526333e+01    0.1177673   0.09185477  44.84 -9.099778e-05    1.059    0.055
        18  -8.3249     78.3140    193.1966   1.0865283348e+02   2.8081881410e+01   0.09620886   0.07404627  35.39 0.0001914893    1.466    0.318
        19  -9.7307    156.6730    190.0128   9.3462534740e+01   1.6725381034e+01    0.1523388    0.1338917  37.54 0.0003617916    1.122    0.108
        20 -10.2025     77.0135    176.5565   1.0739065171e+02   3.1115318296e+01    0.3307759    0.1901096  73.46  0.001007534    1.830    0.454
        21  -9.2745     73.5871    189.5556   1.0926376311e+02   2.9312558782e+01    0.1582825   0.07677159  49.82            0    1.578    0.366
        22 -11.9175     72.0268    182.7479   1.0898475736e+02   3.0687104101e+01    0.5783145    0.4940328 -82.56  0.004408357    1.334    0.250
        23 -10.7454    150.9644    187.9947   9.4224873525e+01   1.7940557235e+01    0.2063326     0.169733 -50.31  0.001284866    1.534    0.348
        24 -10.5697    141.4203    187.7091   9.5952494187e+01   1.9541406131e+01    0.2044016    0.1280454  29.95  0.001180901    1.723    0.420
        25 -11.3375    133.9758    186.7386   9.7225137580e+01   2.0887590167e+01    0.2565307    0.1675234 -67.16  0.001555336    2.059    0.514
        26  -9.4940    238.0000    185.0038   7.9244071184e+01   4.0320454178e+00    0.1612433   0.05948352 -27.13 0.0008052855    2.962    0.662
        27 -11.4737    145.1777    181.4592   9.4398042237e+01   1.9833973935e+01    0.2961474    0.2607146 -15.68  0.001211328    1.469    0.319
        28 -11.9736    141.7183    175.5121   9.4214881883e+01   2.1304185113e+01     0.620308    0.4189897  86.48  0.003212089    2.373    0.579
        29 -11.1732     99.3354    180.9173   1.0329109566e+02   2.7189755978e+01    0.2759345    0.2239819  36.30 0.0007271937    1.351    0.260
        30 -10.1845    151.4973    180.8302   9.3122480006e+01   1.8866031567e+01    0.2534608    0.1869911  88.27  0.001390852    2.023    0.506
        31  -9.7180    189.0698    178.4093   8.5999793560e+01   1.2768100186e+01    0.3107198    0.2141168  64.74  0.001085428    2.064    0.516
        32  -9.8630    187.7034    173.2432   8.5394986362e+01   1.3647407847e+01     0.312901    0.2062048 -60.19  0.001683419    2.640    0.621
        33  -9.6645    238.3355    176.3043   7.7736545250e+01   4.7971947805e+00    0.1212395   0.06984466  19.75 0.0002729942    1.666    0.400
        34  -9.9105    240.3927    169.2036   7.6196116857e+01   5.1513694718e+00    0.1413261    0.1010394 -27.87  0.000524749    1.593    0.372
        35  -9.6547     62.9919    221.1557   1.1349255629e+02   2.5601051662e+01    0.2895139    0.1034591  58.25  0.001600241    2.424    0.587
        36  -9.3735    167.7680    231.2100   9.6657702435e+01   1.0060097798e+01    0.1690219    0.1086159  38.95 0.0003958579    1.110    0.099
        37  -8.4466    149.2971    155.6660   8.9617936721e+01   2.3072967866e+01    0.1263357   0.09592544  75.96 0.0004873871    1.647    0.393
        38 -10.9298    133.9480    146.1236   9.1150904007e+01   2.7482212775e+01     1.026149    0.2808644 -55.42  0.003014651    6.070    0.835
        39  -9.8726    187.7268    152.1574   8.1682875765e+01   1.6410822359e+01     0.186223    0.1666562 -65.70 0.0007523818    1.479    0.324
        40 -10.0666    113.2326    151.3561   9.6493467010e+01   3.0193470589e+01     0.334535    0.2019866  76.63  0.001366307    2.373    0.579
        41  -9.5242    174.2443    148.6292   8.3502354166e+01   1.9472237353e+01    0.2414619    0.2061457 -88.60   0.00112456    1.562    0.360
        42 -10.1218    143.2418    145.5216   8.9085138608e+01   2.5863816782e+01    0.2969753     0.179544 -68.19   0.00137348    2.544    0.607
        43 -11.4581    108.4137    138.2392   9.5490237748e+01   3.3478177277e+01    0.5682566    0.3098364 -42.19   0.00266351    2.447    0.591
        44  -8.8378    141.6154    140.2870   8.8472520294e+01   2.7066447887e+01    0.1386118   0.09806716  72.04 0.0007011562    1.745    0.427
        45 -11.8273     96.9680    137.3550   9.8035029055e+01   3.5565748337e+01    0.2876031    0.2337198  65.62 0.0001536047    1.094    0.086
        46 -10.4643    135.7794    130.4096   8.7850250391e+01   2.9937017386e+01    0.5755398    0.1123502 -48.85  0.001577302    5.923    0.831
        47 -10.2671    115.5086    128.8768   9.2183940164e+01   3.4038337514e+01    0.2642209    0.2461477 -43.10 0.0005724464    1.263    0.208
        48  -9.6327    160.8214    128.3882   8.2117142284e+01   2.5288179852e+01    0.3091207    0.2446501 -59.75  0.001707439    1.506    0.336
        49 -10.4918    103.2268    124.6391   9.4359242641e+01   3.7063644267e+01    0.2605653     0.225698  15.70 0.0006194352    1.528    0.346
        50 -10.8862    106.0125    130.8199   9.4789027601e+01   3.5342760746e+01    0.3485106    0.2935444 -89.02  0.001193271    1.188    0.158
        51 -10.3212    120.8869    122.6817   8.9721183219e+01   3.4243051634e+01    0.3732207    0.2551467 -14.48  0.001609603    2.900    0.655
        52 -10.6446      7.2416    215.0000   1.2284074486e+02   3.2370069930e+01    0.1275024   0.04098544  35.21 0.0006105937    2.579    0.612
        53  -9.1366    151.1265    118.1641   8.1936368774e+01   2.9031195048e+01    0.2579426    0.1785787 -70.47 0.0009613131    2.037    0.509
        54  -9.4339    110.6069    118.1407   9.1295876996e+01   3.7057576024e+01    0.2149407    0.1704731  58.92 0.0003274621    1.181    0.153
        55  -9.9514    231.2212    113.7358   6.6443003010e+01   1.2830061963e+01    0.2559907    0.2114448  28.42 0.0007846081    1.123    0.110
        56  -9.7236    167.6385    112.6021   7.7233661463e+01   2.6452670840e+01    0.3409151    0.2521819 -82.53  0.001540678    2.013    0.503
        57  -9.9387    134.6986    111.3531   8.4066607324e+01   3.3682664701e+01    0.3859166    0.1280987 -46.98  0.001335753    3.202    0.688
        58 -11.5578    118.7237    109.9351   8.7566067260e+01   3.7164912756e+01    0.5656143     0.450233  59.72  0.003095016    1.209    0.173
        59  -9.6856    205.3659    110.0924   6.9688891152e+01   1.8640947282e+01    0.3008493    0.1939531  43.59 0.0009481689    1.470    0.320
        60  -9.5807    134.6201    105.0958   8.2629358261e+01   3.4881838319e+01    0.3206401    0.1380202 -44.76  0.001246718    2.431    0.589
        61  -9.4806    184.5226    211.7959   9.1609726651e+01   9.6492802220e+00    0.1716998    0.1071035 -27.78  0.001142134    2.114    0.527
        62  -9.1372    184.3199     84.0265   6.6765057531e+01   2.7175409037e+01    0.2137669    0.1914534 -30.96  0.000727687    1.125    0.111
        63  -8.4215    153.6691     81.7158   7.2184197923e+01   3.4881566506e+01    0.1519969     0.115637  21.95 0.0002985664    1.613    0.380
        64 -10.9537     71.9394    245.2565   1.1339609008e+02   2.1163857724e+01    0.1926386    0.1441438 -87.38  0.001718242    1.580    0.367
        65  -8.7209    175.4958    211.5035   9.3054820877e+01   1.1067856080e+01    0.1123837   0.08342602  37.20 0.0008106437    1.012    0.012
        66 -12.9485    187.9446     39.7644   5.2970003885e+01   3.2487554250e+01    0.8648124    0.7213945  22.09  0.002982511    1.308    0.236
        67 -12.5320    192.9944     33.6090   5.0299495831e+01   3.1897614590e+01    0.6135941    0.4779375  -5.69  0.001365645    1.379    0.275
