#   1 NUMBER                 Running object number                                     
#   2 MAG_AUTO               Kron-like elliptical aperture magnitude                    [mag]
#   3 X_IMAGE                Object position along x                                    [pixel]
#   4 Y_IMAGE                Object position along y                                    [pixel]
#   5 X_WORLD                Barycenter position along world x axis                     [deg]
#   6 Y_WORLD                Barycenter position along world y axis                     [deg]
#   7 A_WORLD                Profile RMS along major axis (world units)                 [deg]
#   8 B_WORLD                Profile RMS along minor axis (world units)                 [deg]
#   9 THETA_WORLD            Position angle (CCW/world-x)                               [deg]
#  10 FWHM_WORLD             FWHM assuming a gaussian core                              [deg]
#  11 ELONGATION             A_IMAGE/B_IMAGE                                           
#  12 ELLIPTICITY            1 - B_IMAGE/A_IMAGE                                       
         1 -13.5331      3.0813     50.3479   1.2619338391e+02   6.4133471479e+01     1.684623    0.3438463 -58.09  0.001335677    4.473    0.776
         2 -13.3962    199.2538     29.0349   6.5780319793e+01   3.1597243351e+01     1.275352     1.213945  69.58  0.007030194    1.189    0.159
         3 -13.3910    215.7703     10.7929   5.9801424052e+01   2.9807403412e+01    0.9654533    0.7928599  58.48   0.00420867    1.357    0.263
         4 -15.1675     10.8777    143.2536   1.4029611254e+02   4.4222735354e+01     9.821662     3.296742 -82.73   0.03341201    4.612    0.783
         5 -12.0275      3.6305      3.0817   1.0977412268e+02   7.1411075338e+01    0.4022608    0.3095243 -26.74  0.003287819    1.393    0.282
         6 -11.2748     96.9708    245.6188   1.3347901350e+02   1.1391804344e+01    0.3714464    0.2069734 -71.48  0.001977361    2.071    0.517
         7 -11.2328    249.2198    248.4126   1.0464494988e+02  -1.3696249368e+01    0.3270269    0.2540171 -17.51   0.00227936    1.269    0.212
         8 -11.7027    239.4908    248.0022   1.0631215002e+02  -1.2267052792e+01    0.3867953    0.2077975  15.34  0.001999865    2.103    0.524
         9 -10.2003    156.8113    249.8115   1.2233756629e+02   7.7780192345e-01    0.1790138    0.1388086  58.49  0.001080042    1.344    0.256
        10 -11.1502    139.7956    249.9102   1.2568364791e+02   3.6404197437e+00    0.4330856    0.1366222  38.68  0.001667017    2.837    0.647
        11 -11.3680     46.4508    247.7751   1.4296552066e+02   1.8133123825e+01    0.4763134     0.213128 -70.17  0.002645539    2.173    0.540
        12 -10.8513     40.6723    246.3353   1.4385982116e+02   1.9125685888e+01    0.3879854    0.1588751 -86.53  0.001861232    2.840    0.648
        13 -11.2785     29.7911    249.5972   1.4594107465e+02   1.9813320662e+01     0.419097    0.1635794  48.96  0.002340393    2.043    0.510
        14 -12.3458     36.1001    244.3001   1.4449929162e+02   2.0067138544e+01    0.5581967    0.4454957 -66.61  0.004096294    1.537    0.349
        15 -12.1972      4.6942    248.1237   1.4991807173e+02   2.2814391059e+01    0.9227549     0.387831  50.80  0.005760979    1.894    0.472
        16 -12.7915     10.9547    240.9808   1.4851069652e+02   2.3507521476e+01     1.129709    0.4649445  65.11   0.00632257    2.154    0.536
        17 -10.4003     81.5103    248.8509   1.3673705516e+02   1.3128951017e+01    0.2087197    0.1374059  62.62  0.001123829    1.300    0.231
        18 -10.8492    198.2088    246.4725   1.1376675275e+02  -5.6610774072e+00    0.2180231    0.1803231 -26.69 0.0008664951    1.351    0.260
        19  -9.9241     88.0209    249.4767   1.3558643677e+02   1.2045037242e+01    0.1920147    0.1010079  44.74  0.001035203    1.604    0.377
        20 -10.4060    234.8331    238.8780   1.0560269559e+02  -1.0372877977e+01    0.2464762    0.1525354 -59.44  0.001068367    4.106    0.756
        21 -10.4717     53.1265    237.9511   1.4096237867e+02   1.9164382120e+01    0.1892704    0.1413795  72.64 0.0006115359    1.064    0.061
        22 -10.9520    248.1123    236.5386   1.0279719973e+02  -1.2015042794e+01    0.2510872    0.1412123 -15.19  0.001343773    1.962    0.490
        23 -13.1353     91.8967    227.1268   1.3234855999e+02   1.5764648591e+01      2.60172    0.2336866  47.45  0.004591551   13.925    0.928
        24 -12.7140    121.0937    231.6707   1.2697856076e+02   1.0100007835e+01     1.495557    0.1607728  41.57  0.003569261    6.962    0.856
        25 -10.0904    225.6113    249.1948   1.0904299890e+02  -1.0370916011e+01    0.1673105    0.1043272 -19.88 0.0009581589    1.737    0.424
        26 -13.7777     34.6307    223.9385   1.4318440367e+02   2.4254582256e+01    0.6960633    0.5332776  79.60  0.002440091    1.016    0.016
        27 -11.9973      5.6618    227.4914   1.4857814504e+02   2.6641106995e+01    0.3934721    0.3687015  49.63  0.002497429    1.558    0.358
        28  -9.8478    228.6595    228.3159   1.0489183857e+02  -7.9290106463e+00    0.1720457     0.156799  76.11  0.001090522    1.725    0.420
        29  -9.1345    171.6888    222.6731   1.1514429007e+02   2.7869737893e+00    0.1372539    0.1027828   6.10 0.0006546473    1.662    0.398
        30  -9.6127     75.3783    216.2637   1.3443961361e+02   2.0503410828e+01    0.2410797    0.1286031  57.02  0.001195964    1.804    0.446
        31  -9.8139      6.8051    215.2135   1.4759126420e+02   2.8979260827e+01    0.1701124     0.115355  76.92 0.0004828039    1.144    0.126
        32 -12.4459      9.5354    207.2334   1.4653743254e+02   3.0355701865e+01    0.6793633    0.5391118  25.23  0.003375151    1.804    0.446
        33  -8.6217    152.5284    212.9748   1.1754119220e+02   8.1032189651e+00    0.1840159    0.1405453 -51.37  0.000352639    1.453    0.312
        34  -8.1992    221.6940    213.6949   1.0354733678e+02  -4.5625828670e+00    0.1352575   0.09388873   4.44 0.0004589515    1.604    0.376
        35  -9.7795     34.6739    202.5697   1.4129378093e+02   2.8730255457e+01    0.2006838    0.1577426 -85.79 0.0005389694    1.087    0.080
        36 -11.6291     57.4605    197.4547   1.3601603131e+02   2.7066627709e+01    0.3325575    0.2416822 -65.80 0.0005773657    1.329    0.248
        37 -11.7724     64.0486    189.1089   1.3354778600e+02   2.8051698063e+01    0.2694952    0.2363159 -65.07 0.0004458581    1.212    0.175
        38 -11.9091     14.1743    122.5306   1.3672206420e+02   4.8622145524e+01    0.5289833    0.2652924  46.17  0.002787426    2.455    0.593
        39 -10.6954     74.8402    176.4140   1.2928715224e+02   2.9433249456e+01    0.2386524    0.2079555 -74.43 0.0002996727    1.079    0.073
        40 -13.1367     61.3666    174.2245   1.3216159348e+02   3.1819704333e+01       0.5352    0.2777888 -45.39   0.00202767    2.329    0.571
        41  -9.3895     93.8956    171.1656   1.2384520715e+02   2.7688769853e+01    0.2172904    0.1778049  76.13 0.0004765186    1.254    0.202
        42 -11.6917     82.7061    167.2890   1.2593689356e+02   3.0376848400e+01    0.6501736    0.6126468 -47.65  0.003902178    1.184    0.155
        43 -12.5655     44.4664    213.2544   1.4035918906e+02   2.5294813939e+01    0.7490355    0.5527292 -71.48  0.003554854    1.308    0.236
        44  -9.8996     95.9815    151.7287   1.1975710373e+02   3.1882520920e+01    0.2917402    0.2832877 -88.89 0.0007726932    1.038    0.036
        45  -8.9853     99.0255    147.7159   1.1816518549e+02   3.2300976204e+01    0.2144256    0.1960849 -21.60 0.0003595653    1.239    0.193
        46 -11.8906     84.3950    150.7178   1.2257767230e+02   3.4008013348e+01    0.3074875    0.2440566 -43.71 0.0005463154    1.318    0.241
        47 -12.0582     67.3475    143.4580   1.2574083612e+02   3.8223083816e+01    0.6845444    0.4402001  63.80  0.003289352    1.952    0.488
        48  -9.4380    108.3859    136.9604   1.1340721471e+02   3.3122415844e+01     0.418231    0.2674083 -15.99  0.001568193    2.875    0.652
        49 -10.3299     95.3534    134.2553   1.1631779701e+02   3.6065419506e+01    0.2549915    0.2365683 -23.50 0.0004249575    1.159    0.137
        50 -10.9902     26.0825    128.6134   1.3439270693e+02   4.6294108601e+01    0.2563429    0.2084398  59.17  0.001150415    1.400    0.286
        51  -8.3088     73.6977    127.3236   1.2084902339e+02   4.1093718740e+01    0.1400705    0.1073875  81.65 0.0007029572    1.635    0.388
        52  -9.0392    105.9756    123.6908   1.1100220916e+02   3.6588583204e+01    0.1954203    0.1830539  39.80 0.0003026506    1.095    0.087
        53  -9.9804    167.6400    112.7242   9.2759665333e+01   2.5762504478e+01    0.3224843    0.2629831 -77.81 0.0008374752    1.465    0.317
        54 -10.3861    242.9992     92.7431   7.4399884009e+01   1.2271558998e+01    0.2329317    0.1519605   1.42 0.0009015793    3.543    0.718
        55  -9.5745    242.3201     86.3434   7.3101536850e+01   1.3462541784e+01    0.1309872    0.1084118   9.69 0.0005015973    1.724    0.420
        56  -9.7172     61.8762     79.3297   1.1282739025e+02   5.3110977362e+01    0.2917906    0.2195046  65.68  0.001539248    2.108    0.526
        57  -9.8526    158.9864     77.5219   8.5317345779e+01   3.4379595076e+01    0.2303015    0.2061078 -38.99 0.0006607036    1.166    0.142
        58  -8.2943     55.4726     74.4894   1.1361364418e+02   5.4886098047e+01    0.1272036    0.1147168 -29.14 0.0008082024    1.095    0.087
        59 -12.7242     29.4075    230.7262   1.4466680376e+02   2.3492083126e+01    0.2879788    0.2229636 -74.34 0.0007443593    1.352    0.260
        60 -10.4918    163.1477    248.8905   1.2096352241e+02  -1.4922527146e-01     0.201256    0.1633299  54.70  0.001251376    1.253    0.202
        61 -11.6541    124.3210    249.8900   1.2869764538e+02   6.2244033121e+00    0.6339834    0.1386904  41.53  0.002142426    3.726    0.732
        62 -10.5472     65.2921    248.7892   1.3970315022e+02   1.5451212844e+01    0.2674674    0.1749978  77.43  0.001042842    1.399    0.285
