#   1 NUMBER                 Running object number                                     
#   2 MAG_AUTO               Kron-like elliptical aperture magnitude                    [mag]
#   3 X_IMAGE                Object position along x                                    [pixel]
#   4 Y_IMAGE                Object position along y                                    [pixel]
#   5 X_WORLD                Barycenter position along world x axis                     [deg]
#   6 Y_WORLD                Barycenter position along world y axis                     [deg]
#   7 A_WORLD                Profile RMS along major axis (world units)                 [deg]
#   8 B_WORLD                Profile RMS along minor axis (world units)                 [deg]
#   9 THETA_WORLD            Position angle (CCW/world-x)                               [deg]
#  10 FWHM_WORLD             FWHM assuming a gaussian core                              [deg]
#  11 ELONGATION             A_IMAGE/B_IMAGE                                           
#  12 ELLIPTICITY            1 - B_IMAGE/A_IMAGE                                       
         1 -11.5379     71.8984     41.1244   7.3713709786e+01   5.9813561994e+01    0.4442251    0.3715883 -63.34  0.002526663    1.743    0.426
         2 -10.9369     39.0556     15.3907   7.6398152867e+01   6.8682893202e+01    0.3040803     0.137739 -18.17  0.001212006    3.062    0.673
         3 -12.1611    216.3393     13.5351   3.5713430940e+01   2.9757051797e+01    0.3848225    0.2971859  77.83  0.001133385    1.206    0.171
         4 -10.3157     65.2262     11.2715   6.3394650385e+01   6.5007505160e+01    0.1495549    0.1436874  13.81 0.0005031332    1.318    0.241
         5 -13.0475    184.3557      5.4055   3.6863714769e+01   3.8134998131e+01    0.5754218      0.48987 -47.98  0.003706319    1.254    0.202
         6  -9.7240     44.1399      8.8336   7.0817756281e+01   6.8792003489e+01    0.1637644    0.1136627  10.06 0.0003580156    1.267    0.211
         7 -10.9846     57.4253      6.4475   6.4045486761e+01   6.6905950938e+01    0.2864563    0.2052259  25.12 0.0009782945    1.168    0.144
         8 -10.8548    166.2067      1.3913   3.7821893654e+01   4.2924602504e+01    0.2365778    0.1030136  67.48 0.0004609848    1.898    0.473
         9 -10.0490    158.3297    231.6595   9.5057567431e+01   3.7395112441e+00    0.1301932   0.09667566  62.77 0.0007051596    1.741    0.426
        10 -10.1819      7.9656    250.7750   1.2649603663e+02   2.0864118561e+01    0.1327553   0.07206199  40.52 0.0006459779    1.665    0.399
        11 -11.6932     96.0308    224.0973   1.0734045941e+02   1.5097010156e+01    0.3881434    0.3173644 -85.98  0.002406654    1.293    0.226
        12 -10.0288    104.4545    225.0045   1.0563024758e+02   1.3630309137e+01    0.1817979    0.1285768 -65.03  0.001026418    1.583    0.368
        13 -10.8402    149.0028    222.0810   9.5594899758e+01   6.9617948951e+00     0.382219    0.1735007 -47.14  0.001695024    2.503    0.600
        14 -10.3029    211.4160    218.1848   8.2147824246e+01  -2.5963295202e+00    0.1670782    0.1199808 -45.35 0.0009509805    1.725    0.420
        15 -10.5511    239.5826    214.7795   7.6321281694e+01  -6.2747835151e+00     0.164172    0.1085479 -39.70 0.0009544148    1.711    0.416
        16 -10.6401    218.0526    211.8471   7.9755047432e+01  -2.6536975561e+00    0.1892742    0.1707685  25.55  0.001230835    1.277    0.217
        17 -10.8566    116.1612    209.3439   1.0097430699e+02   1.4927944375e+01     0.362289    0.1092012 -61.58  0.001124886    4.665    0.786
        18 -11.6169     49.7938    201.6900   1.1512559344e+02   2.6255481355e+01    0.4350476    0.2127074  61.83  0.002061098    2.108    0.526
        19 -11.7996    160.2080    192.6559   8.8235528001e+01   1.0605815010e+01    0.4867061    0.3704926  71.66  0.002062529    1.823    0.451
        20 -10.8540    156.4639    187.4990   8.8134524422e+01   1.2329291441e+01    0.2856436    0.2401791  73.20  0.001363602    1.468    0.319
        21  -9.9019    133.3174    195.6740   9.4916863576e+01   1.4844623442e+01    0.1464495    0.1080109  69.61 0.0002970228    1.675    0.403
        22 -10.1726     94.6751    187.0066   1.0279819669e+02   2.3302840323e+01     0.228229    0.1136374 -86.17 0.0007050696    4.320    0.769
        23 -10.4469    183.1762    182.9031   8.1340926657e+01   8.2605922256e+00    0.3386161    0.1862254 -35.00  0.001479986    1.942    0.485
        24 -11.0028     37.3930    179.2218   1.1580326634e+02   3.2840086420e+01    0.1891282     0.107069 -87.50 0.0009548973    1.703    0.413
        25 -10.0720    218.0000    176.0100   7.2910950419e+01   3.2148844958e+00    0.2312938   0.07361892 -39.69 0.0008127608    3.014    0.668
        26  -9.7251    159.3320    175.6638   8.5209501496e+01   1.4221456350e+01    0.1505504    0.1186673  78.17 0.0005087234    1.736    0.424
        27 -10.0729     76.3560    175.6596   1.0571976317e+02   2.8755524870e+01    0.1545618   0.09728995  68.00 0.0007039569    1.815    0.449
        28  -9.9311     56.4656    169.7388   1.0999645587e+02   3.2878415682e+01    0.2735049    0.1271187 -74.49  0.001153831    2.210    0.547
        29 -10.3406     44.3601    168.3228   1.1291189837e+02   3.4666927521e+01    0.1329821   0.09583491 -38.74 0.0007043179    1.776    0.437
        30 -10.1865    138.6076    164.4241   8.7908394356e+01   2.0671748682e+01    0.2949842    0.1422176 -64.30 0.0009489978    3.370    0.703
        31 -11.6116    106.6272    158.2574   9.4911289352e+01   2.8074304741e+01    0.6367084    0.3767047  70.55  0.002362387    2.748    0.636
        32 -10.4014     92.6537    160.3349   9.9024346455e+01   2.9946739455e+01    0.1586582    0.1088846  71.25 0.0007048959    1.771    0.435
        33 -10.0389     52.1924    160.1859   1.0986177407e+02   3.5734532858e+01    0.1961198    0.1448285  73.59 0.0005974207    1.358    0.264
        34 -11.1920    118.0239    157.5528   9.1766598336e+01   2.6176251215e+01    0.3769315    0.2183657 -52.99 0.0009050344    1.746    0.427
        35 -10.4811     22.2299    159.1291   1.1754185250e+02   3.9123046360e+01    0.2572827     0.127601  57.10  0.001247367    2.120    0.528
        36 -10.6467    218.4712    156.4445   6.8743706824e+01   6.5752604439e+00     0.307621    0.1297545 -39.69   0.00122393    2.222    0.550
        37 -10.8003    167.3496    156.5179   7.9379110470e+01   1.6641865506e+01    0.3096863    0.1932414 -47.95  0.001351731    1.655    0.396
        38 -10.3826    189.5087    149.5603   7.2967149891e+01   1.3529142129e+01    0.2827702    0.1361506 -51.74  0.001039833    2.487    0.598
        39 -10.9121    106.7385    145.2012   9.2290413253e+01   3.1200920538e+01    0.4790156    0.2855608  86.24  0.001567501    3.568    0.720
        40 -10.3781     55.7686    146.1597   1.0686510533e+02   3.8771710034e+01    0.2497467    0.1299689  68.17 0.0009549356    2.870    0.652
        41 -10.4074    148.4831    144.9954   8.1297934140e+01   2.3034709565e+01    0.2241708    0.1391498 -70.96 0.0008103208    2.607    0.616
        42 -10.3106    132.1494    131.9796   8.2438899408e+01   2.9382938108e+01    0.2649901    0.1874747 -79.57  0.001081668    2.042    0.510
        43 -10.8703     82.8785    131.6226   9.6316948032e+01   3.8590673809e+01    0.3094956    0.1988875 -77.44  0.001087594    1.931    0.482
        44 -11.9328     99.0363    128.5740   9.0879663425e+01   3.6618344633e+01    0.5572246    0.3620793  82.39  0.002130682    2.604    0.616
        45 -11.1667     43.0196    121.8517   1.0670957109e+02   4.6287632710e+01    0.5910215    0.2610833 -81.39  0.002058409    3.474    0.712
        46 -11.0813     28.0275    122.6726   1.1150425053e+02   4.7519989781e+01    0.4650245    0.2073991  82.19  0.001525451    4.500    0.778
        47 -11.1836     94.0476    121.9193   9.0833731604e+01   3.9109438305e+01    0.2733465    0.2195334  30.37 0.0003153622    1.322    0.243
        48 -11.6154    193.2366    118.3594   6.4891244931e+01   1.8866244063e+01    0.5584057    0.4134362 -77.57  0.002154068    1.875    0.467
        49 -10.3596     71.0280    120.0409   9.7515250176e+01   4.3242846422e+01    0.2389084    0.1754113  75.90  0.001038815    1.735    0.423
        50 -10.7165    108.6289    113.4285   8.4409475156e+01   3.8432066696e+01    0.3942947    0.1968324 -63.65  0.001302477    3.010    0.668
        51 -10.9718     78.8605    112.9866   9.3452402598e+01   4.3785920622e+01    0.3577313    0.2021096 -79.06  0.001249334    3.186    0.686
        52 -11.2657    159.6393    112.2237   7.0581147260e+01   2.7696412686e+01    0.3592952    0.2624828 -69.10 0.0008984577    1.756    0.430
        53  -9.9132     92.4816    112.9864   8.9170951889e+01   4.1525344681e+01    0.2144248    0.1352021 -78.49   0.00081003    2.524    0.604
        54 -10.7067    173.9393    110.8365   6.7001096393e+01   2.4698109365e+01    0.3857041    0.2153095 -49.05   0.00124498    1.864    0.463
        55 -11.5029     14.2271    109.0752   1.1387293225e+02   5.1875676889e+01    0.5992711    0.2656761 -75.51  0.002763506    2.074    0.518
        56 -12.3549    140.0831    104.9084   7.3434999961e+01   3.3684227535e+01    0.4659318    0.4196545 -58.34   0.00236194    1.152    0.132
        57 -12.0276     44.5431    100.5835   1.0213355192e+02   5.1316998482e+01    0.7026888    0.4186942 -89.62  0.003001784    2.618    0.618
        58 -11.4427    141.3498    114.6086   7.5694242397e+01   3.1311357961e+01    0.6196254    0.2685383 -43.84  0.002173831    2.307    0.567
        59 -11.7153    127.8850    100.5443   7.5468312559e+01   3.7326248375e+01    0.4853117    0.2246116 -49.86  0.001736745    2.309    0.567
        60 -12.5535    108.4249     99.2352   8.0677126376e+01   4.1697637196e+01    0.8683395     0.532188  66.58   0.00322672    2.687    0.628
        61 -10.9086     62.9810     95.9702   9.4623717448e+01   5.0164942251e+01    0.3659106    0.1916957 -78.07  0.001149259    4.366    0.771
        62 -13.0495    169.6284     91.2061   6.2735888417e+01   2.9528210293e+01    0.4707453    0.3243304 -50.59 0.0005666601    1.500    0.333
        63 -10.9879     34.1472     87.3310   1.0298668748e+02   5.5475865453e+01    0.5606665    0.1725225 -61.20  0.002091704    2.847    0.649
        64 -10.9872     86.4460     86.9112   8.4106507254e+01   4.8550251428e+01    0.3246398    0.2332906  76.79  0.001407595    2.288    0.563
        65 -11.1168     45.3617     81.7542   9.7422132626e+01   5.5613551624e+01     0.246137    0.2160594  30.84 0.0007208195    1.286    0.222
        66 -11.0653    104.3656     83.1363   7.7216811745e+01   4.5962972023e+01    0.3983099    0.2611653 -71.42   0.00156283    2.569    0.611
        67 -10.2566    140.5066     83.0073   6.7107781164e+01   3.8024155047e+01     0.244027    0.1522175 -41.19  0.001041234    1.623    0.384
        68 -10.9749     24.1277     80.1515   1.0519678022e+02   5.7970859694e+01    0.4348755    0.2217234 -84.34  0.001735179    3.390    0.705
        69 -10.6771    250.0000     80.9627   4.7171614040e+01   1.3319860327e+01    0.2209355   0.06572767 -36.81 0.0007992176    2.928    0.659
        70 -11.2098     82.1397     72.9738   8.1314420311e+01   5.2238708357e+01    0.3704072      0.23512 -68.17  0.001506729    2.664    0.625
        71 -11.1668     62.3182     71.2958   8.7989258567e+01   5.5739793169e+01    0.4602896    0.1541484 -50.15  0.001666867    2.836    0.647
        72 -10.8029     51.1727     70.1461   9.1948316805e+01   5.7472196446e+01    0.4069637    0.1883624 -65.19   0.00145248    3.621    0.724
        73 -10.4251    196.2570     67.5168   5.1460668426e+01   2.7243532630e+01     0.358529    0.1311525  56.55  0.001304296    2.660    0.624
        74 -11.9187    237.6989     64.2901   4.4973296708e+01   1.8366153973e+01    0.3062474    0.2153022 -72.50  0.001222108    1.483    0.326
        75 -12.6681    231.6223     60.6675   4.4878461373e+01   2.0204283917e+01    0.5716239    0.3035912 -55.51  0.001987045    1.882    0.469
        76 -12.3433     21.2143     50.6809   9.8829137330e+01   6.4525885627e+01     0.668192    0.4464898  11.91  0.004072059    1.602    0.376
        77 -12.1051     41.9448     63.1223   9.3562328406e+01   6.0027939363e+01    0.5004572    0.2506446  33.91 0.0009157808    2.189    0.543
        78 -12.6643     27.6073     60.1988   9.8773552797e+01   6.2049749755e+01     0.593812    0.5204823  83.79   0.00123533    1.565    0.361
        79 -12.6676     35.2681     57.7320   9.4733267325e+01   6.1840540408e+01    0.5993389    0.5039947  77.36  0.003627259    1.792    0.442
        80 -11.3758      8.9363     55.1800   1.0564274420e+02   6.4428664391e+01     0.378178    0.3525948 -79.97  0.002760968    1.340    0.254
        81 -10.2757     54.1550     54.1761   8.5582210038e+01   6.0296794460e+01     0.325141    0.1609309 -62.90  0.001090518    4.616    0.783
        82 -10.4596     42.1098     53.9144   9.0555217620e+01   6.1863501099e+01    0.1807869     0.172763  -5.47 0.0005958708    1.224    0.183
        83 -10.3395     91.6180     49.8144   7.0128542178e+01   5.4722035393e+01    0.2017072    0.1285352 -45.47 0.0009567851    1.767    0.434
        84 -10.0024    154.0794     48.3193   5.3560028578e+01   4.0563190968e+01    0.2018673    0.1769942  68.12 0.0004068771    1.083    0.076
        85  -9.9496     10.3306     43.7943   1.0188496307e+02   6.6659496348e+01      0.19603    0.1523562 -15.07 0.0005132036    1.217    0.178
        86 -10.9606      5.1698     41.8132   1.0381231645e+02   6.7347540534e+01    0.3721089    0.2610593  89.13  0.001783148    2.316    0.568
        87 -10.3677    109.1456     31.8423   5.8276697023e+01   5.3586483210e+01     0.203743    0.1869739  75.58 0.0005416169    1.242    0.195
        88 -11.7620    220.2185    248.4128   8.5493253635e+01  -8.1243693489e+00    0.3767388    0.2381462  47.91  0.002142738    2.246    0.555
        89 -10.4515    104.9559     30.2861   5.8819201122e+01   5.4723174992e+01    0.2720447    0.1486012  49.49 0.0003709394    1.636    0.389
        90 -10.8946    239.6303     20.7073   3.5288612986e+01   2.3796481538e+01    0.2248824    0.1778446 -81.59 0.0005929148    1.099    0.090
        91 -10.5678     41.8124     21.0037   7.7722901944e+01   6.7524726997e+01    0.2088827    0.1571146  17.00 0.0007877894    1.197    0.164
        92 -10.0230     88.9344     17.9754   5.8514732275e+01   5.9632503099e+01    0.2214121    0.1464539  80.14  0.001024047    2.618    0.618
        93 -11.0052     21.6843    248.6492   1.2403090871e+02   1.9846466830e+01    0.1473131    0.1314008 -48.52  0.001139438    1.768    0.434
        94 -10.2275     12.5966    227.7411   1.2459666292e+02   2.4812592739e+01    0.1530505   0.08320173  82.53 0.0005840156    1.556    0.357
        95  -9.7808     46.5540     16.5075   7.3465199890e+01   6.7470512317e+01    0.1250691   0.09831523   3.26 0.0008078187    1.040    0.038
        96 -10.3901    197.4012    247.1878   8.9584466489e+01  -4.7264242840e+00    0.1481013    0.1169938 -47.99 0.0009487545    1.748    0.428
        97 -10.0930     32.9521    242.4687   1.2165581313e+02   1.9777618804e+01    0.1668872   0.09150253  42.26  0.000757717    1.567    0.362
        98 -10.6453      8.1389    240.8357   1.2603407428e+02   2.2699886220e+01    0.1352826    0.1154503  87.72 0.0006801861    1.333    0.250
        99 -10.1664    109.0679    232.6986   1.0556967860e+02   1.1430069206e+01     0.190115    0.1404522  42.24   0.00112422    1.154    0.134
