#   1 NUMBER                 Running object number                                     
#   2 MAG_AUTO               Kron-like elliptical aperture magnitude                    [mag]
#   3 X_IMAGE                Object position along x                                    [pixel]
#   4 Y_IMAGE                Object position along y                                    [pixel]
#   5 X_WORLD                Barycenter position along world x axis                     [deg]
#   6 Y_WORLD                Barycenter position along world y axis                     [deg]
#   7 A_WORLD                Profile RMS along major axis (world units)                 [deg]
#   8 B_WORLD                Profile RMS along minor axis (world units)                 [deg]
#   9 THETA_WORLD            Position angle (CCW/world-x)                               [deg]
#  10 FWHM_WORLD             FWHM assuming a gaussian core                              [deg]
#  11 ELONGATION             A_IMAGE/B_IMAGE                                           
#  12 ELLIPTICITY            1 - B_IMAGE/A_IMAGE                                       
         1 -15.7939     97.4966    145.3204   1.0390842944e+02   3.3479109234e+01     3.482622     2.079251 -86.18   0.01521304    2.732    0.634
         2 -15.1426      5.8290     69.0122   1.2051632484e+02   6.1510616770e+01     2.036137    0.6409693 -67.80  0.008873677    2.343    0.573
         3 -11.9433    103.6654     67.6703   8.3516531463e+01   4.8773101102e+01    0.4787342    0.2585232 -40.45  0.002006576    1.795    0.443
         4 -16.0280    236.9696    233.4886   9.0766534342e+01  -1.7130215027e-01     2.246703     1.181948   0.03   0.01455003    2.032    0.508
         5 -13.9631     49.4988    210.2469   1.2165473623e+02   2.7325604895e+01      1.42844    0.5469058  50.87  0.006955992    2.087    0.521
         6 -16.1776    113.7458    240.0392   1.1204220559e+02   1.5157528064e+01     4.688545     2.426664  17.03   0.02269183    3.729    0.732
         7 -14.7392     87.5757    244.2256   1.1698160632e+02   1.7774216000e+01     2.759033    0.6195377  47.47   0.01210217    3.661    0.727
         8 -14.4617     36.0558    218.0689   1.2465815317e+02   2.7396621421e+01     1.236059    0.5818687  53.26  0.007625887    1.622    0.384
         9 -15.7022     49.4173    237.7343   1.2325859620e+02   2.2940367781e+01     1.560661     1.022869  58.43   0.01240056    1.198    0.165
        10 -15.1761     25.6060    230.2476   1.2709277151e+02   2.6437283265e+01     1.622995     0.425301  61.63  0.007620982    3.840    0.740
        11 -16.0885     10.1426    244.8267   1.3018622512e+02   2.5599395070e+01     1.201259     0.654679  42.82  0.009652923    1.335    0.251
        12 -14.8238     27.4066    244.9279   1.2734193849e+02   2.4037095155e+01    0.7520733    0.3424379  61.87  0.004781135    1.771    0.435
        13 -16.1624      6.3027    222.9197   1.3023338355e+02   2.9312990193e+01     1.632749    0.7570449  89.10   0.01130244    2.044    0.511
        14 -11.9303     86.2248    232.2900   1.1632231356e+02   1.9634242433e+01     0.438997    0.1441791  49.18  0.002214719    2.623    0.619
        15 -13.6515     76.3249    223.5351   1.1747168401e+02   2.2135096926e+01     0.987133    0.3025739  50.09  0.004703056    2.893    0.654
        16 -11.7017     94.1908    231.4896   1.1480780894e+02   1.8784209551e+01    0.2798607    0.1952766  80.15  0.002026841    1.746    0.427
        17 -12.0988     68.9983    186.4709   1.1579287516e+02   2.9323495891e+01    0.7052755    0.4171155  68.58  0.004038386    1.810    0.447
        18 -13.3553     52.5089    188.6387   1.1951118877e+02   3.0841433431e+01     1.419381    0.6548966 -46.85  0.006906883    3.472    0.712
        19 -13.2978     69.2375    161.1235   1.1306212324e+02   3.4224729067e+01     1.500271    0.8994588  52.47  0.008405356    1.548    0.354
        20 -13.0468    105.6574    212.9081   1.1092842696e+02   2.0103800069e+01     0.916043    0.2897672  49.97  0.003798438    3.491    0.714
        21 -12.2169     40.1639    171.7716   1.2090110643e+02   3.5415613064e+01     1.615137    0.3675856  45.51  0.006672713    3.304    0.697
        22 -12.3346     54.8559    171.9229   1.1756556061e+02   3.3788179711e+01    0.6049136    0.4019925  74.46  0.003761976    1.467    0.318
        23 -12.8904     92.6525    205.1278   1.1269896467e+02   2.3060294741e+01     0.840188    0.3528698  49.58  0.004321912    2.159    0.537
        24 -12.5776     79.9960    204.2187   1.1515026820e+02   2.4824018676e+01    0.5931117    0.2850546  58.17   0.00288145    2.196    0.545
        25 -12.4878     70.9417    199.1625   1.1653770127e+02   2.6803167119e+01    0.5781905    0.3099551  66.36    0.0032675    2.079    0.519
        26 -13.4951     85.3465    192.6495   1.1292888080e+02   2.6140951473e+01      1.21332    0.5452898  65.43  0.004986604    3.854    0.741
        27 -13.2440     77.8928    179.4270   1.1313490132e+02   2.9521233436e+01     1.306466    0.3016258  45.53  0.004805003    3.735    0.732
        28 -11.9073    135.2401    213.7881   1.0537414146e+02   1.5905866283e+01    0.2803003    0.2584312  26.99   0.00161993    1.166    0.143
        29 -12.3749     78.2407    212.7554   1.1624286415e+02   2.3622461683e+01    0.4257587    0.2767098  69.69  0.002853277    1.611    0.379
        30 -11.6862     73.5683    211.5886   1.1705791565e+02   2.4376182816e+01    0.3703482    0.2279904  26.45  0.002344613    1.773    0.436
        31 -11.4687    128.5023    210.9923   1.0631890242e+02   1.7259700340e+01    0.3107347    0.1975683  73.10  0.001698689    2.696    0.629
        32 -13.9091    113.1694    201.8743   1.0824485656e+02   2.0813573951e+01    0.9235521    0.6438518  77.79  0.005688578    1.941    0.485
        33 -11.8788     21.3754    205.0374   1.2681875026e+02   3.1008526045e+01    0.6471307   0.09677383  55.98  0.002188798    6.256    0.840
        34 -11.8951    142.2364    204.6598   1.0290152496e+02   1.6208483314e+01    0.3237892     0.249197   9.83  0.002164807    1.458    0.314
        35 -12.2769     56.0694    202.2907   1.1981030551e+02   2.7981135875e+01     0.687622    0.1622574  41.48  0.003116235    2.872    0.652
        36 -11.6658    101.5744    201.3387   1.1051241097e+02   2.2498598612e+01    0.3939799    0.1595963  53.89  0.001766161    2.925    0.658
        37 -13.7705    130.1595    194.2515   1.0388940919e+02   1.9567964735e+01     0.719664    0.4896398  49.76  0.004448121    1.395    0.283
        38 -11.3110     24.6145    196.4779   1.2577946595e+02   3.2233815020e+01    0.2614813    0.1358467  51.16  0.001709947    1.486    0.327
        39 -11.0438     13.4616    196.5979   1.2800195449e+02   3.3206214653e+01    0.2592827   0.07390229  53.88  0.001320745    2.620    0.618
        40 -12.6457    157.5493    195.7142   9.8732586750e+01   1.5197179158e+01    0.3505857    0.1997243  30.68  0.001975675    1.567    0.362
        41 -13.9088     95.8530    187.2624   1.1011519285e+02   2.5684950255e+01     1.053638    0.5135148  61.88   0.00479184    2.905    0.656
        42 -11.5828    136.4655    246.9919   1.0874975879e+02   1.1390699207e+01    0.2562714    0.1376391  50.76  0.001651566    1.875    0.467
        43 -14.7233     89.6699    173.1801   1.0977411682e+02   2.9122220057e+01     1.530968    0.7102327  56.72  0.006920557    2.574    0.612
        44 -14.9795     85.7579    154.8235   1.0825225963e+02   3.3282300668e+01     1.630028    0.8013872 -74.32  0.007156005    2.754    0.637
        45 -11.7063     93.4867    224.9598   1.1438155132e+02   1.9834584499e+01    0.3130214    0.2145487  81.37  0.001803704    1.798    0.444
        46 -10.9667      2.2202    185.5654   1.2983427778e+02   3.6148708599e+01    0.1761967    0.1158039  51.04  0.001143443    1.218    0.179
        47 -12.3102     27.5287    176.5050   1.2405323674e+02   3.5723268625e+01      0.54878    0.2195961  70.08  0.002653184    2.709    0.631
        48 -11.3796     10.4005    180.2970   1.2793788836e+02   3.6492583950e+01    0.2957509    0.1359967  55.61  0.001782215    1.721    0.419
        49 -13.2991      2.5073    170.9039   1.2923304180e+02   3.8934843336e+01     0.819878    0.2361335 -88.69  0.003740291    3.312    0.698
        50 -14.1639     26.9591    130.6341   1.2064758486e+02   4.5465082200e+01     1.544111    0.9128332 -52.56   0.00869733    1.859    0.462
        51 -12.9510     30.2554    146.4226   1.2120800787e+02   4.1671445656e+01    0.5258495    0.4313141  50.99  0.003242527    1.178    0.151
        52 -13.6527      6.6487    149.8939   1.2731870457e+02   4.2905627925e+01    0.6682656    0.4963014 -40.99  0.004566096    1.852    0.460
        53 -12.3910     15.4398    146.2868   1.2493873764e+02   4.2994090160e+01     0.813385    0.4773591 -87.98  0.004919611    1.486    0.327
        54 -14.1838    182.6602    161.6835   8.8210525964e+01   1.6023835904e+01    0.9216912    0.5512471  10.84  0.004375436    2.287    0.563
        55 -11.7768    141.0301    163.5035   9.6951769930e+01   2.2910615300e+01     0.309641    0.1103957  45.27  0.001217078    2.673    0.626
        56 -12.9967    205.1745    154.5664   8.2715531093e+01   1.3116881538e+01    0.9596834    0.3206625  34.80  0.003588198    3.331    0.700
        57 -13.7416    176.7544    162.6422   8.9520331066e+01   1.6905260429e+01     0.641157    0.4630279  21.59  0.003714864    1.327    0.246
        58 -13.7749    193.0808    140.1808   8.1922114059e+01   1.7301479792e+01    0.5401022    0.3192026  42.21  0.002742675    1.627    0.385
        59 -12.8494    177.7351    140.5043   8.4913753052e+01   2.0121336805e+01    0.4104074    0.2110789  43.24  0.001897464    1.851    0.460
        60 -13.1554    108.6251    106.9738   9.3281479452e+01   3.9642873486e+01     1.323729    0.3986289 -52.59  0.004104361    3.732    0.732
        61 -14.6655    115.2150    134.1511   9.7485717016e+01   3.2834575223e+01     1.729896     1.001054  68.69  0.006695177    3.158    0.683
        62 -14.0682    113.9295    121.7414   9.5249427559e+01   3.5590182384e+01    0.9712915    0.4096767  47.44  0.003770889    2.452    0.592
        63 -13.7793    103.2934    120.1402   9.7696048263e+01   3.7802858688e+01     0.829061    0.6000105  15.88  0.004091077    1.818    0.450
        64 -14.3208    199.3626    128.8867   7.8301821180e+01   1.7762810110e+01     1.084163     0.781938 -75.67  0.004910338    2.948    0.661
        65 -13.8089      9.5218    158.7601   1.2710400681e+02   4.0840485745e+01    0.9332161    0.5409114  55.24  0.005033756    1.439    0.305
        66 -11.6467     57.6657    126.4890   1.1152267728e+02   4.3158405350e+01     0.535386    0.1678654  38.06  0.002121096    2.911    0.656
        67 -13.2382     42.9558    128.9038   1.1600046962e+02   4.4293134473e+01     1.201914    0.5801711  72.36  0.005201566    2.758    0.637
        68 -12.8306    228.9064    110.8107   6.9283747594e+01   1.4586383654e+01     0.253094    0.1883417 -32.76   0.00145529    1.331    0.249
        69 -14.9417     98.6614    167.3818   1.0696954528e+02   2.8939400557e+01     2.058531    0.5744739  48.49  0.006896861    4.156    0.759
        70 -13.4786    212.0668    136.0138   7.7666430546e+01   1.4393679388e+01     1.315406    0.4056964  46.24  0.004995607    3.189    0.686
        71 -12.5821    154.3947    238.2323   1.0475660966e+02   1.0102960002e+01    0.4353014    0.2768216  20.99  0.002864968    1.531    0.347
        72 -11.3192     88.3451     87.7588   9.4301975859e+01   4.7461480160e+01    0.2960647     0.206624  28.78  0.001433815    1.639    0.390
        73 -13.2786    118.8514     81.5438   8.3596776408e+01   4.2841435632e+01    0.7375314    0.3026155 -52.18  0.002427601    3.130    0.681
