#   1 NUMBER                 Running object number                                     
#   2 MAG_AUTO               Kron-like elliptical aperture magnitude                    [mag]
#   3 X_IMAGE                Object position along x                                    [pixel]
#   4 Y_IMAGE                Object position along y                                    [pixel]
#   5 X_WORLD                Barycenter position along world x axis                     [deg]
#   6 Y_WORLD                Barycenter position along world y axis                     [deg]
#   7 A_WORLD                Profile RMS along major axis (world units)                 [deg]
#   8 B_WORLD                Profile RMS along minor axis (world units)                 [deg]
#   9 THETA_WORLD            Position angle (CCW/world-x)                               [deg]
#  10 FWHM_WORLD             FWHM assuming a gaussian core                              [deg]
#  11 ELONGATION             A_IMAGE/B_IMAGE                                           
#  12 ELLIPTICITY            1 - B_IMAGE/A_IMAGE                                       
         1 -10.8627     32.9373     62.6700   1.0175420297e+02   6.0475818532e+01     1.820896     0.663603 -31.84  0.006184466    4.381    0.772
         2 -10.4708     16.4791     66.5299   1.0916959055e+02   6.0937536304e+01     1.508697    0.1368218 -58.38  0.003944631    4.420    0.774
         3 -10.9376     37.1997      9.1610   7.8965810001e+01   6.9522054303e+01     1.192728    0.3636735 -42.74  0.004506473    4.339    0.770
         4 -11.1046     23.9398     31.8967   9.5537598423e+01   6.7374368430e+01     1.517535     0.408414 -39.45  0.004255523    3.195    0.687
         5 -10.3035     10.2545     18.9781   9.7218335870e+01   7.0758079136e+01     1.260649    0.4369439 -23.74  0.004350845    5.450    0.816
         6 -10.3174     27.4507     11.5317   8.4898060827e+01   7.0369711939e+01    0.7458994    0.4407418  32.22  0.003469822    1.880    0.468
         7 -10.1806     18.1638      5.1567   8.6506571609e+01   7.2263538497e+01    0.5832287    0.3525491 -47.61  0.002916545    2.116    0.527
         8 -10.8381     21.8315     53.4404   1.0363943413e+02   6.3349956479e+01    0.8358743    0.4834579 -86.41  0.002772576    4.024    0.751
         9  -9.3750      2.3934     14.6967   9.9689391211e+01   7.2017686188e+01    0.3610919    0.1872361 -60.67  0.001492942    2.422    0.587
        10 -10.5142      4.7796      4.5629   9.3764877015e+01   7.3509175137e+01    0.5261378    0.3933729 -13.03  0.001884019    1.129    0.114
        11 -10.1711      4.9506     41.7963   1.0766659583e+02   6.6814620744e+01    0.8235204    0.2990603 -62.57  0.003887085    2.452    0.592
        12 -10.8968    134.1593     30.8996   5.7157836511e+01   4.7919798965e+01    0.3854877    0.2763997  -1.16  0.001903074    1.645    0.392
        13 -10.1542     69.4180     40.7841   7.9855581258e+01   6.0064915095e+01    0.9428977     0.394558 -36.76   0.00237229    2.237    0.553
        14  -9.0884    111.4281     23.1663   5.9563047432e+01   5.4223873136e+01     0.823966    0.3323521 -14.83  0.002826626    3.707    0.730
        15  -8.5920    104.7901     14.9797   5.7953957794e+01   5.6622740019e+01    0.3531017    0.1886155  16.98   0.00148744    2.549    0.608
        16  -9.3023    101.0354     31.8879   6.5824112889e+01   5.5416629791e+01    0.5938104    0.2128198 -33.25  0.001627939    2.752    0.637
        17  -9.4013    102.9865     21.1055   6.0928100756e+01   5.6348645341e+01    0.5507098    0.2894215 -23.43  0.001937006    1.977    0.494
        18  -9.3877     96.1915     15.1040   6.0276369256e+01   5.8487994564e+01    0.6264737    0.2681513 -12.88  0.002187639    3.132    0.681
        19  -9.4441     91.4544     26.2342   6.6353329131e+01   5.8162577473e+01    0.5102302    0.2488409 -42.33  0.001554702    2.467    0.595
        20 -10.2141     62.6496      3.3668   6.5414859331e+01   6.6265092982e+01    0.5126985    0.3817885   7.25  0.002337283    1.157    0.136
        21  -9.8899     60.9806     31.6243   7.9288087925e+01   6.2888773256e+01    0.8844182     0.374578 -29.27  0.002792957    2.454    0.593
        22  -9.5774     63.2799     21.5670   7.3947213052e+01   6.3994927721e+01    0.4302191    0.2705974 -46.98  0.001359139    2.169    0.539
        23 -10.2313     64.5695     12.9851   6.9441970195e+01   6.4872653738e+01    0.4088912     0.294132 -15.63  0.001657658    1.279    0.218
        24  -9.9923     51.8349     13.9051   7.4885371097e+01   6.6830053542e+01    0.7362695     0.382912  14.65  0.003423634    2.548    0.608
        25 -10.2221     46.2460     29.5329   8.4453772862e+01   6.5327907946e+01    0.4887543    0.2611811 -49.44  0.001051707    2.279    0.561
        26  -9.6223    119.0914     20.0826   5.6526668435e+01   5.2801795547e+01    0.6375345    0.3016264 -17.95  0.002201508    2.449    0.592
        27  -8.6181     72.3476      8.7454   6.4671049206e+01   6.3947882421e+01    0.2679433     0.171557 -14.09 0.0008457911    1.518    0.341
        28  -9.3307     73.5662     19.5970   6.9293487673e+01   6.2464565262e+01    0.3505346    0.2067496 -36.15 0.0009436277    1.804    0.446
        29  -9.1554     73.8711     12.8159   6.6073940470e+01   6.3218634453e+01    0.5504454    0.2615107  -5.56  0.002191557    3.214    0.689
        30  -8.6234     77.3039      6.3304   6.1916341955e+01   6.3248216404e+01    0.2224344    0.1951645  22.82 0.0007779294    1.108    0.098
        31  -9.0271     78.8119      3.0923   5.9927943234e+01   6.3258914372e+01    0.4107509    0.2473654  43.11   0.00166101    1.445    0.308
        32  -9.0670    129.4831     16.9877   5.3122046700e+01   5.0649508032e+01    0.3249044    0.1998425 -49.08   0.00153625    1.999    0.500
        33  -8.8513    125.1944     12.9442   5.2504006097e+01   5.2091127085e+01    0.3028271     0.237178 -39.24  0.001021143    1.433    0.302
        34  -8.4959    121.0230      5.7674   5.0643722588e+01   5.3746820564e+01    0.2793236    0.1963964  73.75  0.001497337    1.510    0.338
        35  -8.9323    126.7989      9.1730   5.0781850069e+01   5.2060931202e+01    0.2783439    0.1662865  49.20 0.0006443141    1.472    0.320
        36  -9.1743    125.4702      4.0137   4.9123013433e+01   5.2831959680e+01    0.4903746    0.2563245 -16.60  0.002178767    2.145    0.534
        37  -9.6544     85.3953     13.2536   6.2587531284e+01   6.0930793810e+01    0.4837582    0.2566704 -46.26  0.001654922    2.801    0.643
        38  -8.4280     85.2716      5.7139   5.9230703332e+01   6.1715064370e+01    0.3910978    0.2196194  -7.32  0.001973264    1.943    0.485
        39  -8.5815     89.4636      3.4455   5.7037343263e+01   6.1050419335e+01    0.3802708    0.1773663 -18.97  0.001797067    2.239    0.553
        40  -8.2692    141.3698     11.7682   4.9025003779e+01   4.8245636143e+01    0.2885845    0.1667558 -22.68  0.001108196    1.889    0.470
        41  -9.6658    133.5373     11.1528   5.0219081969e+01   5.0238118827e+01    0.5115244    0.2041731 -32.69  0.001895327    2.584    0.613
        42  -7.6809    136.4985      1.4547   4.6262009477e+01   5.0357370507e+01    0.2043667    0.1055343  55.03 0.0001336271    1.638    0.389
        43  -9.0489    133.7736      3.9582   4.7605525756e+01   5.0820744436e+01     0.258962    0.1883796 -13.13  0.001264398    1.535    0.349
        44  -7.9010     80.3337     12.2707   6.3709894342e+01   6.2042938362e+01    0.2257046    0.1500353 -32.07  0.001250388    1.622    0.383
        45  -8.6865    153.4985      5.0530   4.4844367329e+01   4.5824254538e+01    0.2679147    0.1490826 -44.51 0.0009425672    1.989    0.497
        46  -9.2450    113.9193      9.9898   5.3778268074e+01   5.5036938131e+01    0.4400838    0.1902564  44.35  0.001065336    2.081    0.519
        47  -8.5648    137.6243      9.4919   4.8888995806e+01   4.9387434561e+01    0.2111289    0.1312391 -21.18  0.000965456    1.765    0.433
        48  -7.6144    147.3021      9.6060   4.7294219306e+01   4.6968528762e+01    0.1444954   0.09645728 -60.89 0.0007007617    1.812    0.448
        49  -8.9364    115.2443      4.0884   5.1174028488e+01   5.5251913244e+01    0.2803895    0.2220977 -53.89 0.0005672251    1.567    0.362
        50  -8.6914    110.2735      7.6592   5.3669510069e+01   5.6092781394e+01    0.2018557    0.1830457  -7.90 0.0005578565    1.177    0.150
        51  -8.5803    111.0159      4.0184   5.2045581787e+01   5.6239450544e+01    0.2654573    0.1464096  23.13  0.001239173    2.089    0.521
        52  -8.6318    104.1452      2.1354   5.2811420540e+01   5.7960978511e+01    0.3241564    0.1562293  47.56  0.001551062    1.743    0.426
        53  -8.8754    101.8699      7.6198   5.5637397565e+01   5.7993474278e+01    0.3979752    0.2402991 -29.57  0.001378899    1.779    0.438
        54  -8.3186     97.9475      6.0079   5.5935224849e+01   5.9003545774e+01    0.2565723    0.1709869  29.98  0.001092803    1.401    0.286
        55  -8.7243     95.7535      2.9670   5.5182229999e+01   5.9747338238e+01    0.2714487    0.2204795  39.35 0.0009334523    1.065    0.061
        56  -8.1112    143.4646      5.4368   4.6505243887e+01   4.8301484959e+01    0.2401468    0.1047749 -36.50 0.0009262923    2.441    0.590
        57  -8.4804    238.9754      1.4488   3.5141245992e+01   2.5400000183e+01    0.1729837    0.1082717  80.02 0.0003063994    1.492    0.330
        58  -8.0996     98.9582    119.5636   9.4427281750e+01   3.8489441319e+01    0.3184344    0.1744932 -25.73  0.001033514    3.614    0.723
        59  -7.7856    235.3136    250.3376   8.9537769811e+01  -9.7967144412e+00    0.1194755    0.0701944   9.11 0.0007046657    1.693    0.409
        60 -10.3762    197.3783    247.5575   9.5808751047e+01  -3.9566015502e+00    0.4469115    0.3200697  49.78  0.002842486    1.623    0.384
        61 -10.8166    174.6212    248.4270   1.0009571342e+02  -5.6251382910e-01    0.5839667    0.2525828  33.43  0.002859165    2.052    0.513
        62 -10.2466    162.5907    247.8053   1.0223972281e+02   1.4080085246e+00    0.2530056    0.2283616  59.83  0.001597482    1.286    0.222
        63 -10.1944    112.2040    248.6400   1.1169176007e+02   9.0551977469e+00    0.2057954    0.1862481  78.53  0.000442832    1.215    0.177
        64  -7.5041    248.3206    119.2911   6.1549474442e+01   6.7960289441e+00    0.1374441    0.1027698   3.87 0.0002369933    1.605    0.377
        65  -9.7119    204.2632    118.8593   6.8972861264e+01   1.6075634139e+01    0.2512355    0.2381241  14.62 0.0002210195    1.076    0.071
        66  -8.2733      1.4658    116.2739   1.2209860224e+02   5.0449504830e+01      0.34541   0.09716426 -76.05  0.001126416    2.927    0.658
        67 -10.2092     91.6929    113.0950   9.4983830733e+01   4.1273134136e+01     0.598253    0.4572967 -77.38  0.001788048    1.519    0.342
        68  -9.1954    147.9518    121.3131   8.1858444018e+01   2.8263887937e+01    0.3002904    0.2206122 -39.72            0    1.357    0.263
        69  -8.8864    152.5560    115.6695   7.9280390190e+01   2.8452038924e+01    0.3142878    0.2406828  15.64  0.001043597    1.644    0.392
        70 -10.8122     63.3422     94.2658   9.9175300913e+01   4.9994128515e+01      1.55826    0.4826095 -50.42   0.00276042    2.708    0.631
        71 -10.5181     65.6677    109.1029   1.0189038701e+02   4.6174140972e+01     1.125936     0.614247 -68.19  0.003953871    1.974    0.493
        72 -10.1285     59.6211    109.6966   1.0387717330e+02   4.6817654833e+01    0.6495169    0.5693341 -22.79  0.002383344    1.292    0.226
        73  -9.9341     14.2008    110.5214   1.1778435270e+02   5.0991471458e+01    0.7086384    0.2526845 -75.79  0.002982186    2.583    0.613
        74  -8.0433    209.0738    115.1726   6.7152994993e+01   1.5683710357e+01    0.2297529    0.1953661   7.60 0.0004639322    1.301    0.231
        75 -10.3059     78.2542    113.0199   9.8945997776e+01   4.3440105541e+01    0.7064966    0.3648205 -68.92  0.001563939    2.437    0.590
        76  -9.7384     81.3755     99.8616   9.4817637690e+01   4.6066640472e+01    0.6404357    0.2981101 -57.78  0.001240632    2.193    0.544
        77  -8.0255     82.5061     93.5218   9.2790937498e+01   4.7345051661e+01    0.2835101    0.1480982  26.17    0.0011281    2.485    0.598
        78  -7.0257    167.3596    114.2033   7.5441694094e+01   2.5387674164e+01     0.215451    0.1432387 -49.70 0.0004027453    1.564    0.361
        79  -8.8124    158.8911    112.0158   7.6809457398e+01   2.7782083637e+01    0.2983448    0.2284736 -34.68 0.0004541478    1.312    0.238
        80  -9.4913     35.5361    111.0536   1.1150381906e+02   4.9132533225e+01    0.4296156    0.2769413  66.42  0.002076921    1.926    0.481
        81  -8.1285    225.3267    249.6850   9.1159957481e+01  -8.3293514698e+00    0.1013877   0.08604338  46.33 0.0005221987    1.671    0.401
        82 -10.4354     25.6171     78.1382   1.0838923958e+02   5.7691507218e+01    0.5823286    0.4082511  87.04  0.001958245    1.856    0.461
        83 -10.9527     21.1084    101.0712   1.1427740497e+02   5.2723992804e+01     1.314344    0.6095246  86.13  0.004257963    3.789    0.736
        84  -9.9551     19.2246     87.1723   1.1246488490e+02   5.6102619783e+01    0.8993015    0.1948531 -57.50  0.003126198    2.885    0.653
        85  -8.9124    149.9467    110.2605   7.8475398259e+01   3.0186443179e+01     0.220385    0.2114224  43.36 0.0005976013    1.060    0.057
        86  -8.7328     40.2485    107.0914   1.0935426502e+02   4.9625982363e+01     0.242099    0.1624464 -82.19 0.0006371947    1.567    0.362
        87 -10.8414     44.8660    102.4763   1.0700918252e+02   5.0254635387e+01    0.8243958     0.445235  70.12  0.003143791    3.563    0.719
        88  -9.3341      6.4254    103.8931   1.1919298592e+02   5.3040040027e+01    0.4395995    0.2349432  73.73   0.00153111    2.348    0.574
        89  -9.5346    149.5551    103.4284   7.6704197546e+01   3.1708226445e+01    0.4641618    0.3010713 -55.20  0.001106598    1.741    0.425
        90  -8.1103     91.5158    104.4828   9.2899479669e+01   4.3323540308e+01    0.2542519    0.1949058  18.20 0.0006429444    1.569    0.363
        91  -8.8154     94.7506    102.2505   9.1348312361e+01   4.3278891073e+01    0.5220351     0.208394  31.86  0.001740957    3.266    0.694
        92  -8.2561      1.3993    104.4455   1.2075290023e+02   5.3194457354e+01    0.3069063   0.09861714 -78.37    0.0012548    2.872    0.652
        93  -8.4491    165.9860    103.8938   7.2985602036e+01   2.7790709839e+01    0.2759125     0.217965 -43.95 0.0005452048    1.249    0.199
        94  -8.2657     73.9317    102.6617   9.7840485428e+01   4.6545746974e+01    0.3274669    0.1788761 -51.45  0.001009676    1.633    0.388
        95  -9.4471    158.8866    100.5584   7.3686159840e+01   3.0128742515e+01    0.4697844    0.2076481 -42.67  0.001125388    2.220    0.550
        96  -8.2764    246.6486    101.6889   5.7714411619e+01   9.9726783703e+00    0.1404562    0.1056032   8.00 0.0007044998    1.721    0.419
        97  -9.6611     94.3578     97.2343   9.0121679662e+01   4.4494409399e+01    0.3683805    0.2907234 -64.62 0.0007309412    1.373    0.272
        98  -9.0951     95.9984     91.1318   8.7913370963e+01   4.5568139693e+01    0.5655322    0.3496794  -3.67  0.001989389    3.343    0.701
        99  -9.3591    150.3380     95.3514   7.4235249229e+01   3.3182116130e+01    0.4142255    0.3685192 -54.42  0.001643452    1.160    0.138
       100  -9.0276    241.1942     96.7248   5.7331051718e+01   1.1897296168e+01    0.3163417    0.1217293  53.28  0.001218852    2.841    0.648
       101  -7.8054      7.7369     96.4381   1.1775392079e+02   5.4694734626e+01    0.1464216     0.109404 -23.54 0.0009443644    1.621    0.383
       102  -8.7514    164.3705     94.3926   7.0702377830e+01   3.0049659081e+01     0.376124    0.2627681 -43.84 0.0007742749    1.416    0.294
       103  -9.6487    138.7283     92.6200   7.6322745494e+01   3.6416902607e+01    0.5143988    0.3644352 -87.46  0.000719805    2.292    0.564
       104  -9.5284    140.3393     82.5570   7.2907223643e+01   3.8056993828e+01    0.6121052    0.2640201 -38.51  0.001685904    2.297    0.565
       105  -8.9609    139.9735     75.9196   7.0946868254e+01   3.9410647697e+01    0.4156821    0.2490524 -54.34  0.000697076    2.031    0.508
       106 -10.2009     36.9047     81.1192   1.0502611095e+02   5.6035104606e+01    0.7180619     0.354587 -21.20  0.002756698    3.481    0.713
       107 -10.2844    185.4894    249.7097   9.8279402751e+01  -2.4189288282e+00    0.5349019    0.1589487  43.92   0.00219462    3.006    0.667
       108  -9.5882    152.4510    248.1255   1.0416683355e+02   2.9518447781e+00    0.3085322    0.1602883 -44.37  0.001688967    2.423    0.587
       109  -9.4539    191.3102    243.5663   9.6331550393e+01  -2.5004717572e+00    0.3545556    0.2093409   8.07  0.001800469    2.433    0.589
       110  -8.1152    143.9096    250.2204   1.0601049259e+02   3.9710566935e+00    0.2558033    0.1085873  52.72  0.001161978    2.584    0.613
       111  -7.0928    237.4635    237.4580   8.7111542113e+01  -8.6292290611e+00     0.118912   0.08956026  12.63 0.0001194218    1.013    0.013
       112  -9.6063    187.4558    234.0269   9.5621284690e+01  -5.7228793655e-01    0.3565374    0.2742673 -15.53  0.001694913    1.461    0.315
       113  -8.1010    115.0149    234.0478   1.0957306856e+02   1.1089122084e+01    0.1894229     0.146706  55.28 0.0003966693    1.092    0.084
       114  -8.2859    224.8619    225.3906   8.7318283884e+01  -5.2815214030e+00    0.1738701    0.1504288  -2.12 0.0003670928    1.189    0.159
       115  -7.6761    110.4873    224.5018   1.0934505248e+02   1.3499286396e+01    0.1255293    0.1063696  54.07 0.0001985946    1.034    0.033
       116 -10.0171     13.4566     45.4062   1.0490526279e+02   6.5585662036e+01    0.6314512    0.3027491 -21.24  0.002705689    2.493    0.599
       117  -7.4218     55.8426    215.3411   1.1918717956e+02   2.3026218162e+01    0.2025376   0.07852561 -73.68 0.0009472313    2.612    0.617
       118  -9.5115      6.8985     32.5173   1.0392490449e+02   6.8520939426e+01    0.2609118    0.1824386 -15.58 0.0008520152    1.387    0.279
       119 -10.1313      7.4310     28.3915   1.0225958186e+02   6.9264381588e+01    0.3409413    0.2864493  48.64  0.002302063    1.828    0.453
       120  -9.1384    157.7127     91.0595   7.1259557043e+01   3.2291166812e+01     0.448835    0.2052565 -29.45  0.001487172    2.726    0.633
       121  -9.6051    110.5328     90.1224   8.3278522016e+01   4.3009105305e+01    0.8075373    0.3972153  29.94  0.002835355    2.832    0.647
       122  -8.9467    150.5862     88.9669   7.2321280339e+01   3.4395273058e+01    0.4488444    0.2546209 -31.53   0.00130296    1.901    0.474
       123 -10.3786     85.5505     86.7119   8.9914526355e+01   4.8372072079e+01    0.5758725    0.4117178  76.67 0.0009660194    2.273    0.560
       124  -9.9640     81.6893     72.5045   8.6864592689e+01   5.2066205715e+01    0.4642331    0.3270661 -67.71 0.0009335576    1.973    0.493
       125  -9.2763     83.3272     64.8602   8.3798121987e+01   5.3332774935e+01    0.6352097    0.3726795  -9.72  0.002378286    3.079    0.675
       126 -10.2886     47.8592     84.3758   1.0195802038e+02   5.4164426794e+01    0.6187159    0.3763227 -68.50  0.002137227    1.772    0.436
       127  -9.4115     48.7187     77.2796   9.9826135385e+01   5.5669335175e+01    0.6223373    0.3905499 -11.56  0.003012723    2.196    0.545
       128  -7.9583    163.3412     87.0823   6.8834794553e+01   3.1701047934e+01    0.2268314    0.1946774 -43.29 0.0005098226    1.153    0.133
       129 -10.4235      4.8212     87.1155   1.1728195467e+02   5.7001681254e+01     1.239796    0.3021692 -66.57  0.003955209    2.820    0.645
       130  -9.5662     87.5759     78.8191   8.6907075831e+01   4.9736469451e+01    0.5996172    0.3752728  16.09  0.001417927    2.261    0.558
       131 -10.3304    104.0043     82.6272   8.2951708440e+01   4.5894572750e+01    0.5111132    0.3342259 -56.66 0.0008494142    1.746    0.427
       132  -9.5957    105.0954     71.7612   7.9168495980e+01   4.7888282517e+01    0.7098539    0.4581908 -17.01  0.002389278    2.040    0.510
       133  -9.2882    115.0855     73.0816   7.6671978554e+01   4.5558204566e+01     0.655807    0.4404486 -44.03  0.002610258    1.485    0.326
       134  -9.4813    109.8086     63.9299   7.5142377786e+01   4.8407332233e+01    0.4900515     0.265296 -49.98  0.001757199    2.157    0.536
       135  -8.8455    110.5613     58.2399   7.2950857140e+01   4.9269663134e+01     0.391408    0.2762923  21.23 0.0009250179    1.648    0.393
       136  -8.5681    157.8421     83.2177   6.8933071128e+01   3.3762460433e+01    0.4015625    0.2098639 -38.99  0.001156426    1.879    0.468
       137  -7.4567    170.4866     83.5468   6.6266663308e+01   3.0617807312e+01     0.156077    0.1498536 -66.78 0.0001430826    1.065    0.061
       138  -8.8702    149.9769     80.3392   6.9888555111e+01   3.6200812730e+01     0.483487    0.2206914 -38.13  0.001338807    2.162    0.537
       139  -8.7977    119.0025     80.4453   7.7913123652e+01   4.3264621091e+01    0.3157199    0.2486374 -78.92 0.0006689471    1.743    0.426
       140  -8.4914    120.1975     75.8764   7.6134017728e+01   4.3912447922e+01    0.3678346    0.2413451  27.10  0.001044627    1.847    0.458
       141  -9.5222    127.3649     75.2160   7.3970417551e+01   4.2452032318e+01    0.4128072     0.304509 -59.55 0.0008664001    1.633    0.388
       142  -9.0226    129.5011     69.0021   7.1399804025e+01   4.3129916045e+01    0.4841701    0.2748843  28.13  0.001813763    2.458    0.593
       143  -8.5858    130.4938     64.9984   6.9825956427e+01   4.3621769355e+01    0.3445727    0.2393458 -36.19 0.0008624579    1.432    0.302
       144  -9.1827     74.1324     79.7651   9.1641376603e+01   5.1731487491e+01    0.5046945    0.2328908 -56.35  0.001331015    2.356    0.576
       145  -7.8634     76.0028     74.0000   8.9258865832e+01   5.2678654951e+01    0.2248467    0.1259078  20.81 0.0007123408    2.425    0.588
       146  -8.0972     68.9892     79.3567   9.3272412147e+01   5.2587551798e+01    0.3979217    0.1294369 -40.53  0.001081553    3.358    0.702
       147  -8.7464    166.5456     78.4437   6.5608470394e+01   3.2513352754e+01    0.3419166    0.2188599 -33.53 0.0008659055    1.572    0.364
       148  -7.9162    184.3417     77.9745   6.1899451422e+01   2.8199853877e+01    0.2188527    0.1892939 -34.90 0.0005056513    1.139    0.122
       149  -7.1082    174.3045     78.6658   6.4064650909e+01   3.0558432253e+01    0.1610798    0.1196772 -68.92 0.0006156501    1.664    0.399
       150  -8.7774    157.0473     76.5524   6.7114041774e+01   3.5187992775e+01    0.4748177    0.2141318 -37.43  0.001351521    2.183    0.542
       151  -8.0457    156.5425     70.4687   6.5367198696e+01   3.6397050091e+01    0.3154862    0.2046775 -53.34 0.0005746675    1.761    0.432
       152  -9.0859     53.8084     38.4957   8.5001889361e+01   6.2807892548e+01    0.3575732    0.1568159 -43.17  0.001626099    2.117    0.528
       153  -8.7004     44.1844     53.8608   9.4556810765e+01   6.1145412681e+01    0.2039207    0.1644044 -28.44 0.0002560023    1.060    0.057
       154 -10.6482     55.3119     70.8985   9.5634319823e+01   5.6278459732e+01    0.6763988    0.4570783  64.80  0.001334166    2.532    0.605
       155  -9.2321     55.1522     62.9083   9.3235330311e+01   5.7982795589e+01     0.453295     0.272339  24.48  0.001731881    1.884    0.469
       156  -9.8900     62.2540     60.9240   8.9929381840e+01   5.7430772931e+01    0.5950878        0.292  29.44  0.002427713    2.303    0.566
       157 -10.3466     49.9742     54.5192   9.2469401026e+01   6.0329757875e+01    0.6275064     0.417249 -61.50  0.002641398    1.871    0.465
       158  -9.9079     54.9355     44.5551   8.6911419126e+01   6.1579604987e+01     1.028898    0.5241458  -3.95  0.003179578    5.587    0.821
       159  -8.3695    162.7663     72.4256   6.4614721993e+01   3.4516291849e+01    0.4157965    0.1943806 -37.19  0.001384709    2.100    0.524
       160  -9.0804    205.2049     71.0295   5.6330233238e+01   2.4249652005e+01     0.357439    0.2439026 -31.37  0.001067069    1.454    0.312
       161  -7.6413    175.3185     72.6609   6.2112887200e+01   3.1354121825e+01    0.1622404    0.1180222 -68.88 0.0007049317    1.709    0.415
       162  -7.9209    169.4000     71.1847   6.2860744951e+01   3.3082616400e+01    0.2247911     0.136717 -46.30  0.000529214    1.693    0.409
       163  -9.0774    147.0172     69.2666   6.7155003300e+01   3.8938335752e+01    0.3744953    0.2617635 -58.65  0.001009078    1.736    0.424
       164 -10.1385     34.6036     90.7053   1.0795509852e+02   5.4040703463e+01    0.5588836     0.282458 -79.04   0.00172049    2.656    0.624
       165  -9.7008     94.8101     68.3381   8.1213505041e+01   5.0568962149e+01    0.4142455     0.267434 -52.73 0.0008106995    1.737    0.424
       166  -9.4865     97.2842     58.3723   7.6993660512e+01   5.1975631771e+01    0.7599756    0.4557528 -15.56  0.002922316    2.296    0.564
       167  -9.1346    121.1773     66.1698   7.2687093002e+01   4.5531247086e+01     0.406242    0.2579669 -51.11  0.001174149    1.805    0.446
       168  -8.2151    121.8752     61.3858   7.0882561276e+01   4.6230960818e+01    0.2779898    0.2228173  23.29 0.0006570514    1.329    0.248
       169  -9.4741    138.1167     66.4129   6.8373690780e+01   4.1580292258e+01    0.3340982    0.2532682 -47.26 0.0006195928    1.386    0.279
       170  -7.5605    170.9389     65.1980   6.0763253219e+01   3.3704970943e+01    0.2207218    0.1595937 -58.01 0.0004421996    1.556    0.357
       171  -8.7746    157.6667     63.1096   6.2839090846e+01   3.7373761403e+01    0.2938969    0.2214423 -52.39 0.0007031864    1.432    0.302
       172  -8.5353     10.3636     60.4804   1.1015903288e+02   6.2629764314e+01     0.280215    0.1909368  89.76  0.001643871    1.953    0.488
       173  -9.9429     73.1412     59.1763   8.5371741467e+01   5.6138734725e+01    0.4621924    0.2580159 -52.93  0.001008141    2.041    0.510
       174  -9.3469     74.5510     51.4570   8.2093694864e+01   5.7358561075e+01    0.5949855    0.3456811   3.67  0.002341933    3.015    0.668
       175  -7.8802    164.5079     60.1812   6.0515294206e+01   3.6138753479e+01    0.2236509    0.1493866 -33.42  0.001005498    1.510    0.338
       176  -7.5709    152.5355     60.5311   6.3132828606e+01   3.9074710064e+01     0.149624    0.1482887  84.52 0.0001190879    1.031    0.030
       177  -9.3194    147.2071     55.9798   6.2840381943e+01   4.1129348788e+01    0.7948623    0.3045236 -23.53  0.002322297    4.033    0.752
       178  -8.7494     87.2685     58.3228   8.0207752862e+01   5.3883522441e+01    0.3319315    0.2245426 -49.02  0.001133074    1.603    0.376
       179  -8.1802     89.3847     52.7567   7.7493611427e+01   5.4499563163e+01    0.3767162    0.2624271  -5.86  0.001817919    1.720    0.419
       180 -10.2457     85.1265     47.9962   7.7125502836e+01   5.6117683435e+01    0.4188035    0.3326716 -61.46 0.0009840511    1.735    0.424
       181  -9.0390    139.4200     39.9786   5.9191009973e+01   4.5434991028e+01     0.808079     0.331367 -47.17  0.002777621    3.175    0.685
       182  -9.5492    138.8332     56.1293   6.4812166054e+01   4.3150146747e+01    0.6593571    0.2152695 -34.03  0.001549237    3.075    0.675
       183  -8.7778    141.9346     48.6086   6.1574142483e+01   4.3570554623e+01    0.3334241    0.2218449 -28.52 0.0003855562    1.557    0.358
       184  -9.0160    129.9984     57.1784   6.7326497300e+01   4.5081640267e+01    0.4334036    0.2164285 -31.49  0.001237166    2.072    0.517
       185  -9.5844    118.2034     54.6088   6.9529728988e+01   4.8215984735e+01    0.5565267     0.424424 -36.86  0.001450524    1.321    0.243
       186  -9.1035    121.1160     47.0025   6.6046966561e+01   4.8774775774e+01    0.3495074    0.2270042 -36.21 0.0006409283    1.562    0.360
       187  -8.6466     79.7649     47.2224   7.8661592630e+01   5.7216224796e+01     0.546875    0.2210701 -33.33  0.001908028    2.526    0.604
       188  -7.7052    168.8407     56.3527   5.8492379836e+01   3.5649829523e+01    0.2795446    0.1875705  49.62  0.001280906    1.479    0.324
       189  -8.8142    162.9371     53.1041   5.8631004808e+01   3.7642786546e+01    0.4407883    0.2530849 -23.27  0.001299785    1.997    0.499
       190  -9.2107    105.6036     52.0809   7.2195080918e+01   5.1378982822e+01    0.5952592    0.2784243 -33.17  0.001817818    2.150    0.535
       191  -7.7039    172.4516     50.4531   5.6025953571e+01   3.5626221627e+01    0.1478968    0.1411057 -81.57 6.298062e-05    1.043    0.041
       192  -9.2998    156.0071     48.9843   5.8703808024e+01   4.0010848956e+01    0.3736131    0.2417103  56.02 0.0007797244    1.489    0.328
       193  -9.5979    130.6262     46.1551   6.3361365838e+01   4.6676545328e+01    0.8672751    0.3895108 -20.07  0.002570585    3.161    0.684
       194  -8.5737    132.8345     35.8602   5.9212125620e+01   4.7601584294e+01    0.2949838    0.2040011 -41.11 0.0005331693    1.553    0.356
       195  -9.0751    223.2053    207.8953   8.4540579016e+01  -2.6327422353e+00    0.2849475    0.2491179 -68.59  0.001386978    1.905    0.475
       196  -8.9179    144.2197     36.5857   5.7010769238e+01   4.4706428070e+01    0.3127215    0.2249773 -58.39 0.0005786578    1.676    0.404
       197  -9.1914    149.7926     47.4069   5.9469998979e+01   4.1802614761e+01    0.4588102    0.1907559 -36.23  0.001215983    2.381    0.580
       198  -8.6523    148.5228     41.0227   5.7620044082e+01   4.3031522632e+01    0.3588881    0.2935185 -39.91  0.001883325    1.273    0.215
       199  -9.1489    112.5673     44.9980   6.7606614279e+01   5.1012361932e+01    0.7596834    0.3780659 -14.65  0.001705319    3.293    0.696
       200  -7.6338    162.2201     46.2462   5.6615560094e+01   3.8839130618e+01    0.1991682    0.1674595 -68.27 0.0004296931    1.305    0.234
       201  -9.3369     71.3307     26.2897   7.3071434193e+01   6.1972495919e+01    0.4615246    0.2982726  28.57   0.00237782    1.507    0.336
       202  -9.9077     10.4814    207.6544   1.2719037113e+02   2.9548199529e+01    0.5018486    0.2647856  24.81  0.002922778    2.749    0.636
       203  -9.9789     76.0979     32.2648   7.3939536520e+01   6.0267387427e+01    0.4452374    0.3536764  47.45 0.0009672644    1.460    0.315
       204  -9.7151     79.1892     24.0604   6.9353477411e+01   6.0848749371e+01    0.4611592    0.2905091  18.67  0.001408163    1.726    0.421
       205  -9.2000     84.6956     21.8946   6.6608582455e+01   6.0066480182e+01    0.2995368    0.2488841  34.88 0.0007858484    1.156    0.135
       206  -9.0674     40.1839     34.6570   8.9219545357e+01   6.5211428752e+01    0.3439612    0.2363987  20.38  0.002076195    1.524    0.344
       207 -10.0734     37.8092     41.9996   9.3069927799e+01   6.4146998123e+01    0.3669722    0.3293347  84.85  0.001499248    1.733    0.423
       208 -10.1570     35.9001     37.9949   9.2408084306e+01   6.5092875306e+01    0.4397423    0.2098147 -37.24  0.000358132    1.787    0.440
       209  -9.7961    124.0078    205.9942   1.0414641072e+02   1.4811396540e+01    0.1881983    0.1665162  53.49            0    1.008    0.008
       210  -9.0286    110.3079     33.0822   6.3718758288e+01   5.3231351472e+01    0.3408676    0.2314504 -47.64  0.000955536    1.783    0.439
       211  -8.8604    104.9013     41.0899   6.8300330281e+01   5.3276093982e+01    0.3264717    0.2427616 -56.56 0.0008575316    1.784    0.439
       212  -8.7590    106.2795     36.0171   6.5957361565e+01   5.3716105185e+01     0.387828    0.2283061  28.94  0.001332969    1.926    0.481
       213  -8.7011    153.4255     40.5404   5.6478787560e+01   4.1865878238e+01    0.3353613    0.2450221 -40.63  0.001395053    1.420    0.296
       214  -9.5186    152.5544     35.6095   5.5028487004e+01   4.2744135495e+01    0.3908105    0.3094041  21.16  0.002012613    1.433    0.302
       215  -8.1676    123.0534     40.5865   6.3233655694e+01   4.9278522211e+01    0.4289091    0.1982885  28.66  0.001352467    3.826    0.739
       216  -8.9056    211.2695    202.4715   8.5772722940e+01   1.4746774666e-01    0.2337123    0.2019529  41.16  0.001087422    1.310    0.237
       217 -10.3299     90.5158     38.0962   7.1497846190e+01   5.6685490925e+01    0.9170963    0.3462108  35.66  0.002643117    3.209    0.688
       218 -10.4207    242.7715    200.7191   7.9703605486e+01  -4.7361117841e+00    0.2373263    0.1985276   9.47 0.0003968896    1.095    0.087
       219  -6.9098    135.2728    201.6353   1.0110201391e+02   1.3729050592e+01    0.1356277    0.1009269  76.55 0.0004298936    1.664    0.399
       220  -9.0892    191.8214    193.8289   8.7957922616e+01   4.9524898091e+00    0.7197801    0.3845196 -63.39  0.002213871    5.802    0.828
       221  -7.1498    139.0066    198.9561   9.9882275828e+01   1.3592388721e+01    0.1579029    0.1418733  47.14            0    1.003    0.003
       222  -8.4367     92.4403     20.8183   6.3774045289e+01   5.8632556722e+01     0.310885    0.1942413  19.07  0.000905304    1.778    0.438
       223  -7.4224    160.2750     39.3437   5.4788843592e+01   4.0293518231e+01    0.1488659    0.1100288  23.98 0.0007000622    1.622    0.383
       224  -8.5336     96.8540     33.1955   6.7574673882e+01   5.6116318919e+01    0.2221298    0.1708334  15.89 0.0004708635    1.300    0.231
       225  -8.9098    118.9595     34.7067   6.2092530160e+01   5.1045878632e+01    0.3256051    0.1970911 -31.61 0.0005596799    1.688    0.408
       226  -8.9318    212.3376    197.9580   8.4729761450e+01   6.5715429627e-01     0.228831    0.1739277  31.03 0.0002747137    1.204    0.170
       227  -8.2506    212.9857    193.0287   8.3669966236e+01   1.3132068539e+00    0.1989607    0.1686259  10.53            0    1.031    0.030
       228 -10.1477    180.6346    188.8085   8.9290767919e+01   7.8792936092e+00    0.2505436    0.2430063 -19.03 0.0004211046    1.135    0.119
       229  -8.0533    239.2049    188.7937   7.8033606028e+01  -2.4826511544e+00    0.1811451    0.1627705  -0.92 0.0003885377    1.175    0.149
       230  -8.7106     45.1811     16.0109   7.8755286807e+01   6.7515444840e+01    0.2317828    0.1775002 -19.87  0.001037067    1.146    0.127
       231  -8.3149    133.0829    188.4436   9.9462407654e+01   1.6733368124e+01    0.1999177    0.1831519 -44.18 0.0007078003    1.204    0.169
       232  -8.7230     46.5174     20.4982   8.0298601087e+01   6.6689521801e+01    0.3417743    0.1848424 -22.06  0.001778603    1.819    0.450
       233  -7.1473    223.2691    187.7212   8.0704979393e+01   3.5576184008e-01    0.1126123    0.1082574 -75.97            0    1.487    0.328
       234  -9.1041     42.2608     28.0053   8.5536148351e+01   6.6085772873e+01    0.2356139    0.1549649 -23.66 0.0002860872    1.326    0.246
       235  -9.4976    152.9395     27.5463   5.2298922435e+01   4.3649466788e+01      0.36647    0.2338862  24.55  0.001652761    2.010    0.502
       236  -7.8034    156.6984     27.3186   5.1558948279e+01   4.2723700250e+01    0.1456165    0.1058165 -66.14 0.0002895539    1.623    0.384
       237  -7.8995    215.2162     27.1955   4.3395453091e+01   2.8028667261e+01    0.1925586    0.1403497 -66.26 0.0003446944    1.327    0.247
       238  -8.6080    144.2895     25.1326   5.3089067847e+01   4.6107812025e+01     0.342527     0.206285 -15.45  0.001570304    1.942    0.485
       239  -8.8574    128.4031     25.8855   5.6605203582e+01   4.9925279976e+01    0.2494793    0.2106191 -74.75 0.0007070057    1.444    0.308
       240  -7.9195    149.6317     25.2007   5.2118678771e+01   4.4759026604e+01    0.1891238    0.1364251  -7.87 0.0004845405    1.624    0.384
       241  -8.9572    140.0530     22.4897   5.2989200451e+01   4.7462866130e+01    0.2985654    0.1823474 -74.86  0.001235649    2.585    0.613
       242  -9.1324     65.7204    183.5435   1.1391880429e+02   2.8480304017e+01    0.2102249    0.1842086 -80.20 0.0003928799    1.144    0.126
       243  -8.5513    201.7246    173.0053   8.1869219954e+01   6.6969352409e+00    0.2230497    0.1886636  31.68 0.0007119894    1.141    0.124
       244  -8.3289    187.2381    171.3410   8.4469777962e+01   9.7949086828e+00    0.3303753    0.1984111 -50.11  0.001081518    1.926    0.481
       245  -8.0315    230.1420    168.2887   7.5483540073e+01   2.2120200316e+00    0.2873201    0.1471703 -52.86  0.001089076    3.334    0.700
       246  -8.4966     66.2953    168.0354   1.1184176723e+02   3.1932842912e+01    0.1968362    0.1722787  55.73 0.0003668247    1.171    0.146
       247  -7.3115    129.4786    165.4577   9.6200989476e+01   2.2265539834e+01    0.1455035    0.1384439  64.53 0.0001615191    1.012    0.011
       248  -8.0793    155.3998     18.1702   4.8806055699e+01   4.4077182894e+01    0.1894723    0.1238864 -39.98 0.0006233313    1.623    0.384
       249  -8.3481    139.5268     18.0268   5.1532327775e+01   4.8076294739e+01    0.1967942    0.1382466 -22.71  0.000418856    1.537    0.349
       250  -9.3225    132.8481     17.3598   5.2581747830e+01   4.9791183903e+01     0.274497    0.2329151 -63.39 0.0006636647    1.376    0.273
       251  -8.7208    133.5407    146.2998   9.1323453909e+01   2.5741314579e+01    0.5811697     0.152179 -52.46  0.001557548    4.383    0.772
       252  -9.2978     66.6369    144.0178   1.0821556160e+02   3.7585579444e+01    0.4990279    0.3157012  69.83  0.001926675    1.895    0.472
       253  -7.1698    159.2574    145.0104   8.4883308499e+01   2.0740093260e+01    0.1792147    0.1318357 -43.22            0    1.368    0.269
       254  -8.7184    112.1998    133.7835   9.4040125981e+01   3.2734293895e+01     0.388674    0.2697889  89.92  0.001181736    2.079    0.519
       255  -8.7968     83.4293    131.6101   1.0141034483e+02   3.8168458208e+01    0.7122891    0.3950252  73.92  0.002449847    3.611    0.723
       256  -7.3045    230.5193     17.4715   3.9482809139e+01   2.5568995871e+01    0.1293231    0.1125881 -71.49 0.0001006587    1.027    0.027
       257  -8.4395    112.3439     15.5799   5.6347385174e+01   5.4849848540e+01    0.2217358    0.1950279 -22.48 0.0006070123    1.225    0.184
       258  -9.9080    133.5782    131.5269   8.7963832359e+01   2.9060411153e+01    0.6364198    0.4556697  44.40  0.002877787    1.412    0.292
       259 -10.4299    117.6160    124.3521   9.0417760814e+01   3.3900788375e+01     1.238053    0.6602651 -49.89  0.002856753    1.822    0.451
       260 -10.1894    140.5563    118.4060   8.2950665936e+01   3.0510489794e+01    0.7284536    0.3733204 -46.18  0.002054968    1.926    0.481
       261  -7.5640    189.4661     15.4988   4.3233286784e+01   3.5720997401e+01    0.1359846    0.1232053  89.19 4.534603e-05    1.007    0.007
       262 -10.5929    122.9593     92.1793   8.0371891228e+01   3.9993534762e+01     1.123721    0.5193232 -39.78  0.002355854    2.157    0.536
       263  -9.2811    126.4208     83.0871   7.6691745438e+01   4.1117005181e+01    0.6395915    0.3894338  20.67  0.002157635    2.584    0.613
       264  -9.9087    139.5177    104.5788   7.9523553486e+01   3.3735452325e+01    0.5541685    0.3928855 -54.82  0.001867242    1.514    0.340
       265 -10.4497    131.9445    119.9156   8.5538654391e+01   3.2011344085e+01     1.072471    0.6705981  76.95  0.003695661    3.143    0.682
       266 -11.1527    133.5496    109.1254   8.2302913638e+01   3.4061386244e+01     1.259067    0.6778901 -36.73  0.004865125    1.980    0.495
       267 -10.2696    108.9253    113.4448   9.0120661778e+01   3.8098576940e+01     1.253762    0.4724492 -50.87  0.002325916    2.587    0.613
       268 -10.7158    109.0698     99.6555   8.6429303228e+01   4.1209121020e+01      1.42679    0.6937369  59.56  0.004326984    3.706    0.730
       269 -10.1953    121.2131    112.1084   8.6379667360e+01   3.5986641771e+01    0.8819515    0.5879867 -83.39  0.002002297    2.608    0.617
       270 -11.0081    126.6815    103.6806   8.2636112234e+01   3.6724033291e+01     1.291558    0.7689928 -18.41  0.004459911    2.980    0.664
       271  -8.2992    243.4857    132.4816   6.5319637357e+01   5.5758891649e+00    0.1413657    0.1221662 -16.36 0.0008097545    1.048    0.046
       272  -8.2529    141.8940    131.8255   8.5951399564e+01   2.7263260025e+01    0.3715805     0.189544  54.53  0.001358047    2.334    0.572
       273 -10.7208     70.4385    126.3625   1.0403288460e+02   4.1349712542e+01    0.6893605    0.5601986 -39.37  0.001488082    1.329    0.247
       274 -10.1572     58.5043    124.7116   1.0714000849e+02   4.3321887989e+01    0.7051505    0.3858227  74.88  0.002580641    3.141    0.682
       275  -9.8005     98.4578    128.5270   9.6600617325e+01   3.6446870885e+01    0.6040878    0.3769147  79.20  0.002251661    2.785    0.641
       276  -9.7819     41.9402    122.7549   1.1156209032e+02   4.5680136331e+01    0.6536267    0.3113826 -87.08  0.002508815    3.135    0.681
       277 -10.0422     27.3041    123.0250   1.1575695482e+02   4.7002849708e+01    0.5745065    0.2954946  72.93  0.002270079    2.667    0.625
       278  -8.1475    158.1650    121.8864   7.9553410194e+01   2.5877999700e+01    0.2457363    0.2161947 -76.89  0.001066299    1.303    0.232
