#   1 NUMBER                 Running object number                                     
#   2 MAG_AUTO               Kron-like elliptical aperture magnitude                    [mag]
#   3 X_IMAGE                Object position along x                                    [pixel]
#   4 Y_IMAGE                Object position along y                                    [pixel]
#   5 X_WORLD                Barycenter position along world x axis                     [deg]
#   6 Y_WORLD                Barycenter position along world y axis                     [deg]
#   7 A_WORLD                Profile RMS along major axis (world units)                 [deg]
#   8 B_WORLD                Profile RMS along minor axis (world units)                 [deg]
#   9 THETA_WORLD            Position angle (CCW/world-x)                               [deg]
#  10 FWHM_WORLD             FWHM assuming a gaussian core                              [deg]
#  11 ELONGATION             A_IMAGE/B_IMAGE                                           
#  12 ELLIPTICITY            1 - B_IMAGE/A_IMAGE                                       
         1 -11.5216     24.2422     55.9733   9.0733101361e+01   6.3563931970e+01     1.872522    0.6153007 -59.06  0.006650113    4.016    0.751
         2 -11.8122     23.7543     46.6526   8.7843355706e+01   6.5396489750e+01    0.7669018     0.430925 -26.03  0.001977477    1.681    0.405
         3 -10.7373    234.5892     30.0017   3.2002247822e+01   2.5097539007e+01    0.3879781    0.2206189  53.11 0.0008236524    2.258    0.557
         4 -10.6779     79.4671     30.6095   5.8362738555e+01   5.9436365316e+01    0.6394562    0.5001544  85.49   0.00283193    2.085    0.520
         5  -9.5076     42.4082     30.9777   7.2799376220e+01   6.5773361222e+01    0.4852684      0.40924 -70.55  0.001937608    2.227    0.551
         6 -10.1463    133.2241     29.9641   4.4755240007e+01   4.7681437210e+01    0.6920537    0.3582706  28.48  0.002762852    3.182    0.686
         7 -12.5766    105.0949     20.7389   4.7587228223e+01   5.5111005178e+01     0.356711    0.2501366  54.73 0.0004190105    1.236    0.191
         8  -9.7275     30.7667     12.2160   6.9685794664e+01   6.9919922897e+01    0.3539753    0.2154566  45.31 0.0007952424    2.134    0.531
         9 -11.1359     28.1716     30.9262   7.9574577440e+01   6.7630071601e+01    0.6753072    0.3637403 -12.74  0.001782423    2.203    0.546
        10 -10.8259     36.8906     25.9310   7.3151770668e+01   6.7272797131e+01    0.5186037    0.3843475 -51.89  0.001801576    2.105    0.525
        11 -10.7372     31.5535     19.9807   7.3026638471e+01   6.8815299565e+01    0.8666478    0.3657762  19.47   0.00363939    3.216    0.689
        12 -11.2587     42.0730     15.9164   6.6162313818e+01   6.7825506578e+01    0.4655899    0.2144098  27.74  0.001416041    2.160    0.537
        13 -10.0703     16.3532     18.3375   8.0272537015e+01   7.0842103885e+01    0.5025413    0.4282708   7.87  0.003687176    1.322    0.244
        14  -9.4068     78.9814     11.4169   5.0771339793e+01   6.1592316354e+01    0.2269935    0.1629255 -14.63 0.0006555913    1.530    0.347
        15  -8.7176     75.5283     12.4845   5.2230073140e+01   6.2192496092e+01    0.2323496     0.188683  42.50  0.000693653    1.094    0.086
        16  -9.7322     69.7969     11.7907   5.3718158374e+01   6.3390767092e+01    0.2323377    0.1813855  39.48 0.0006164042    1.094    0.086
        17 -11.3185     69.5041     16.2526   5.5726285375e+01   6.3006303280e+01    0.5458811    0.4346604  26.72  0.002336373    1.054    0.051
        18 -11.7128     61.9411     17.0689   5.8697546857e+01   6.4339579377e+01    0.6475975    0.3743712   2.15 0.0003450639    2.173    0.540
        19 -10.1763    131.5792     21.8016   4.2528117207e+01   4.8943520046e+01    0.3863648    0.2602484  -4.13  0.002059892    1.999    0.500
        20 -11.1582     50.4612     22.2154   6.5450827749e+01   6.5728713958e+01    0.2803687    0.2011464 -14.77 0.0004013703    1.345    0.256
        21 -10.3791    218.7758     18.8513   3.1057025771e+01   2.9581146474e+01     0.427251    0.2510576 -76.97   0.00250894    1.603    0.376
        22 -10.9057    166.3873     17.9975   3.6208483119e+01   4.1206065287e+01     0.309695    0.2522481   8.75  0.001209902    1.687    0.407
        23  -9.0492    144.0327     17.8911   3.9284020923e+01   4.6423853032e+01    0.6750088    0.2433185 -18.99  0.002487262    4.300    0.767
        24  -9.6264    148.4785     12.5170   3.7095536780e+01   4.5899337830e+01    0.2625433    0.2180625  50.43  0.001690131    1.232    0.188
        25  -9.2758    144.6673     12.7025   3.7690769317e+01   4.6770216072e+01    0.2364795    0.1632502  37.38 0.0007094806    1.663    0.399
        26  -9.7973    148.6015     16.8135   3.8291517675e+01   4.5461307296e+01    0.2812271    0.1952183 -59.52 0.0008037471    1.574    0.365
        27 -11.1340    133.0323     12.4745   3.9407515773e+01   4.9500953332e+01    0.2733485    0.2599744 -88.54 0.0003499028    1.131    0.116
        28 -10.0159    128.4187     12.8129   4.0278568687e+01   5.0541342021e+01    0.3970755    0.1713483 -30.07  0.001865731    2.546    0.607
        29  -9.6782    128.3754      7.7039   3.8692165722e+01   5.0994544650e+01    0.4313105    0.1534445  59.50  0.001622034    2.183    0.542
        30 -11.1018    231.1292     14.7481   2.9275112121e+01   2.7541154845e+01    0.3931038     0.210881 -56.03 0.0008669014    1.564    0.360
        31 -10.0822    236.9587     10.8393   2.8119493573e+01   2.6826745536e+01    0.2034127    0.1758768  64.91 0.0006869759    1.495    0.331
        32 -11.3043    236.2639      6.3033   2.7311925310e+01   2.7442391824e+01     0.531797    0.3507446 -40.76  0.003496986    1.509    0.337
        33  -9.4040    225.7925     16.4803   3.0015429295e+01   2.8414869174e+01    0.2273247    0.1566853 -34.28  0.001302819    1.614    0.380
        34  -8.9810     51.5697     12.9415   6.0760401835e+01   6.6616748921e+01    0.3114797    0.1460601 -32.59 0.0008146859    2.324    0.570
        35 -10.9292     14.9433     11.3614   7.7723656163e+01   7.1973911079e+01    0.3615985    0.3120042  16.25  0.001242484    1.464    0.317
        36 -10.0202      5.6420     16.1750   8.5494347859e+01   7.2167374366e+01    0.2656014    0.1669717 -28.96  0.000790724    1.288    0.223
        37 -10.1205      9.1644     14.8393   8.2776506672e+01   7.2059204331e+01    0.2563809    0.1579855  -7.44 0.0003939455    1.416    0.294
        38 -10.2275     14.9828      4.2802   7.4050798746e+01   7.2881788978e+01    0.2393192    0.1764924 -24.71 0.0003828464    1.386    0.279
        39 -10.1169     18.2013      1.8549   7.0912455564e+01   7.2783409302e+01    0.2326976    0.1433817  23.73 0.0007994348    1.366    0.268
        40 -10.9431    211.5465     12.6784   3.0368234084e+01   3.1754462805e+01    0.6087918    0.2515637 -29.64  0.002975008    2.778    0.640
        41 -11.1126    217.5910      3.8579   2.8094491076e+01   3.1407462552e+01    0.7358198    0.3145266 -35.12  0.003315577    2.307    0.567
        42 -10.8078    208.6858      3.8020   2.8736845836e+01   3.3257098929e+01    0.4210638    0.2767932 -75.76  0.001350141    1.295    0.228
        43 -10.4284    202.2884      7.3323   2.9994101731e+01   3.4263579114e+01    0.3463315    0.2270325 -80.57  0.002179364    1.335    0.251
        44 -10.1606    191.5943      8.8879   3.1274240157e+01   3.6427894657e+01    0.3269786    0.2776209 -42.75  0.001737149    1.320    0.242
        45 -10.8266    195.3314      3.7238   2.9787929259e+01   3.6111704098e+01    0.4783309    0.2215372  73.06  0.001898281    1.863    0.463
        46  -9.7736    116.9066     15.1756   4.3145998951e+01   5.2978351109e+01    0.2505904    0.1948994  14.15 0.0007972331    1.503    0.335
        47 -10.2284    243.2121     14.7308   2.8430608578e+01   2.5204025545e+01    0.2044335    0.1558185 -84.60 0.0007578076    1.154    0.134
        48  -9.2956    245.1512     10.8343   2.7586441585e+01   2.5265868048e+01    0.2045411    0.1217417 -48.65  0.001113489    1.399    0.285
        49  -9.4676     83.9636     14.5610   5.0633259769e+01   6.0273325222e+01    0.2394349    0.1870326  36.37 0.0007629319    1.087    0.080
        50  -9.8866    184.5289     12.6999   3.2842109338e+01   3.7614652653e+01    0.2729046    0.1759592 -57.31  0.001045884    1.490    0.329
        51 -10.9860    175.5476     13.0232   3.3870749392e+01   3.9606999888e+01    0.6543785    0.2863566  75.63  0.003101568    2.117    0.528
        52  -9.7618     92.9724      8.1319   4.5805667508e+01   5.8930878028e+01    0.3188412    0.1550106  52.86  0.001192858    1.651    0.394
        53 -10.8296     97.0736     12.1385   4.6339113929e+01   5.7695646142e+01    0.4791934    0.2823288 -15.23   0.00113903    2.013    0.503
        54  -9.6528    101.6779     11.3455   4.4993769261e+01   5.6752181012e+01    0.2696898      0.20835  69.89 0.0009581605    1.299    0.230
        55 -10.1060    166.9084      9.1949   3.3877548733e+01   4.1945422175e+01    0.4502528    0.2786084  40.85  0.002472115    2.022    0.505
        56 -11.9083    177.4102      3.0860   3.1261291644e+01   4.0123168277e+01    0.3989239    0.2014011  58.58 0.0003292038    1.863    0.463
        57  -8.9072     56.1483     10.2294   5.7739450302e+01   6.6094447822e+01    0.1830457    0.1299051  23.35 0.0005216874    1.200    0.166
        58 -10.7130      6.8114      8.8092   8.1275994683e+01   7.3140701035e+01    0.2766844    0.1802599 -29.71 0.0006810888    1.352    0.260
        59  -8.9359      1.2413      9.0771   8.4889009810e+01   7.3586518486e+01    0.2199813   0.08488608 -47.04  0.001121113    2.705    0.630
        60  -8.8316    119.8497      9.1533   4.0605997306e+01   5.2836032394e+01     0.185307    0.1638687 -87.30  0.001116779    1.211    0.174
        61  -9.2412     87.4312      7.1644   4.6788440211e+01   6.0198476169e+01     0.328229    0.2321396  13.04  0.001984774    1.544    0.352
        62 -11.2908     91.7793      2.7094   4.4018611674e+01   5.9616574565e+01    0.2646616    0.2177594 -73.33 0.0008778473    1.584    0.369
        63  -9.3854     81.5204      2.6399   4.6490313239e+01   6.1800886459e+01    0.3776115    0.1561889  37.65  0.001248908    2.305    0.566
        64 -11.4859     74.0514      4.4188   4.9269162479e+01   6.3194192912e+01    0.4685903    0.2989193  -3.58  0.002041259    1.770    0.435
        65  -8.9911     69.5211      1.9667   4.9540294051e+01   6.4294634707e+01    0.1687514    0.1361645  31.27 0.0004796845    1.046    0.044
        66  -9.7195     63.1300      7.0323   5.3811621082e+01   6.5109238902e+01    0.2865188    0.2394106  88.24  0.000824403    1.893    0.472
        67  -7.9456     65.4850      4.4612   5.1888256909e+01   6.4881967490e+01    0.1249945   0.09536589  31.67 0.0001015824    1.063    0.059
        68  -9.3678     49.4547      7.3866   5.8972059509e+01   6.7546796780e+01    0.3369654     0.173462  32.67  0.001522231    1.685    0.406
        69 -11.0834     24.9948      6.9294   6.9943812772e+01   7.1328060262e+01    0.2128047    0.1627309  23.22 0.0003192268    1.262    0.208
        70 -10.2762     21.1689      5.8433   7.1414458645e+01   7.1948689307e+01    0.2630042    0.1688324 -13.77  0.001409625    1.378    0.274
        71  -8.9458    183.7404      6.7199   3.1511830384e+01   3.8373974358e+01    0.3160434    0.1506967  44.25  0.001306051    2.982    0.665
        72 -10.1171    153.2441      5.2524   3.4460908929e+01   4.5441763729e+01    0.3360949    0.2052309  40.28  0.001270477    1.942    0.485
        73 -11.9682    160.9581      2.5755   3.2845466135e+01   4.3896727537e+01    0.3994493     0.268589  68.75 0.0006435426    1.262    0.208
        74 -10.3171    106.4802      6.2221   4.2150656323e+01   5.6108550376e+01    0.3719513    0.3135502  72.58  0.001187463    1.180    0.153
        75  -9.1883    109.7558      1.8051   3.9986596811e+01   5.5710983841e+01    0.3060826    0.1785009 -84.57  0.000664789    2.469    0.595
        76 -10.1456    248.0016      4.7659   2.6317656049e+01   2.5381695254e+01    0.2134258    0.1320449  84.59 0.0002127135    1.460    0.315
        77 -10.8923    249.9684      1.5356   2.5634476025e+01   2.5354815979e+01    0.1959174    0.1479069 -74.36  0.000355497    1.070    0.065
        78  -9.6253     37.6843      3.9223   6.2220640595e+01   6.9820151077e+01    0.2427968    0.2245103  50.84  0.001629951    1.660    0.397
        79 -10.3498    126.9627      2.1034   3.7175502994e+01   5.1767837105e+01    0.4107074    0.1798168  46.61  0.001967432    2.171    0.539
        80 -10.2519     30.8311      2.7636   6.4816813653e+01   7.0975239313e+01     0.226678    0.1904225 -35.58 0.0008707201    1.749    0.428
        81  -9.7192    135.5547      1.7725   3.5808144447e+01   4.9813672425e+01    0.2246397    0.1690739  82.78  0.001411491    1.218    0.179
        82 -10.4769    115.6912      1.9553   3.8973493456e+01   5.4356908685e+01    0.2132146     0.157836  63.41 0.0002945316    1.124    0.110
        83  -8.6625    144.3149      1.6730   3.4598189343e+01   4.7799254489e+01    0.1257834   0.08259851 -70.38 -4.664655e-05    1.671    0.402
        84  -9.3745     50.8056      1.5437   5.5624016517e+01   6.7848313689e+01    0.2818978    0.1089432  46.32  0.001168065    2.101    0.524
        85  -9.2158    223.9759      8.6558   2.8595379553e+01   2.9621555059e+01    0.1654529    0.1208464 -81.13  0.001146823    1.115    0.103
        86  -8.9998    186.5778      1.2465   2.9984378573e+01   3.8252635994e+01    0.3113711   0.06381915  67.44   0.00118081    3.577    0.720
        87  -9.8032    221.5642    119.2912   5.2512288596e+01   1.4065107896e+01    0.2811247    0.2504064  35.32 0.0009973536    1.304    0.233
        88  -9.5704    201.5791    249.5714   8.1513123091e+01  -5.6943753835e+00     0.240054    0.1633017   9.71 0.0006267438    1.291    0.225
        89  -9.2245     93.8935    119.3279   8.2169350641e+01   3.9945629703e+01    0.3118452    0.2134262 -39.92  0.001194567    1.452    0.311
        90 -10.4682     45.0007    119.5048   9.8384929586e+01   4.6978802021e+01    0.3992355    0.2735239  19.09  0.001126657    1.637    0.389
        91 -10.4666     47.5215    114.5591   9.6500532588e+01   4.7934927768e+01    0.3969676    0.3372071 -64.59  0.002092439    1.154    0.133
        92  -8.6012    103.8513    119.3604   7.9131106986e+01   3.8124564577e+01    0.2139188    0.1472107  26.21 0.0002120946    1.611    0.379
        93  -9.1223     38.4931    118.4766   1.0041727434e+02   4.7925467954e+01     0.142522    0.1242664 -49.81 7.038112e-05    1.024    0.024
        94  -9.4864     32.6041    118.1643   1.0238380070e+02   4.8574143493e+01    0.2404515    0.1450578 -35.09 0.0008172599    1.742    0.426
        95 -11.0546     33.0497    113.6740   1.0139537746e+02   4.9658430859e+01    0.3895379    0.3205668 -74.14  0.001442914    1.224    0.183
        96  -9.2475     70.3481    116.3839   8.9079520966e+01   4.4489257490e+01    0.2677325     0.179316 -59.90 0.0005373344    1.499    0.333
        97  -9.1794     80.6230    115.7217   8.5513202032e+01   4.3062109585e+01    0.2520411    0.1902815 -62.82  0.000372076    1.414    0.293
        98 -10.7065     62.6204    112.9542   9.0899407734e+01   4.6431317656e+01    0.5829021    0.2336399 -55.20  0.002174478    2.286    0.563
        99  -9.1155    239.2888    117.3657   4.9451257076e+01   1.1199553249e+01    0.1302622   0.09662005 -14.33 0.0007024022    1.702    0.412
       100  -8.0588    162.2888    113.6746   6.2347702266e+01   2.7264446064e+01     0.152963    0.1197931 -76.31  0.000275565    1.611    0.379
       101  -8.1436    171.7765    111.9923   5.9881008400e+01   2.5550478761e+01    0.1937978    0.1191894 -41.52 0.0002101954    1.554    0.357
       102  -9.4065     76.0004    112.0260   8.6126642156e+01   4.4689695180e+01     0.219673    0.2060759 -34.10 0.0003409052    1.009    0.009
       103  -8.6255     52.9758    113.0000   9.4257671191e+01   4.7674566103e+01    0.2233294    0.0832276  27.21 0.0004952507    2.911    0.657
       104  -9.0494    233.6850    111.3615   4.8988977493e+01   1.3217758404e+01    0.1391274   0.09259172 -63.96 0.0001961085    1.758    0.431
       105  -8.3938     40.6044    111.7725   9.8352293629e+01   4.9385261714e+01    0.1424695   0.09730031 -23.16 0.0006887362    1.644    0.392
       106  -9.6164     57.9741    108.0055   9.1352005782e+01   4.8262776177e+01    0.2116702    0.1929663 -37.72 -0.005334738    1.004    0.004
       107 -10.3713     33.9319    103.4250   9.9024843772e+01   5.2103088212e+01    0.3692088    0.2140981 -39.36  0.001164089    1.633    0.388
       108  -9.6069     37.1541    106.5412   9.8501726507e+01   5.1028001880e+01    0.3323085     0.177354 -56.10  0.001216624    1.609    0.378
       109 -11.3483     39.9825    102.7133   9.6636727952e+01   5.1671784891e+01    0.9731601    0.4385571   3.02  0.003263287    4.143    0.759
       110  -9.9972     40.4135     99.0182   9.5637325210e+01   5.2515487278e+01    0.4987458     0.243923  20.96  0.001052455    2.292    0.564
       111  -9.5199      8.1634    106.2351   1.0891016807e+02   5.3373928673e+01    0.2492487    0.1357514 -56.19 0.0009815898    1.457    0.313
       112  -9.3699     91.8818    106.1344   7.9381662461e+01   4.3402113957e+01    0.2184854    0.2099749  84.15 0.0003650698    1.177    0.150
       113  -9.6495    132.1719    104.0337   6.7068044352e+01   3.5804822088e+01    0.2464693    0.2187561  41.93 0.0002824531    1.136    0.120
       114  -9.5239    107.8504    103.9030   7.3829492240e+01   4.0883338887e+01    0.2101682    0.1813108 -68.11 0.0005717507    1.333    0.250
       115 -10.9826    101.8538    102.7388   7.5321062252e+01   4.2311581494e+01    0.4724839    0.2889054  33.80 0.0009023504    1.710    0.415
       116  -9.6922    118.9627    103.0131   7.0365383176e+01   3.8819897049e+01    0.2321842    0.2195164 -19.21 0.0003425645    1.047    0.045
       117 -11.6696    117.6950     97.9261   6.9296624880e+01   4.0162255287e+01    0.3016897    0.2785869  -3.22 0.0003616277    1.110    0.099
       118 -10.3090     51.5403    100.9800   9.1974646964e+01   5.0772082801e+01    0.4799012    0.2675725 -68.11  0.001662158    2.185    0.542
       119 -10.0430    125.9233    102.0669   6.8185999349e+01   3.7556045530e+01    0.5434999    0.2196517  46.70  0.001095908    2.526    0.604
       120 -10.2816     71.6715    104.0161   8.5558452953e+01   4.7266111044e+01    0.3139478    0.2013654  41.19  0.001251267    1.688    0.408
       121  -9.5597     85.6132    102.2081   8.0354685209e+01   4.5406612919e+01    0.4160257    0.2058263  41.12 0.0009092102    2.104    0.525
       122 -10.8394     79.0894    100.4249   8.2054337438e+01   4.6918184860e+01    0.4614087    0.3591386 -38.09  0.002255066    1.227    0.185
       123  -9.0126      6.8385     78.1105   1.0431935622e+02   6.0091476465e+01    0.1771595    0.1626299   1.45 0.0004385918    1.261    0.207
       124 -10.3403      8.0162     98.5724   1.0771598451e+02   5.5240238590e+01     0.504694    0.3288639  37.40  0.002818923    1.855    0.461
       125  -8.8579      7.1902     94.4295   1.0731155527e+02   5.6277695214e+01    0.2397245    0.1859611  47.38  0.001450393    1.607    0.378
       126 -10.4841      2.1587     79.5834   1.0655767691e+02   5.9997207145e+01    0.4332875    0.2686578 -77.73  0.002292716    1.739    0.425
       127  -9.8553      2.1537     92.2011   1.0884139879e+02   5.7066749692e+01    0.2304775    0.1852768 -87.84 0.0004289701    1.370    0.270
       128 -10.4690      2.1385     87.3124   1.0800225804e+02   5.8215417138e+01    0.5228221    0.1497311 -63.14   0.00212972    2.541    0.606
       129  -9.9948    154.7181     98.2924   6.0047055445e+01   3.1996259759e+01     0.527744     0.231529 -44.38  0.001189913    2.248    0.555
       130  -8.4315     59.5683    100.5240   8.8937995412e+01   4.9839594834e+01    0.1440166     0.132942 -38.30 -7.379617e-05    1.046    0.044
       131  -9.2525     21.0044     99.1682   1.0297426929e+02   5.4238082098e+01      0.24629    0.1745649  37.61  0.000863514    1.668    0.400
       132  -9.5033     16.4434     98.8434   1.0462311298e+02   5.4645894518e+01     0.280998    0.1985524 -57.18 0.0009742178    1.179    0.152
       133  -9.9714     13.4411     95.3530   1.0510415095e+02   5.5683375380e+01     0.422093    0.1393384 -56.31  0.001763148    2.214    0.548
       134  -9.3383    149.9190     97.1539   6.0833403136e+01   3.3290857034e+01    0.2219781    0.2007944 -85.89 0.0002971219    1.210    0.173
       135  -9.5546    125.6996     97.1163   6.6863732837e+01   3.8632165321e+01    0.2681751    0.2194068  58.45   0.00132018    1.325    0.245
       136  -9.1445     59.2688     96.9773   8.8129460833e+01   5.0710501680e+01    0.2024635    0.1674117 -38.58  0.001092758    1.104    0.094
       137  -8.0363    171.2962     96.3688   5.6031006143e+01   2.8659268621e+01    0.1497294     0.117744   1.61  0.000702953    1.728    0.421
       138  -8.3733    111.5105     96.4912   7.0662036450e+01   4.1743305997e+01     0.151499    0.1477188  -5.69 -6.02968e-05    1.017    0.017
       139  -9.3249     87.0999     96.1726   7.8178626142e+01   4.6500296449e+01    0.2311819    0.1961446  -6.75 0.0006197504    1.235    0.190
       140  -9.9644     23.0558     94.3864   1.0122609436e+02   5.5225077652e+01    0.3069813    0.2507822  73.85  0.001135191    1.563    0.360
       141 -10.6635     32.3513     92.9963   9.7321904241e+01   5.4750576764e+01    0.5895037    0.2714024 -43.83  0.002262703    1.914    0.478
       142 -10.4173     46.1791     90.7473   9.1416829939e+01   5.3814637221e+01    0.5549046    0.3789274 -87.98  0.002097149    2.422    0.587
       143 -11.0434     27.2309     87.0013   9.7945127491e+01   5.6612199822e+01    0.7336212    0.3861481 -32.95  0.002069653    1.912    0.477
       144  -8.8078    165.8821     94.5069   5.6648010672e+01   3.0215358877e+01    0.2187197    0.1458664  51.43  0.001011954    1.532    0.347
       145  -8.9596    139.5000     92.5022   6.2028246147e+01   3.6525897681e+01     0.149754     0.147156   5.49 -0.0001788565    1.028    0.027
       146  -9.1796    104.5886     91.3263   7.1220465319e+01   4.4224725687e+01     0.264894    0.2375812 -50.50 0.0006222054    1.176    0.150
       147  -9.3804     65.9522     85.4985   8.2479425606e+01   5.2329994056e+01    0.2948623    0.2413219  17.11  0.000972904    1.233    0.189
       148  -9.5024     68.4960     74.9209   7.8299063298e+01   5.4149209495e+01    0.3686626    0.2691672 -70.20  0.001755563    2.085    0.520
       149 -10.7496     71.0390     88.2524   8.1434222920e+01   5.0942592962e+01    0.7578608    0.3053336 -48.62  0.001822095    2.374    0.579
       150 -11.5397     80.9266     83.4553   7.6513755196e+01   5.0316011231e+01    0.4539114     0.315439  21.94 2.898308e-05    1.550    0.355
       151 -10.4274     65.3488     77.4343   8.0265604954e+01   5.4130998548e+01    0.5269668    0.4281805 -68.73  0.002466142    1.630    0.387
       152 -10.7986     73.9926     79.3309   7.7681890176e+01   5.2352596485e+01    0.4849064    0.3242689 -33.06 0.0009152485    1.484    0.326
       153  -9.9785     70.2712     78.9709   7.8918870209e+01   5.3037045004e+01    0.1998866    0.1982471  81.64 0.0003759629    1.225    0.184
       154  -8.9879    114.5489     90.1854   6.7956636509e+01   4.2413486370e+01    0.3853637    0.2019697  28.91   0.00139394    2.603    0.616
       155 -10.4517     86.3272     88.9609   7.6338192563e+01   4.8201088712e+01    0.4200669    0.3406391 -13.83  0.001823441    1.305    0.234
       156  -9.6499     86.7767     83.5428   7.4552030483e+01   4.9251043780e+01    0.2627866    0.2419993 -19.60 0.0003349508    1.040    0.038
       157 -10.5049     51.5815     82.8194   8.7161542114e+01   5.4933354524e+01    0.3393009    0.2984709 -28.49 0.0006426228    1.020    0.020
       158 -11.0025     44.6068     81.9099   8.9660910318e+01   5.5993989184e+01     1.098495    0.3251919  30.68  0.003928035    3.394    0.705
       159 -13.1527     52.8862     74.4516   8.4165077801e+01   5.6552962778e+01    0.9224899    0.4370009 -59.50   0.00125225    2.845    0.649
       160 -11.4143     45.2183     68.7477   8.5516488586e+01   5.8724040160e+01    0.3137262    0.2174902 -31.61 0.0002223799    1.315    0.240
       161  -9.7565     39.6134     87.7281   9.3197556035e+01   5.5244821193e+01    0.3259082    0.2527697 -28.80   0.00068125    1.193    0.162
       162 -10.0099      7.3541     89.2890   1.0632012124e+02   5.7483801980e+01     0.295957    0.1855354  38.00 0.0009148986    1.973    0.493
       163  -8.7529     97.8428     88.8121   7.2557008224e+01   4.6076725752e+01    0.1983628    0.1804844 -79.71 0.0002498688    1.330    0.248
       164  -9.9013    118.4360     84.5820   6.5208236722e+01   4.2693106186e+01    0.3386036    0.2430734  36.94  0.001063307    1.411    0.291
       165 -10.6117    123.5850     86.3200   6.4323830493e+01   4.1241758674e+01    0.4141986    0.3171665 -27.52  0.001138343    1.399    0.285
       166 -10.9233    129.4793     84.7942   6.2333993272e+01   4.0236298735e+01    0.7013448    0.3932356  23.67  0.002429925    3.157    0.683
       167  -8.9677     14.3345     87.5138   1.0321658921e+02   5.7476165792e+01    0.3757963    0.1568304 -35.02  0.001620061    2.421    0.587
       168  -9.7340    104.7274     85.8704   6.9552671183e+01   4.5309301315e+01    0.3299894    0.3011508 -47.92  0.001276069    1.158    0.136
       169 -10.4121    155.2548     85.1910   5.6395630256e+01   3.4333294324e+01    0.2937857    0.2785741  10.32 0.0004262058    1.149    0.130
       170 -10.4373    151.3964     80.6348   5.5972248629e+01   3.6031179334e+01    0.4785085    0.2888814  61.76  0.001394372    1.805    0.446
       171 -10.6395    142.7437     83.3962   5.8690952705e+01   3.7512337236e+01    0.5960729    0.3262462  68.59  0.001432252    2.781    0.640
       172  -8.9490     13.0000     78.0245   1.0171755885e+02   5.9741637345e+01    0.2211979    0.1164448 -36.94  0.001121353    1.682    0.406
       173  -9.9914    124.1574     79.9049   6.2270117750e+01   4.2328808790e+01    0.4383556    0.2828797  68.03  0.001650279    2.112    0.526
       174 -10.0609     97.1344     63.8410   6.4865400165e+01   5.0962740828e+01    0.3087486    0.1942359  38.92 0.0007926491    1.532    0.347
       175 -10.1782     89.4245     73.3444   7.0455674782e+01   5.0769793432e+01    0.5783196    0.3241127 -31.65  0.002496149    1.942    0.485
       176 -10.5804     94.5013     71.1786   6.8111534227e+01   5.0186865979e+01    0.7571604     0.447299 -57.00  0.003151859    2.391    0.582
       177  -9.2291     83.5050     65.0370   6.9681117721e+01   5.3422245267e+01    0.2758155    0.2103718  -9.55 0.0005807698    1.424    0.298
       178  -9.3532     82.7072     61.6536   6.8794421924e+01   5.4170902290e+01    0.3879938    0.2362549 -14.27  0.001671687    2.265    0.559
       179  -9.9404     93.7408     79.0070   7.0858745577e+01   4.8848711570e+01    0.3902518    0.2599258  21.81  0.001111267    1.750    0.429
       180  -8.9948     89.1732     78.1544   7.2077341791e+01   4.9888748254e+01    0.2382862    0.2153916 -61.05 0.0003578654    1.304    0.233
       181 -10.1447    168.0473     78.4544   5.1998785448e+01   3.2586876578e+01    0.2566058    0.2193456 -43.99 0.0003467952    1.157    0.136
       182  -9.5989    159.8971     78.8573   5.3704671338e+01   3.4387890794e+01      0.22993    0.2009647  28.49  0.001237533    1.293    0.227
       183  -9.9226     19.2118     80.9055   9.9785868255e+01   5.8656097671e+01     0.445106    0.2893053  35.57  0.002437984    1.848    0.459
       184  -9.5539    111.1697     77.0878   6.4970027409e+01   4.5667340021e+01    0.3357697    0.3015338 -20.56  0.001313347    1.129    0.114
       185  -9.0437    111.2068     71.3969   6.3177583229e+01   4.6693680236e+01    0.3551156    0.2034683 -20.33  0.001395596    2.498    0.600
       186 -10.8068    178.7859     75.1362   4.9188182370e+01   3.0694950929e+01    0.5770689    0.3190032  54.11  0.002630357    1.822    0.451
       187  -9.8907    141.4935     75.4905   5.6716805198e+01   3.9206519089e+01    0.2637303    0.1896614 -32.13 0.0005623204    1.473    0.321
       188 -10.3627    145.7287     74.8893   5.5593124328e+01   3.8336130307e+01    0.3700784    0.2781747 -49.82   0.00114633    1.383    0.277
       189  -9.4654    146.0761     70.5157   5.4265280635e+01   3.8994215074e+01    0.3348359    0.1966466  55.15  0.001503474    1.662    0.398
       190  -9.1431    118.6090     75.5863   6.2439209497e+01   4.4338197009e+01    0.2920407    0.2174731 -83.39  0.001317869    2.031    0.508
       191  -8.7255     37.4513     75.8133   9.0866954049e+01   5.8133539396e+01    0.1907821    0.1059083 -40.72 0.0006155724    1.593    0.372
       192 -10.9556     44.3603     54.2316   8.1026041370e+01   6.1655157639e+01     1.290266    0.3865249  35.16  0.004843401    3.344    0.701
       193  -8.9852     31.9361     47.7118   8.4302901186e+01   6.4351173733e+01    0.1719845    0.1516111  -1.87 0.0005440657    1.166    0.142
       194 -10.3082     44.6568     48.0518   7.8639874832e+01   6.2721856295e+01    0.7684124    0.3283583  19.89   0.00299193    3.187    0.686
       195 -10.8601     14.3737     39.6250   9.0066497943e+01   6.7524441168e+01    0.4639111    0.4471028 -60.90  0.002764972    1.517    0.341
       196  -9.8490     37.1218     47.7118   8.1895768605e+01   6.3747484781e+01    0.5333929    0.2854994 -10.01  0.001526468    2.623    0.619
       197  -9.8261     23.9947     40.6820   8.5554571914e+01   6.6452813107e+01    0.2789874    0.1548612 -38.43  0.001538467    1.565    0.361
       198 -10.2503    115.7606    248.3656   9.9260523507e+01   6.5636473458e+00    0.2414467    0.2182365  23.99 0.0007268887    1.083    0.077
       199  -7.8621     57.1830    249.0007   1.1182489905e+02   1.4297907396e+01    0.1334356   0.08853798 -75.88 0.0007883604    1.586    0.370
       200  -9.7476     16.5732     46.8310   9.1445874292e+01   6.6005335395e+01     0.250712    0.1745919 -15.18 0.0009936845    1.272    0.214
       201  -9.9592     34.7418     41.6251   8.0700622748e+01   6.5096809007e+01     0.341639    0.1848846  11.85  0.001190166    2.088    0.521
       202 -11.8328     40.2644     39.3946   7.7258209337e+01   6.4767203669e+01    0.2956192    0.1966789  -3.87 0.0008478703    1.520    0.342
       203 -11.0136     54.1717     61.2064   7.9333040207e+01   5.9008629358e+01    0.3128151    0.2843133 -82.32            0    1.597    0.374
       204 -10.7085     56.3077     56.7889   7.6917981187e+01   5.9511582742e+01    0.3307045    0.2315703  28.61 0.0002763825    1.392    0.282
       205 -11.6663     28.1352     63.5060   9.1289414729e+01   6.1678681215e+01    0.7368251    0.4443518 -64.86  0.003685398    2.105    0.525
       206 -10.8769     32.1920     59.6595   8.8267396838e+01   6.2049384074e+01    0.6315562    0.2955913 -54.97  0.002887407    2.241    0.554
       207  -9.1624     18.5809     73.4895   9.8259265242e+01   6.0362840031e+01    0.4706422    0.1931582 -60.13  0.002084603    2.215    0.548
       208 -10.2267    169.8729     72.9229   5.0197349891e+01   3.3090785149e+01    0.3480826    0.2025398 -37.99  0.001596577    1.718    0.418
       209  -8.6415     84.3130     72.6958   7.1953305160e+01   5.1852994895e+01    0.1979622    0.1562948  -5.97  0.001018807    1.361    0.265
       210 -11.2804      8.1758     51.0992   9.6961172890e+01   6.5788976611e+01    0.6900013    0.4518732 -15.84  0.001745155    1.410    0.291
       211  -9.5967     15.9307     60.0279   9.5841199565e+01   6.3436467444e+01    0.3038571    0.1855153 -31.35 0.0004591358    1.419    0.295
       212 -10.5062     12.1372     67.0105   9.9456309617e+01   6.2228347814e+01    0.8352619    0.3238985 -30.16  0.003492735    2.808    0.644
       213 -12.5107      2.4655     66.2264   1.0360434343e+02   6.2955486920e+01    0.4162931     0.235874 -60.19 0.0001784086    1.509    0.337
       214 -10.0268      9.1006     62.7060   9.9731488726e+01   6.3341748822e+01    0.2673728    0.2055585   6.46 0.0008177578    1.387    0.279
       215 -10.8861      5.2282     59.4983   1.0070055958e+02   6.4245860403e+01    0.5307379    0.2780545 -29.80  0.002865897    1.716    0.417
       216 -10.7033     79.7871     69.9816   7.2620289363e+01   5.3192817034e+01    0.2627974    0.2472067  19.66 0.0004343113    1.107    0.096
       217  -9.7516     37.2955     69.2156   8.9005999730e+01   5.9554343665e+01    0.3761168    0.2251934 -41.35  0.001887466    1.463    0.316
       218 -10.3723     31.1639     53.0389   8.6538924296e+01   6.3445127320e+01    0.5926621    0.2348923  32.55  0.002638109    2.642    0.622
       219 -10.3252    173.4793     68.8885   4.8495820504e+01   3.2912882666e+01     0.266644    0.2355359 -64.88 0.0003473356    1.099    0.090
       220 -10.6913    131.4092     59.7174   5.4341440714e+01   4.4120613848e+01     1.342617    0.3805372  54.44  0.004302133    3.364    0.703
       221  -9.1907    124.7129     57.1320   5.5119762272e+01   4.6052453094e+01    0.3177686    0.1891208  60.73 0.0009184124    1.754    0.430
       222 -10.6646    135.3911     64.5859   5.4901733879e+01   4.2434519675e+01    0.4820848    0.3393368  53.51  0.001329664    1.361    0.265
       223 -10.1201    140.8657     68.2009   5.4737386872e+01   4.0582624114e+01    0.2867976    0.2485094 -52.65 0.0003648716    1.204    0.169
       224 -10.0914    141.9838     59.0899   5.1814675238e+01   4.1764325707e+01    0.3523192    0.3458072  17.74  0.001878043    1.083    0.076
       225  -9.6784    143.5962     65.7171   5.3413355131e+01   4.0353091611e+01    0.2655372    0.2348964 -72.76 0.0006303146    1.213    0.175
       226  -9.4150    140.6695     63.2935   5.3337543937e+01   4.1418793648e+01    0.2530944    0.2140644  60.91 0.0004712546    1.147    0.128
       227  -8.9992    129.3186     70.0535   5.7990259119e+01   4.2919949233e+01     0.195651    0.1892898 -35.78 0.0004118082    1.069    0.065
       228  -9.8721    102.2976     69.6492   6.5209118043e+01   4.8884204929e+01    0.4691997    0.3576804  26.50  0.002391115    1.354    0.261
       229  -8.8757     64.1993     69.0902   7.8028013439e+01   5.5987672527e+01    0.2209824    0.1750503  -0.62 0.0006992191    1.260    0.206
       230  -9.2374    119.0497     67.7239   5.9882056269e+01   4.5619488995e+01    0.2869123    0.1979418 -11.55  0.001302329    1.927    0.481
       231  -9.1395     75.3364     66.0104   7.2865726406e+01   5.4725286837e+01    0.2405508    0.1890422 -33.80 0.0006067207    1.252    0.201
       232  -9.5635     77.2837     62.0691   7.0821344459e+01   5.5094800288e+01    0.2394662    0.2149661  24.19 0.0003542802    1.099    0.090
       233  -8.9147    174.9904     62.7562   4.6642436260e+01   3.3517865615e+01    0.1875822    0.1706426  72.55 0.0003424801    1.077    0.071
       234  -9.8100    152.6582     60.7185   5.0115113824e+01   3.9020783300e+01    0.5285044    0.3192199  27.90  0.002189104    2.577    0.612
       235  -8.8808    110.2078     62.8447   6.0713255185e+01   4.8376024960e+01    0.2019749    0.1900859  59.83 0.0005761211    1.135    0.119
       236  -9.7103     86.8745     68.0589   6.9563446800e+01   5.2239350294e+01    0.4322045     0.282016  33.85  0.001154894    1.509    0.337
       237  -9.8925    193.6921     60.7057   4.3254016333e+01   2.9594045979e+01    0.3905856    0.1894699 -43.14  0.001786891    1.923    0.480
       238 -10.1873     71.9533     60.2480   7.2106494985e+01   5.6359915151e+01    0.4788013    0.2997888  23.86  0.002315448    1.692    0.409
       239  -9.3271     65.2522     62.0152   7.5233135281e+01   5.7162972282e+01    0.2422892    0.1929061  23.98  0.001116474    1.206    0.171
       240  -8.6313     62.2974     62.3033   7.6472816523e+01   5.7580561144e+01    0.2130896    0.1709521 -13.46 0.0005921769    1.178    0.151
       241 -10.2795    166.5473     60.2052   4.7406213653e+01   3.5855584931e+01    0.3002912    0.2708356 -19.19 0.0008284259    1.275    0.216
       242  -9.1741    167.4791     56.4852   4.6249238759e+01   3.6189000681e+01    0.2570056    0.1735257  42.76 0.0007155236    1.671    0.401
       243 -10.0650    161.5459     60.1205   4.8273706842e+01   3.7033486254e+01    0.2996697    0.2498372  18.78 0.0008082346    1.511    0.338
       244  -9.0706    114.5064     60.3182   5.8725273396e+01   4.7846321293e+01    0.2670778    0.1871385  48.05  0.000695154    1.350    0.259
       245  -9.3345     39.7675     59.3048   8.4784595835e+01   6.1269429537e+01    0.2875847    0.1874724 -15.29  0.001514831    1.594    0.373
       246  -9.6273    136.8572     55.4595   5.1827266731e+01   4.3503853673e+01    0.3450575    0.2016118 -27.78  0.001307676    1.959    0.489
       247  -9.5769     66.1964     55.8228   7.2683380785e+01   5.8115686555e+01    0.9139065    0.4026957  20.49  0.002790124    4.773    0.790
       248 -10.6480     68.4546     48.4200   6.9104505254e+01   5.8966017283e+01    0.4227912    0.3159044  53.19 0.0008819835    1.678    0.404
       249 -12.4361     62.2806     44.2247   6.9855368146e+01   6.0684169478e+01    0.4893585    0.3187831  35.08 0.0005353895    1.448    0.309
       250  -8.8370    131.4692     45.5020   4.9935352874e+01   4.6166373941e+01    0.1383079    0.1263655  48.76 -1.074376e-05    1.042    0.040
       251 -11.3157    127.1174     46.8751   5.1319564300e+01   4.6988029260e+01    0.5750871    0.4175021 -69.45  0.002898321    1.811    0.448
       252 -10.2457    117.4711     52.1504   5.5304599311e+01   4.8439225940e+01    0.4055653    0.2499796 -38.85 0.0003183295    1.727    0.421
       253 -10.3260    122.5834     50.3216   5.3464851369e+01   4.7545713048e+01    0.4259432    0.3642528  13.09  0.002393877    1.292    0.226
       254  -9.1673     96.7991     48.9691   5.9856748726e+01   5.3410567481e+01    0.4061672    0.1874443 -28.04  0.001659785    2.529    0.605
       255  -9.7068     93.1685     55.1270   6.3116202494e+01   5.3213447168e+01    0.4371257     0.294508  37.38  0.001764735    1.404    0.288
       256  -9.6198     93.1212     50.8992   6.1646046672e+01   5.3882529215e+01    0.2533685    0.2200727 -29.87 0.0003965725    1.219    0.180
       257 -10.4066     79.4584     54.3246   6.7326640101e+01   5.6021004320e+01    0.3005924    0.2423901  -5.70 0.0004515615    1.247    0.198
       258  -9.1620    162.3561     54.6024   4.6621010270e+01   3.7656803988e+01    0.2713377    0.2038757 -55.67  0.001172621    1.374    0.272
       259  -9.8182    145.8189     52.2715   4.9028996621e+01   4.1870831277e+01    0.3286982    0.2408347 -77.44 0.0009548434    1.676    0.403
       260  -8.9039    106.6932     53.0115   5.8425937491e+01   5.0695158733e+01    0.1891917    0.1766216   8.50 0.0003756898    1.069    0.064
       261  -9.1672     83.7755     51.7189   6.4925049065e+01   5.5619093077e+01    0.3383864    0.1772072 -38.11  0.001541018    1.991    0.498
       262  -9.2187     87.2129     49.0567   6.2840729979e+01   5.5356346099e+01    0.2745604    0.1820977  41.91 0.0007594713    1.402    0.287
       263  -9.4859     61.5772     52.3752   7.3212680569e+01   5.9466783415e+01    0.2513787    0.2071345   3.76 0.0006817756    1.100    0.091
       264  -9.6751    197.3435     59.9644   4.2565593563e+01   2.8896190256e+01    0.2355131    0.2190233 -82.05 0.0003784141    1.077    0.072
       265  -9.9496    175.0910     49.9900   4.3314931887e+01   3.5345221934e+01    0.3461121    0.2606069  24.95  0.001825934    1.865    0.464
       266 -10.8409    153.2776     47.8175   4.6341740379e+01   4.0738086288e+01    0.4293376    0.2977191  71.60  0.001154143    1.439    0.305
       267  -9.6931    159.4971     50.4779   4.5986256601e+01   3.8910465390e+01    0.4172149    0.1421313  56.92  0.001115542    2.651    0.623
       268  -9.9316    164.1405     46.6086   4.4146616082e+01   3.8351996372e+01    0.3645348    0.2763447  18.36  0.001918957    1.854    0.461
       269  -8.0805    191.2534     49.6854   4.0926109083e+01   3.1708204266e+01    0.1332426   0.08938176 -65.04 0.0002735958    1.526    0.345
       270  -8.6201    196.7331     48.4436   3.9912908451e+01   3.0658388645e+01    0.1732038    0.1138608  55.96 0.0008767082    1.595    0.373
       271  -9.0624    182.1417     48.1504   4.1806609003e+01   3.3978446311e+01    0.1945405    0.1802281  56.69 0.0006451697    1.199    0.166
       272 -10.1344    114.7400     46.7065   5.4196371566e+01   4.9832435869e+01    0.3216456     0.261636  -1.81 0.0006614494    1.400    0.286
       273  -9.8735    112.9986     41.4003   5.2852482083e+01   5.0941883493e+01    0.2294734    0.1974914 -24.72 9.871376e-05    1.259    0.206
       274 -10.7801     79.5950     43.2654   6.3204931685e+01   5.7708169452e+01    0.4192301     0.387931 -87.08   0.00159463    1.483    0.326
       275  -9.1969    234.8964     46.9998   3.5384577865e+01   2.2875376495e+01    0.1793718    0.1410318 -64.04 0.0003309719    1.039    0.037
       276  -9.3288    201.9762     46.9966   3.8923557177e+01   2.9702594242e+01    0.1871811      0.16936 -78.94 0.0003235709    1.074    0.069
       277  -9.8428    145.9683     45.9449   4.7150821902e+01   4.2711203818e+01    0.3077848    0.2158005 -50.65 0.0005114202    1.539    0.350
       278  -8.6757    144.0455     41.5187   4.6212157434e+01   4.3745099341e+01    0.2595444    0.1677811  77.35  0.001271262    1.710    0.415
       279  -9.4300    245.0477     44.6933   3.3999052850e+01   2.1229246360e+01    0.1641554    0.1336823 -80.11 0.0009184321    1.135    0.119
       280 -11.1473    106.5050     43.6923   5.5295744389e+01   5.2077076129e+01    0.5367177    0.3129456  45.21 0.0005040311    1.564    0.360
       281 -10.6355     91.7091     40.0866   5.8175057314e+01   5.5728981393e+01    0.6976182    0.4288266 -42.23  0.003500772    1.883    0.469
       282  -9.5966     94.7371     35.3696   5.5561886067e+01   5.5710312977e+01    0.3389739    0.2306348  69.69  0.001200387    1.908    0.476
       283  -9.3621      2.8941     43.1519   9.7231482863e+01   6.7670297139e+01    0.2511343    0.2113702  83.74  0.001074379    1.887    0.470
       284  -8.7662    185.4964     44.4652   4.0424375751e+01   3.3708925587e+01     0.130963    0.1168105 -84.14 0.0001648182    1.012    0.012
       285  -9.4573    178.0211     43.9756   4.1338282322e+01   3.5480440429e+01    0.2760679    0.1779202  75.28 0.0009832699    1.530    0.346
       286  -9.3032     71.1585     42.9188   6.6017074397e+01   5.9335691511e+01    0.2960797     0.181091   1.39  0.001012927    2.269    0.559
       287  -8.8625    202.5447     42.8441   3.7899646249e+01   3.0129256018e+01    0.2001288    0.1392616  82.60 0.0004460898    1.391    0.281
       288  -8.2883     87.2929     43.6438   6.0838621480e+01   5.6137761465e+01    0.1284686     0.109173 -75.04 0.0007030321    1.689    0.408
       289  -9.0376     30.3577    247.6831   1.1715761068e+02   1.7647537409e+01    0.1309709   0.06642354  59.64 0.0007044465    1.753    0.430
       290  -9.5778    223.5289     34.4802   3.3880644172e+01   2.6763494795e+01    0.2856793    0.1623238 -54.23  0.001244549    1.538    0.350
       291 -10.8271    228.0251     40.2570   3.4656824004e+01   2.5122373915e+01    0.4417228    0.3008329 -28.59  0.001212047    1.763    0.433
       292  -9.8489    227.2780     33.2933   3.3293445740e+01   2.6149860012e+01    0.2613132     0.167039 -73.05  0.001043896    1.449    0.310
       293  -7.9475    191.6853     41.7118   3.8948762715e+01   3.2674694894e+01     0.121449   0.09767354  38.97 0.0002854683    1.587    0.370
       294  -8.4389     49.1277     40.5568   7.3793432263e+01   6.3335859492e+01     0.245787    0.1349462 -17.67  0.001139928    2.232    0.552
       295 -10.4603    248.8951     37.3810   3.2270838085e+01   2.1448665718e+01    0.3314988    0.1838314 -29.18  0.001839295    2.224    0.550
       296  -9.5134    127.3040     39.7840   4.9030178136e+01   4.7882288023e+01    0.3556215    0.2089418  63.35  0.001404613    1.658    0.397
       297  -9.6826     12.1667     32.2380   8.8487442665e+01   6.9013476613e+01    0.3310051    0.2040753 -22.19  0.001440416    1.382    0.277
       298  -9.6257      7.0814     39.5101   9.3851632320e+01   6.8095234664e+01    0.2655983     0.154583  20.36  0.001574572    1.808    0.447
       299 -10.6882      4.6631     35.6784   9.3832446151e+01   6.8962265714e+01    0.6223969    0.3301525 -29.26  0.002859561    1.579    0.367
       300  -8.4875    203.3532     39.1321   3.6958594625e+01   3.0432386559e+01    0.1729996   0.09958979 -48.29 0.0003984385    1.597    0.374
       301  -9.5127    158.2247     39.0623   4.3043020756e+01   4.0719768100e+01    0.2299626    0.1787048  73.02            0    1.197    0.165
       302  -9.1694    120.8120     38.7093   5.0112424797e+01   4.9514956264e+01    0.4148387    0.2546187 -38.95   0.00192012    1.777    0.437
       303 -11.1541    116.8001     33.5340   4.9309813366e+01   5.1066233266e+01    0.4846081    0.3221012  43.77  0.000544793    1.399    0.285
       304 -10.1690    103.7996     38.2786   5.4126279569e+01   5.3387520535e+01     0.288639    0.2198525 -26.32 0.0009203191    1.423    0.297
       305 -10.1812    178.2658     37.2777   3.9604886601e+01   3.6280911105e+01    0.2659441     0.215569  79.56 0.0004754484    1.125    0.111
       306  -8.8075    150.3472     38.0038   4.4060450064e+01   4.2704853530e+01    0.2748779    0.1502659  62.70 0.0008453024    1.670    0.401
       307  -9.7742    136.6764     37.8687   4.6520882712e+01   4.5936690075e+01    0.2627252    0.1791026  60.93  0.000299219    1.335    0.251
       308 -10.0797    141.7260     32.7621   4.4041850944e+01   4.5365662469e+01    0.4566601    0.3056159  19.28  0.002160857    2.150    0.535
       309 -10.1680    146.1881     29.0476   4.2180324057e+01   4.4742425231e+01    0.3300081     0.252015  76.85  0.001002655    1.239    0.193
       310 -10.5995     87.5762     34.1831   5.7215774137e+01   5.7354452667e+01    0.6525858    0.3644869  15.41  0.002746448    2.780    0.640
       311  -9.0405     93.9552     30.0149   5.3803101486e+01   5.6529407619e+01    0.2071386    0.1512625  32.15 0.0003962705    1.288    0.224
       312  -9.5179     75.0314     23.0037   5.6739004075e+01   6.1206840010e+01    0.1866883    0.1591126  23.99 0.0003548296    1.027    0.026
       313  -9.6290     73.2453     36.1904   6.2651312408e+01   5.9910933223e+01    0.5647482    0.3154954  22.77  0.001749138    2.143    0.533
       314  -8.9336    163.4739    246.4932   8.8768698725e+01   7.1948612250e-03    0.1298528    0.1087333  14.00 3.386488e-05    1.010    0.010
       315 -10.5273     71.8005     29.7868   6.0589234615e+01   6.1021724383e+01      0.41548    0.3704135  67.35  0.002615463    1.501    0.334
       316  -9.2655     45.2121     25.3108   6.9077527282e+01   6.6155088944e+01    0.2383641    0.2202493  10.05  0.001323488    1.321    0.243
       317  -8.8493      1.4619    244.0387   1.2251079394e+02   2.1252299966e+01     0.161476     0.092364 -86.25  0.000423176    1.546    0.353
       318  -9.3944     51.0096     35.9918   7.1140817913e+01   6.3753928499e+01    0.2128136    0.2045292  83.61  0.001269007    1.610    0.379
       319  -9.1846     49.1291     33.5317   7.0920288770e+01   6.4405857679e+01    0.4747024    0.2021681  25.27   0.00194607    2.888    0.654
       320  -8.8074    238.9692     37.2793   3.3071558892e+01   2.3343808951e+01    0.1648351    0.1323705 -81.29 0.0005354433    1.123    0.109
       321  -8.9969    186.2021     36.1171   3.8284228798e+01   3.4616405687e+01    0.2507408    0.1493021 -55.96  0.001307333    1.681    0.405
       322  -8.6575    164.9200     36.2148   4.1224990620e+01   3.9504034121e+01     0.293061    0.1065693  71.90  0.001038631    3.292    0.696
       323  -8.9905    131.4567     36.2114   4.7041979089e+01   4.7360897607e+01    0.2287928    0.1815171  80.53 0.0006011718    1.331    0.249
       324  -9.5045    244.8318    242.1247   7.2302343398e+01  -9.8625972766e+00    0.1843372    0.1341621  -3.65 0.0004876571    1.052    0.049
       325 -10.1689     56.5814     35.5814   6.8669128156e+01   6.2928586514e+01    0.2860272    0.2166688 -44.41 9.351658e-05    1.660    0.398
       326  -9.2470     60.9723     34.2932   6.6402908834e+01   6.2376533201e+01     0.237574     0.186509  -9.07 0.0003856161    1.208    0.172
       327  -9.5135     62.7154     31.3410   6.4517214842e+01   6.2477385796e+01    0.3366344    0.2526954 -26.36  0.002025267    1.376    0.273
       328  -9.9097    209.3602     33.1735   3.4980775162e+01   2.9883163878e+01     0.283347    0.2713627 -89.41  0.002007514    1.250    0.200
       329  -9.0981    127.7744    240.5803   9.5623481974e+01   6.2845890947e+00    0.1959487    0.1061594  42.56 0.0007217906    1.711    0.416
       330 -12.4642    107.8092     28.9032   4.9824661284e+01   5.3632476607e+01    0.4602969    0.3389264  33.41  0.002609364    1.341    0.254
       331 -10.1032    101.9789     26.6264   5.0446227628e+01   5.5179039286e+01    0.4433935    0.1850994  61.11  0.001737486    2.454    0.593
       332  -8.4034    140.3158    236.7031   9.2310872752e+01   5.1495251674e+00    0.1299257   0.09846283  57.26 0.0005336672    1.607    0.378
       333  -9.8341     34.9027     31.6758   7.6591573908e+01   6.6688424025e+01    0.2445755    0.1597108  21.58  0.001364298    1.407    0.289
       334  -9.3794    222.5790    234.1619   7.4972972267e+01  -6.0709339708e+00    0.2580829    0.1844746 -58.14  0.001406042    2.597    0.615
       335  -9.8461    188.0002    235.4893   8.1953645903e+01  -1.6407987652e+00    0.1952868    0.1135541  29.44 0.0005696834    1.564    0.361
       336  -8.9362     32.0218    232.5042   1.1578060198e+02   2.0622651752e+01    0.1809227    0.1415074  86.79 0.0004279048    1.160    0.138
       337 -10.0923     41.0728     21.2949   6.9117383199e+01   6.7306581241e+01    0.2386941    0.1914266  13.97 0.0004876135    1.074    0.069
       338  -8.9708    162.4726    225.6039   8.5720496403e+01   3.8599923038e+00     0.314447    0.2204442  73.14  0.001406267    2.895    0.655
       339 -10.0321    248.1647     30.6471   3.1054883212e+01   2.2419148123e+01       0.2336    0.2094162   8.33  0.001428898    1.829    0.453
       340  -9.5974    183.4780     31.7253   3.7548769674e+01   3.5766439888e+01    0.2556838    0.1799765  85.93 0.0008018517    1.345    0.257
       341  -9.3748    183.0374     27.0300   3.6452655170e+01   3.6413770188e+01    0.3283564    0.1716065 -51.82   0.00140917    1.916    0.478
       342  -9.0218    153.0376     31.7177   4.1827094730e+01   4.2826461669e+01     0.271571    0.1789546 -74.61  0.001382138    1.814    0.449
       343  -9.8097    161.0835     28.0570   3.9592831165e+01   4.1358962488e+01    0.4510219    0.2716303 -15.95  0.001386526    2.304    0.566
       344  -8.3709    125.5559     29.9317   4.6248260027e+01   4.9470572270e+01    0.1788256    0.1107796  12.54 0.0008072085    2.484    0.597
       345 -11.0001     18.9629     28.6615   8.3389115863e+01   6.8987692871e+01    0.3755614    0.2120055 -43.54 0.0006168252    1.733    0.423
       346  -9.1335    223.9944    225.0489   7.3142140270e+01  -4.8587847283e+00    0.1909919    0.1520836  -4.27 0.0005546997    1.025    0.024
       347  -9.0171    189.7934     28.2393   3.5959190218e+01   3.4752971069e+01    0.1893767    0.1465476 -74.64 0.0006082726    1.176    0.150
       348  -8.7120    116.0138     28.0218   4.7637869152e+01   5.1878676871e+01    0.2066762     0.135333  36.71 0.0003065417    1.559    0.359
       349  -9.6729    222.5661     26.6648   3.2347161978e+01   2.7906314176e+01    0.2211327    0.1886158  63.62 0.0009035753    1.398    0.285
       350 -10.0508    212.9532     26.0717   3.3087693269e+01   2.9970614358e+01    0.2477125    0.1619582  63.08 0.0007389753    1.574    0.365
       351  -9.5692    204.8123     24.7985   3.3586606782e+01   3.1851650644e+01    0.2021828    0.1702899 -82.57  0.000404223    1.040    0.038
       352  -9.7177    208.4994     22.9744   3.2834555728e+01   3.1270481631e+01    0.1670833    0.1348612 -71.37 0.0003727029    1.043    0.041
       353  -9.0837    241.7267     25.9378   3.0648372437e+01   2.4201276337e+01    0.1617906    0.1217795 -65.55 0.0007022443    1.036    0.035
       354 -10.1131    173.8302     23.1089   3.6593081083e+01   3.8952159055e+01    0.2728325    0.2449789  60.33  0.001118323    1.206    0.171
       355  -9.2834    169.6282     22.8382   3.7052058066e+01   3.9948952905e+01    0.2438506    0.1632346 -46.78  0.001094296    1.519    0.342
       356  -8.6240    132.1286    225.3901   9.2473055206e+01   8.5905412780e+00     0.191908    0.1146993  42.78 0.0002600856    1.608    0.378
       357  -9.0655    196.5022    222.4754   7.8023557515e+01  -6.6646862905e-01    0.1338312    0.1107094  -1.63 0.0008100707    1.022    0.022
       358  -9.4917     89.2479    220.7322   1.0179736743e+02   1.6010595891e+01    0.2456151    0.2302842 -11.22  0.000966059    1.230    0.187
       359  -8.3767    117.5082    212.4172   9.3920792388e+01   1.3582562086e+01    0.1402187    0.1293942  33.33 0.0001268792    1.014    0.014
       360 -10.5099     62.2000     22.3360   6.0899193203e+01   6.3698713483e+01    0.2907394    0.1992699   5.86 0.0009294801    1.510    0.338
       361  -8.9629    242.3772    209.9062   6.7148681861e+01  -4.8665401935e+00    0.1841956    0.1359106 -40.79  0.001142784    1.497    0.332
       362 -10.7561      2.0674     25.3211   9.1470298256e+01   7.0959157483e+01    0.1964523    0.1426396 -29.56 0.0002844043    1.097    0.088
       363 -10.2358    233.3751     23.9491   3.0906007484e+01   2.6055872242e+01     0.452277    0.2029518 -84.39  0.001914877    2.687    0.628
       364  -8.1111    230.5236    209.5464   6.9179351141e+01  -3.2666414081e+00    0.1302834    0.1013361 -11.36 0.0004460051    1.057    0.054
       365  -9.9241    153.8058     22.7536   3.9197877771e+01   4.3640012226e+01    0.2905809    0.2141155  40.87   0.00076925    1.521    0.342
       366  -8.6253    194.5003    209.4829   7.6113328932e+01   1.9037010185e+00    0.1383788    0.1159455  -5.04 0.0001478336    1.044    0.042
       367 -10.1536    117.0905     21.9601   4.5375318589e+01   5.2277444274e+01    0.2927314    0.1999155  -8.60   0.00055951    1.822    0.451
       368 -10.1511     84.8754     21.4258   5.3091353593e+01   5.9394909550e+01    0.3495762    0.2727014 -52.01  0.001164982    1.723    0.420
       369  -8.7343     80.2256     21.4855   5.4493202545e+01   6.0339586098e+01    0.3590682    0.1704698 -23.41  0.001702772    2.376    0.579
       370  -8.8493     11.2716     23.1522   8.5284418838e+01   7.0595730706e+01    0.1525091    0.1142451 -19.73 0.0009202236    1.063    0.059
       371 -10.8831    222.6283     40.7466   3.5280962932e+01   2.6154607457e+01    0.2486573    0.2019571 -63.22 0.0002839537    1.046    0.044
       372  -9.8501    123.9884    205.9928   9.1351583951e+01   1.3951326109e+01    0.2022918    0.1912673  22.86            0    1.009    0.009
       373  -9.3583    193.3215     19.9592   3.3641231145e+01   3.4900011239e+01    0.1843111    0.1682237   0.76  0.000824278    1.508    0.337
       374  -9.3518    199.5016     18.9761   3.2805532340e+01   3.3652498799e+01    0.2720646    0.1798459 -17.69  0.001543637    2.150    0.535
       375  -9.4194    196.0759     16.4914   3.2576032178e+01   3.4667175263e+01     0.305695    0.1643444  73.75  0.001226807    1.668    0.401
       376 -10.7380    182.1204     18.5219   3.4489737987e+01   3.7556103897e+01    0.3089569    0.2047454  61.66 0.0008332752    1.440    0.306
       377  -8.3536     95.2867    205.3419   9.8271670974e+01   1.8590599911e+01    0.1409468    0.1081333 -24.67 0.0004748813    1.642    0.391
       378  -9.0130     35.0581    201.4809   1.1255159206e+02   2.7309990423e+01     0.183501    0.1239587  32.53 0.0009282446    1.544    0.352
       379  -8.8065    221.5031    198.5426   6.8794663760e+01  -1.8867834283e-01    0.1330321    0.1100112 -13.66 0.0001060938    1.004    0.004
       380  -9.1254      7.4627    194.6881   1.1845090238e+02   3.1531741525e+01    0.3226251    0.1391278  49.75  0.001566159    2.185    0.542
       381  -9.5231    151.7026     18.2839   3.8256832291e+01   4.4591322048e+01     0.233805    0.1861852 -37.64 0.0002130231    1.391    0.281
       382  -8.9634    241.9768    193.9777   6.4289578145e+01  -2.2852482937e+00    0.1537013     0.124914 -13.39 0.0004234568    1.049    0.047
       383  -8.8538    139.7311     18.9369   4.0269021107e+01   4.7326936435e+01    0.1685035    0.1619259  87.93 0.0005989955    1.116    0.104
       384  -9.7738     18.1610    174.2622   1.1417047614e+02   3.5577057117e+01    0.2830199    0.1948286 -21.85  0.001132566    2.035    0.509
       385  -8.8251    127.0000     18.0985   4.2193012809e+01   5.0376643242e+01    0.2129202    0.1702717 -38.62 0.0007605641    1.412    0.292
       386 -10.1129      8.1372    161.8638   1.1562969166e+02   3.9461514774e+01    0.2458405    0.1799086  48.31  0.000347678    1.439    0.305
       387 -11.0248      8.4988    166.1794   1.1592786168e+02   3.8361266638e+01    0.5450653    0.2641013  24.54  0.002691168    2.337    0.572
       388 -10.3749     15.1358    165.0639   1.1407242345e+02   3.8124669544e+01    0.2999311    0.2082171  20.14 0.0002804048    1.720    0.419
       389  -9.4878     24.2525    162.6109   1.1134438656e+02   3.7970441167e+01    0.2264143    0.1684004 -86.45 0.0005948347    1.227    0.185
       390 -10.5872     21.6837    160.5924   1.1182719865e+02   3.8707171013e+01    0.5563594    0.2202272 -48.70  0.002275863    2.610    0.617
       391 -12.2816     40.9538    162.0240   1.0660590893e+02   3.6486286605e+01     2.579698    0.7519441  52.23  0.006249773    7.255    0.862
       392  -8.5422     53.2177     16.4182   6.1709270425e+01   6.5954670425e+01    0.1768871    0.1223276   6.51  0.001061218    1.401    0.286
       393 -11.9805     35.7068    158.9601   1.0769222506e+02   3.7817095041e+01     0.790849    0.3882026  43.87  0.002888221    2.150    0.535
       394  -9.9331     10.4457    158.2946   1.1466802933e+02   4.0184752388e+01    0.2719738    0.1649041  58.51  0.001324956    1.752    0.429
       395 -10.5919      2.1840    155.5938   1.1665082083e+02   4.1433165792e+01    0.4742579    0.1897565 -76.51  0.001722409    2.089    0.521
       396  -9.2207    248.5513    153.5421   5.5422372071e+01   3.5209181902e+00    0.1304748    0.1047762 -29.72 9.103327e-05    1.033    0.032
       397  -9.2787     45.8622    151.6588   1.0370215102e+02   3.8624241016e+01    0.2303341    0.1725792 -57.32 0.0003047189    1.223    0.182
       398  -9.6981      8.9396    147.7559   1.1401187544e+02   4.2943342213e+01     0.379789     0.195178 -14.56  0.001294247    3.089    0.676
       399 -10.1341      2.8667    146.6076   1.1561746914e+02   4.3630981948e+01    0.3450683    0.2267945 -46.34 0.0009662928    1.546    0.353
       400 -10.4824     15.3024    143.3085   1.1166254522e+02   4.3612227345e+01    0.5081776     0.242984 -42.40            0    2.260    0.558
       401  -9.9657     21.0775    140.3094   1.0955450926e+02   4.3928781727e+01     0.295598    0.2788231 -20.54  0.001887136    1.216    0.178
       402 -10.1540     19.6754    150.7967   1.1127425639e+02   4.1365675620e+01    0.4366676    0.2190119 -56.10   0.00175074    1.748    0.428
       403 -11.2108     13.6542    150.6927   1.1298569378e+02   4.1862312618e+01    0.4870765    0.2946402   4.34  0.001650736    2.216    0.549
       404  -8.3825     63.1524    148.8652   9.8050001071e+01   3.7242068978e+01    0.1928401    0.1626767 -32.80 0.0002538387    1.267    0.211
       405  -9.6326     35.8198    149.0843   1.0631587517e+02   4.0348313309e+01    0.2095868    0.1732501  84.13 0.0004150465    1.219    0.180
       406  -8.4808    241.2847    144.3257   5.4691303455e+01   6.2267394670e+00    0.1306455   0.09290317 -15.25 0.0003204587    1.603    0.376
       407  -9.4199     38.1434    143.1794   1.0474427007e+02   4.1639256199e+01    0.2035857    0.1737289 -47.63 0.0003199535    1.151    0.131
       408  -8.8781    111.6476     15.0323   4.4155626350e+01   5.4188471774e+01    0.1669174    0.1497808  38.38 0.0004530895    1.104    0.094
       409  -8.6004      7.7620    141.9942   1.1373113483e+02   4.4474800740e+01     0.184338    0.1435703 -72.33 0.0003229886    1.066    0.062
       410  -9.8871      2.0531    130.0138   1.1410454453e+02   4.7829250481e+01    0.4181604    0.2347432 -10.83  0.002104861    2.395    0.582
       411  -9.8563     12.3955    136.7112   1.1173663381e+02   4.5495305023e+01    0.4187783    0.1477599 -77.27  0.001578232    2.803    0.643
       412  -9.4036     15.5029    135.4599   1.1062901317e+02   4.5591238948e+01    0.2252208    0.1479402 -30.87  0.001186417    1.748    0.428
       413  -9.6020      1.4651    139.5108   1.1530582329e+02   4.5490307728e+01    0.3529032    0.1039249 -65.92 0.0009894565    2.457    0.593
       414 -10.0476      3.0889    134.0220   1.1423905693e+02   4.6768090502e+01    0.2800953    0.2362029   8.65  0.001010473    1.449    0.310
       415  -8.1970     91.5844     13.5637   4.8218808809e+01   5.8755992116e+01    0.1239161    0.1081435  46.57 0.0001635522    1.068    0.064
       416 -10.4010      8.5428    132.8771   1.1244778962e+02   4.6721095730e+01     0.426821    0.2978902 -59.50    0.0023874    1.213    0.176
       417 -10.3747     41.3925    138.5235   1.0299991653e+02   4.2505390066e+01    0.3457107    0.2444998  51.36  0.001766362    1.589    0.371
       418 -10.5433     41.5057    132.6796   1.0198418288e+02   4.3998323800e+01    0.5735239    0.2200755 -61.53  0.001437327    2.228    0.551
       419  -9.1498    230.8359    137.1180   5.4843955923e+01   9.2240050702e+00    0.2017912    0.1703945 -52.13  0.000637499    1.201    0.167
       420  -9.9410     34.9154    135.5722   1.0456976332e+02   4.3919865765e+01    0.3784715    0.1939113 -45.52 0.0008747547    1.903    0.475
       421  -8.2809     83.0218    135.7794   8.9384308737e+01   3.7709210478e+01     0.196428    0.1259411  33.04 0.0004396279    1.626    0.385
       422  -8.6524     58.4983    135.5059   9.7042577303e+01   4.1292846876e+01    0.2331016    0.1644025 -33.95  0.000775832    1.539    0.350
       423 -10.4112     60.8477    131.1610   9.5439200150e+01   4.2101926867e+01    0.4834634    0.3477342  41.29  0.001297245    1.502    0.334
       424  -8.6682    249.0135    134.0528   5.1474283684e+01   6.7455151807e+00    0.1615592     0.125725 -38.21 0.0005194274    1.047    0.045
       425  -8.9266     47.2257    133.3755   1.0026199396e+02   4.3196013752e+01    0.1925093    0.1283482  39.80 0.0003930357    1.632    0.387
       426  -9.8320     20.9338    131.9472   1.0845846251e+02   4.6073238966e+01     0.339195     0.245667  59.63  0.001198887    1.577    0.366
       427  -9.6204     18.2497    127.1932   1.0863874847e+02   4.7485596777e+01     0.441882    0.1680093 -51.24  0.001571009    2.216    0.549
       428  -8.6998     29.0412    132.2954   1.0592890798e+02   4.5305641737e+01    0.1776978    0.1706999 -76.10 0.0004064159    1.102    0.093
       429 -10.0621     34.4399    127.3638   1.0337935898e+02   4.6068836625e+01    0.3481713    0.1957952 -82.81  0.001144174    2.127    0.530
       430  -9.0029     12.2517    126.8140   1.1051360047e+02   4.8005223234e+01    0.1983972    0.1669716 -85.48 0.0007967676    1.155    0.134
       431  -9.2898     50.9655    126.5273   9.7758884146e+01   4.4517306617e+01    0.1985154    0.1449956  23.52 0.0003718247    1.504    0.335
       432 -10.1080     44.8313    125.7029   9.9639257065e+01   4.5426594357e+01    0.2585166    0.2551048 -37.38 0.0004387316    1.098    0.090
       433  -8.9668    241.3873    124.2179   5.0568056225e+01   9.6711895392e+00     0.197043    0.1028318 -46.99 0.0009530907    1.687    0.407
       434  -9.9679     56.0154    118.4351   9.4397886459e+01   4.5943722298e+01    0.4830609    0.2542354  57.13  0.001589379    3.116    0.679
       435  -9.9793     38.5424    123.4660   1.0132949748e+02   4.6658372114e+01    0.3710548    0.2397847 -12.05   0.00169133    1.999    0.500
       436 -10.7287      7.5235    122.6844   1.1148591758e+02   4.9342136872e+01    0.3597194    0.2936786 -32.10  0.001281529    1.308    0.235
       437 -10.3421      4.0627    116.4566   1.1179543960e+02   5.1089573693e+01    0.3930323    0.2579201 -51.37  0.001512889    1.306    0.234
       438 -10.7294      3.9458    109.8071   1.1091824534e+02   5.2733507023e+01    0.4941394    0.2949822  60.41  0.002516119    2.179    0.541
       439  -9.2315     71.4471    123.1868   9.0285273148e+01   4.2642508016e+01    0.2524965    0.2106503  22.96 0.0007050436    1.274    0.215
       440 -10.1760     29.7390    121.0797   1.0387528000e+02   4.8098327771e+01    0.4373206    0.1754669  38.29  0.001395855    2.779    0.640
       441 -11.5225     21.4191    119.7582   1.0646603587e+02   4.9122310058e+01    0.6280618    0.4374992 -82.93  0.003371229    1.477    0.323
       442 -10.9513     12.8673    114.4815   1.0854595123e+02   5.1051796592e+01    0.5403956    0.2936537 -37.99  0.001844243    1.845    0.458
       443  -9.7844     20.4357    104.4045   1.0417774128e+02   5.3009054326e+01    0.3872779    0.2523282  76.22  0.001830802    2.133    0.531
       444 -10.7672     20.5855    109.1542   1.0497796288e+02   5.1830615766e+01    0.3804178    0.3333903 -32.80  0.002366395    1.144    0.126
       445 -10.2752     16.0694    107.8943   1.0636906962e+02   5.2466415942e+01    0.2848459    0.2168217 -58.39 0.0002821425    1.096    0.088
       446 -10.5860     61.6886    121.2888   9.3099140065e+01   4.4490004823e+01    0.4410784    0.2339425 -47.55 0.0004655367    1.740    0.425
