#   1 NUMBER                 Running object number                                     
#   2 MAG_AUTO               Kron-like elliptical aperture magnitude                    [mag]
#   3 X_IMAGE                Object position along x                                    [pixel]
#   4 Y_IMAGE                Object position along y                                    [pixel]
#   5 X_WORLD                Barycenter position along world x axis                     [deg]
#   6 Y_WORLD                Barycenter position along world y axis                     [deg]
#   7 A_WORLD                Profile RMS along major axis (world units)                 [deg]
#   8 B_WORLD                Profile RMS along minor axis (world units)                 [deg]
#   9 THETA_WORLD            Position angle (CCW/world-x)                               [deg]
#  10 FWHM_WORLD             FWHM assuming a gaussian core                              [deg]
#  11 ELONGATION             A_IMAGE/B_IMAGE                                           
#  12 ELLIPTICITY            1 - B_IMAGE/A_IMAGE                                       
         1 -13.3605    212.8833     45.7177   3.7960150067e+01   2.7424783872e+01     1.091572    0.9701213 -46.98  0.007194811    1.218    0.179
         2 -13.9727    227.4720     33.4135   3.3833275244e+01   2.5981809925e+01     1.553475     1.028067  42.36  0.008743179    2.334    0.572
         3 -11.7071      2.0060     22.7187   9.1678920916e+01   7.1429170340e+01     0.560926    0.1326316 -52.19  0.002254165    3.804    0.737
         4 -11.1584    250.1674     10.5229   2.7672229244e+01   2.4245570552e+01    0.4465394    0.1634777 -35.89  0.001684148    2.581    0.613
         5 -12.3074      3.1898      4.5097   8.2628782279e+01   7.4141305246e+01    0.6760602    0.3713919  23.25  0.004357385    1.747    0.428
         6 -11.9861    151.4941    228.5637   8.9465936302e+01   4.5505691456e+00    0.5292296    0.3425095  14.20  0.002632217    1.736    0.424
         7 -11.7619      2.8483    245.8087   1.2292773503e+02   2.0535875165e+01     1.080643     0.319372 -84.12  0.004811315    3.300    0.697
         8 -14.4450     57.2214    245.6288   1.1223770156e+02   1.4664160170e+01      6.62898     1.658318  26.58   0.01697466    8.212    0.878
         9  -9.7458    120.1871    221.1910   9.5444854398e+01   1.0905249090e+01    0.1910398    0.1568202  61.43  0.000596275    1.329    0.248
        10  -9.2899    191.6865    192.6735   7.4403222609e+01   4.9863794384e+00    0.2705962     0.173169 -63.18  0.001164679    2.565    0.610
        11 -11.7778     47.1255    178.4475   1.0782221210e+02   3.1360969378e+01    0.4322646    0.3078737 -32.31  0.001261991    1.815    0.449
        12 -11.7575     54.2098    172.4002   1.0514148616e+02   3.2057143834e+01    0.3326015    0.2730457 -38.94 0.0008177782    1.381    0.276
        13  -8.2228     99.6409    180.7365   9.4166492218e+01   2.3442320772e+01    0.1485803    0.1166694 -11.34  0.000314155    1.632    0.387
        14 -10.1242    102.4187    171.9892   9.1884920020e+01   2.5147616891e+01    0.4352572    0.1817989  44.49  0.001548325    2.491    0.599
        15  -8.6347    110.5302    167.5110   8.8857243065e+01   2.4877378782e+01     0.153145     0.147336  79.50 0.0001256544    1.067    0.063
        16 -12.6237     74.8816    155.9712   9.6722272477e+01   3.3540918298e+01      1.16875    0.7595456  67.78  0.001735616    2.004    0.501
        17 -13.0448     67.7929    144.0364   9.6662504868e+01   3.7646997528e+01      1.18558    0.7040977  63.85  0.002969196    2.379    0.580
        18  -9.2907     23.6266    223.8537   1.1759950266e+02   2.3115870533e+01    0.3590162    0.1535627  70.57  0.001610168    2.583    0.613
        19 -12.5464     50.9719    160.0162   1.0430169317e+02   3.5641224480e+01    0.3815896    0.3519738 -68.97 0.0007223195    1.051    0.049
        20 -12.2689     53.3313    157.3249   1.0322140596e+02   3.6058362821e+01    0.3220517    0.2670301 -26.56 0.0008058451    1.413    0.292
        21 -14.1314     99.5584    226.1124   1.0088792333e+02   1.2995219376e+01     6.772521    0.7764006  42.45    0.0159248    6.966    0.856
        22  -9.2662    134.0407    143.9449   7.7555014428e+01   2.6223730472e+01    0.6190259    0.1842431 -48.37    0.0018091    3.269    0.694
        23 -14.0061     12.5384    205.9185   1.1875643508e+02   2.8236105594e+01    0.9573145    0.7018077  20.02  0.002362739    1.727    0.421
        24 -10.2753     91.2389    142.9674   8.9365401851e+01   3.4344396546e+01    0.3130713     0.281436  26.84 0.0007454843    1.169    0.145
        25  -9.6144     95.0929    139.3158   8.7433688402e+01   3.4620994026e+01    0.3854279    0.2519926 -27.08  0.001157142    1.982    0.496
        26 -12.0044     78.7277    140.9512   9.2719810342e+01   3.6853901872e+01    0.3411941    0.2800102 -43.01 0.0004063571    1.204    0.170
        27  -8.8851     25.8589    232.6071   1.1772745733e+02   2.0986764520e+01    0.1732006   0.08617441  46.25 0.0006598009    1.696    0.410
        28 -10.8944     68.0116    130.6002   9.3949225569e+01   4.1091494351e+01    0.5419345     0.279824 -78.90  0.001804013    3.307    0.698
        29 -10.5668    105.6403    131.0636   8.2424769747e+01   3.4800424282e+01    0.4178793    0.3385575  -8.21   0.00105629    1.476    0.323
        30 -14.3497     22.8521    197.8533   1.1582019310e+02   2.9156553023e+01     2.596131     1.405854  62.15  0.009502566    1.804    0.446
        31 -12.5956     53.8442    120.0969   9.6431998100e+01   4.5647446312e+01     2.625571    0.7335975 -68.01  0.005413156    8.239    0.879
        32 -10.8699    240.0865    126.7253   5.2003084466e+01   9.0498143382e+00    0.3061937    0.1685266  68.41  0.001292653    3.326    0.699
        33  -9.8853     91.9325    127.3534   8.5679361570e+01   3.8164676416e+01    0.3210411    0.2599934  -3.64 0.0009537145    1.464    0.317
        34  -8.9778    112.9877    125.5160   7.8936879917e+01   3.4755247631e+01    0.2214458    0.1417053  10.97 0.0008097662    2.488    0.598
        35  -9.4527    103.6833    119.6590   8.0213378031e+01   3.7932816250e+01    0.2415057    0.2157536 -15.83  0.000408766    1.178    0.151
        36 -10.1558     23.5920    117.0169   1.0616260609e+02   4.9488971395e+01    0.1914771    0.1788347 -20.44 0.0004850915    1.184    0.155
        37  -9.6174    204.7791    110.8757   5.4147047942e+01   1.8551366334e+01    0.3575628     0.235267  38.71  0.001717163    1.829    0.453
        38 -12.0354    242.4292    100.7854   4.6270464997e+01   1.3062874311e+01    0.4062333    0.2096039 -37.15  0.001990627    1.724    0.420
        39  -9.9028     53.9937     94.3305   9.0387580162e+01   5.1949705682e+01    0.4304354    0.1440351  23.33   0.00137312    3.942    0.746
        40 -11.0716     66.3325    162.7094   1.0032552805e+02   3.2993951189e+01    0.2860241    0.2617641 -49.70 0.0004170089    1.122    0.109
        41 -10.9634      1.9910     89.4695   1.0934398994e+02   5.7607590731e+01    0.3716916    0.2592877 -57.16  0.001840193    1.132    0.117
        42 -11.3411      2.4758     81.5060   1.0773600441e+02   5.9446683645e+01    0.4377189    0.1517638 -64.33  0.001912091    2.258    0.557
        43 -10.9026    163.0655     84.6017   5.5410187164e+01   3.2555885273e+01    0.3644275    0.2522589  36.17  0.001667326    1.701    0.412
        44  -9.0388    184.5673     77.2921   4.9479092620e+01   2.8912473183e+01    0.2382996    0.1682124  37.74 0.0007137965    1.757    0.431
        45 -11.0394      5.1776     70.2594   1.0431303880e+02   6.1863367850e+01    0.2577282     0.164588 -72.44  0.001448186    1.648    0.393
        46 -10.5468     13.4533     60.0518   9.8059396511e+01   6.3574918757e+01    0.2582166    0.1842931 -45.94 0.0004100739    1.161    0.139
        47 -12.8220      6.9316    227.2042   1.2122324116e+02   2.4012017534e+01     1.461173    0.6256893  81.33   0.00725185    2.277    0.561
        48  -9.0077     21.4994    242.4679   1.1921665968e+02   1.9378124530e+01    0.1933495    0.1528748 -19.52 0.0009652768    2.112    0.526
        49 -10.5499      2.3047     51.4108   1.0101624013e+02   6.6035214362e+01    0.2243906    0.1643388 -40.02  0.001300241    1.054    0.051
        50  -8.5282     94.5647     46.5244   6.0567014609e+01   5.4348180041e+01    0.1376099    0.1255494  23.98 4.686967e-05    1.014    0.014
        51  -9.9502     13.5175     44.9695   9.3476727557e+01   6.6603186143e+01     0.185624    0.1032157 -49.78  0.001028839    1.579    0.367
        52 -10.8357      2.1779     37.4735   9.6925945706e+01   6.8781591294e+01    0.2734452    0.1827859 -63.91  0.001347548    1.780    0.438
        53  -9.6532    120.4856     28.4985   4.7583946880e+01   5.0948720272e+01     0.278882    0.1825942 -73.26 0.0008100458    2.267    0.559
        54 -15.2590     31.0180    188.4481   1.1302580480e+02   3.0617997686e+01     9.598215     3.509721  84.09   0.02663218    5.913    0.831
        55 -10.3032    189.5316     15.5110   3.3532317336e+01   3.6242360550e+01    0.2195728    0.1841128 -84.46 0.0007255874    1.013    0.013
        56  -9.6248     13.0343    239.9983   1.2072016966e+02   2.0739998257e+01    0.1752579    0.1376189  67.48 0.0005023716    1.036    0.034
