#   1 NUMBER                 Running object number                                     
#   2 MAG_AUTO               Kron-like elliptical aperture magnitude                    [mag]
#   3 X_IMAGE                Object position along x                                    [pixel]
#   4 Y_IMAGE                Object position along y                                    [pixel]
#   5 X_WORLD                Barycenter position along world x axis                     [deg]
#   6 Y_WORLD                Barycenter position along world y axis                     [deg]
#   7 A_WORLD                Profile RMS along major axis (world units)                 [deg]
#   8 B_WORLD                Profile RMS along minor axis (world units)                 [deg]
#   9 THETA_WORLD            Position angle (CCW/world-x)                               [deg]
#  10 FWHM_WORLD             FWHM assuming a gaussian core                              [deg]
#  11 ELONGATION             A_IMAGE/B_IMAGE                                           
#  12 ELLIPTICITY            1 - B_IMAGE/A_IMAGE                                       
         1 -15.3663      8.0938    149.6895   1.4322837204e+02   4.3107563824e+01     9.636849     4.287797  70.75   0.04430349    2.972    0.664
         2 -13.3995    194.6689     30.3802   6.8312677526e+01   3.3171506864e+01     1.261748     1.108008  77.29  0.006722888    1.060    0.057
         3 -13.7689    210.1220     11.7668   6.1957552703e+01   3.1621280694e+01     1.289908    0.9730783  38.10  0.007529755    1.786    0.440
         4 -10.6578      1.9008      2.9260   1.1258628396e+02   7.2178119643e+01    0.2776399    0.1163371 -40.72  0.001720179    2.009    0.502
         5 -11.2592      2.2413      8.9862   1.1499274700e+02   7.1338424316e+01    0.2430363    0.1455225  -9.98  0.001754095    1.450    0.310
         6 -10.0871    164.9699      2.0000   6.4845966158e+01   4.3430324098e+01    0.2208202   0.06269686  68.13 0.0008050695    2.961    0.662
         7 -10.0031     88.7109    249.0287   1.3702761849e+02   1.1947854299e+01    0.1682189     0.134332  77.86 0.0003758571    1.112    0.101
         8 -11.6151    239.0864    247.8627   1.0883472807e+02  -1.2509095509e+01    0.2699621     0.230577  38.01  0.001876671    1.400    0.286
         9 -11.6215    248.2569    248.3442   1.0730544409e+02  -1.3896714581e+01    0.3887397    0.2975163   8.11  0.002708618    1.072    0.067
        10 -10.8676    163.1236    249.4455   1.2314851897e+02  -3.9243992819e-01     0.262887    0.2009895  48.52   0.00120266    1.129    0.114
        11 -12.4507    138.4385    249.0595   1.2778275357e+02   3.8858342977e+00    0.7886715    0.2693321  43.53   0.00332606    2.403    0.584
        12 -11.3074    124.3784    250.2875   1.3058396381e+02   6.0334428160e+00    0.5031211    0.1366639  41.40  0.001884129    3.172    0.685
        13 -10.1919     66.6824    250.0923   1.4103857961e+02   1.4965442608e+01    0.2063253    0.1432886  51.43  0.000381348    1.287    0.223
        14 -10.9333     46.4090    248.6505   1.4439295025e+02   1.7950870369e+01    0.3210802    0.1657801  84.73  0.001262137    1.835    0.455
        15 -11.9797     30.4257    248.8172   1.4704252545e+02   1.9887374213e+01    0.7180358    0.2908187  45.53  0.004111506    2.091    0.522
        16 -12.5002     35.1021    244.1210   1.4596108170e+02   2.0214179596e+01    0.5444627    0.4553565  61.92  0.004053098    1.358    0.264
        17 -12.9212      6.9745    247.2743   1.5065443296e+02   2.2782137004e+01      1.31643    0.5955781  52.84  0.008554204    1.741    0.426
        18 -12.7446     11.9461    240.1810   1.4948939793e+02   2.3589782622e+01    0.7623084    0.3625117  81.17  0.004041413    1.740    0.425
        19 -10.9136     20.0152    242.8427   1.4835167680e+02   2.2207822066e+01    0.2788078     0.166317  84.78 0.0007475468    1.290    0.225
        20 -11.1385     21.6416    237.4781   1.4775218333e+02   2.3053540052e+01    0.3648474    0.2302592 -52.59  0.002223752    2.463    0.594
        21  -9.5757     85.3085    246.6620   1.3741075177e+02   1.2901163494e+01    0.1299432   0.07503901  69.80 0.0006076828    1.682    0.406
        22 -11.3803    120.4388    238.4982   1.2989343798e+02   8.8090128714e+00    0.3276051    0.1971145  86.90  0.001579947    2.377    0.579
        23 -11.3507     50.9209    235.0138   1.4254384957e+02   1.9995872887e+01    0.3044527    0.2162256 -62.60  0.001555828    1.664    0.399
        24 -13.9210      9.1337    207.1931   1.4789711207e+02   3.0449284763e+01     1.662999    0.7512815 -74.47  0.005584361    1.776    0.437
        25 -10.7062    231.0061    249.3013   1.1051012037e+02  -1.1486748387e+01    0.1774711    0.1358456  23.44   0.00118345    1.072    0.067
        26 -11.6130     61.7952    197.0797   1.3670960488e+02   2.6539301643e+01    0.3169686    0.2402003 -52.35  0.001329749    1.599    0.375
        27  -9.6743    192.0197    193.0099   1.0794565385e+02   4.1547100701e+00    0.3633871    0.1857837 -63.75  0.001143878    4.487    0.777
        28 -11.8593     67.8370    189.0527   1.3444450356e+02   2.7510189157e+01    0.2902809    0.2288999 -61.32 0.0004769894    1.333    0.250
        29 -10.9625     77.7496    176.6236   1.3051461801e+02   2.8937394514e+01    0.2436069    0.2126603 -76.27 0.0003438321    1.102    0.093
        30 -13.2489     64.6551    174.4715   1.3322456472e+02   3.1319491548e+01    0.5024948    0.2786138 -46.06  0.001717885    2.237    0.553
        31 -11.9346     85.3789    167.3203   1.2727040773e+02   2.9954179748e+01    0.6414426    0.5815342  73.92  0.003801716    1.082    0.076
        32 -14.4990     41.2142    222.5098   1.4325338184e+02   2.3747187698e+01     1.769589     1.529266   2.71  0.008799057    2.125    0.529
        33 -10.0515     98.1122    151.6163   1.2132779696e+02   3.1596771906e+01    0.2776071    0.2705401  71.51 0.0008135615    1.119    0.106
        34 -12.1635     86.6009    150.7512   1.2408588311e+02   3.3709309184e+01    0.3000664    0.2537718 -47.12 0.0006990691    1.262    0.208
        35  -9.2683    101.1258    147.3781   1.1972730519e+02   3.2083223720e+01    0.2480327    0.1903121 -46.28 0.0008125035    1.347    0.257
        36 -12.3925     67.4438    143.6938   1.2774284798e+02   3.8242893547e+01    0.7673528    0.4824007  66.77  0.003257544    1.964    0.491
        37 -11.6954     57.4391    131.5185   1.2822506850e+02   4.2447534732e+01    0.6786043    0.3051683 -73.17  0.002627726    2.772    0.639
        38  -8.7014    192.2297    144.0153   9.7472253389e+01   1.3826338254e+01    0.1969612     0.125846 -42.20 0.0004070765    1.545    0.353
        39  -9.8643    109.6909    136.9185   1.1531340392e+02   3.3011611009e+01    0.3824975    0.2426446 -28.97  0.001411907    2.284    0.562
        40 -10.5920     96.8521    134.0546   1.1807493467e+02   3.5990953567e+01    0.2729286    0.2231007 -39.99 0.0004809251    1.299    0.230
        41  -9.1253    106.8946    123.6527   1.1302691730e+02   3.6627593768e+01    0.1965084    0.1800365  55.58 0.0003736527    1.132    0.117
        42  -8.9065    152.6834    212.9651   1.1970480792e+02   7.9156955362e+00    0.1796229    0.1706145  89.11 0.0003370325    1.116    0.104
        43 -10.4268    168.0800    113.0883   9.5122803880e+01   2.5796769127e+01    0.3697064     0.290621 -82.29  0.001039734    1.546    0.353
        44  -9.2167    203.4845    111.5145   8.7464057889e+01   1.7754317904e+01    0.1513699       0.1466 -55.50 0.0002121886    1.038    0.037
        45 -10.2751    243.7989     92.1977   7.6256638646e+01   1.2146519678e+01    0.2485002    0.1356407 -69.42 0.0005448145    2.833    0.647
        46  -9.7489    229.1724    229.0371   1.0740791995e+02  -8.4428148431e+00     0.184106    0.1511826 -69.33 0.0008094032    2.051    0.512
        47  -8.6228    184.6944     77.6466   8.2337147694e+01   2.8562451027e+01    0.1519013    0.1204149  16.86 0.0007041476    1.713    0.416
        48 -12.7658     35.0757    230.6747   1.4499708813e+02   2.2838184764e+01    0.3001121    0.2409438 -76.18 0.0007700296    1.390    0.280
        49 -11.7840     99.7277    248.8482   1.3499946379e+02   1.0278733425e+01    0.5042059    0.1854189  46.34  0.002318276    2.199    0.545
        50 -11.0519    100.1738    245.1174   1.3451724835e+02   1.0893650461e+01    0.2388574    0.1513952  48.49 0.0007494476    1.331    0.249
        51 -10.1275     81.9993    248.9863   1.3823255353e+02   1.2963153760e+01    0.2097891    0.1155053  68.56  0.001146335    1.764    0.433
        52 -10.2211    198.5670    246.7632   1.1605151921e+02  -5.9851601955e+00     0.155918    0.1216579 -54.61 0.0009577617    1.717    0.417
