#   1 NUMBER                 Running object number                                     
#   2 MAG_AUTO               Kron-like elliptical aperture magnitude                    [mag]
#   3 X_IMAGE                Object position along x                                    [pixel]
#   4 Y_IMAGE                Object position along y                                    [pixel]
#   5 X_WORLD                Barycenter position along world x axis                     [deg]
#   6 Y_WORLD                Barycenter position along world y axis                     [deg]
#   7 A_WORLD                Profile RMS along major axis (world units)                 [deg]
#   8 B_WORLD                Profile RMS along minor axis (world units)                 [deg]
#   9 THETA_WORLD            Position angle (CCW/world-x)                               [deg]
#  10 FWHM_WORLD             FWHM assuming a gaussian core                              [deg]
#  11 ELONGATION             A_IMAGE/B_IMAGE                                           
#  12 ELLIPTICITY            1 - B_IMAGE/A_IMAGE                                       
         1 -11.7268      2.0554     41.8510   1.3147635865e+02   6.7473854084e+01     1.420059   0.05804553 -63.93  0.002493025   17.896    0.944
         2 -12.5313      2.2468      8.3216   1.1994490734e+02   7.3653953988e+01     1.232919    0.2583056 -51.22  0.005218578    3.538    0.717
         3 -13.1276    193.2348     29.2865   6.8948810934e+01   3.3396055204e+01     1.270965     1.195426 -40.67  0.006778926    1.138    0.121
         4 -13.5624    206.9774     11.0519   6.2318587067e+01   3.1957212558e+01     1.517451     1.085886  40.55  0.008089654    1.715    0.417
         5 -11.0232    243.2489    247.3900   1.0980206128e+02  -9.7300260755e+00    0.1998165    0.1731912  10.63  0.001567677    1.312    0.238
         6 -10.8111    249.2404    247.8017   1.0888752723e+02  -1.0599838420e+01    0.3706022    0.1445599 -32.82  0.002008225    2.864    0.651
         7 -10.6657    138.6737    249.8903   1.2843987006e+02   6.0733406682e+00    0.2116783    0.1616288  34.18  0.001221012    1.282    0.220
         8 -11.0526    125.2338    250.3023   1.3089982282e+02   8.1090668983e+00    0.4456407    0.1251933  39.99  0.001839338    2.958    0.662
         9 -10.6954     97.8923    248.6236   1.3561631657e+02   1.2492003642e+01    0.3194597    0.2028897  58.51  0.001279577    1.262    0.207
        10 -10.6955    101.2883    245.9803   1.3476773561e+02   1.2424283548e+01    0.2305745    0.1855025  89.58 0.0005103587    1.325    0.245
        11 -10.7072     30.1473    249.8149   1.4719149859e+02   2.1078168155e+01    0.2899095     0.186213  68.03  0.002096867    1.085    0.079
        12 -11.0081     35.3356    244.8104   1.4608836864e+02   2.1348071705e+01    0.4088042     0.242339 -65.29  0.002672799    2.041    0.510
        13 -13.9696     10.4409    206.7582   1.4833709550e+02   3.1028772439e+01     2.253382     1.363239 -85.81   0.01149278    1.355    0.262
        14 -15.0799     10.0016    154.8414   1.4509184030e+02   4.1949224280e+01     5.734339      1.55714 -82.10   0.02209126    3.603    0.722
        15  -9.7600    228.6104    228.2164   1.0923958107e+02  -5.4349797730e+00    0.2734135    0.1879689 -56.15  0.001383128    2.796    0.642
        16  -9.7912    199.1629    247.1456   1.1726953870e+02  -3.1574217673e+00    0.2243917    0.1503298 -72.56  0.001073981    4.181    0.761
        17 -11.7329     11.6527    239.8474   1.4968853663e+02   2.4771202470e+01    0.4193686    0.1672138  72.75  0.002275917    2.082    0.520
        18 -10.5057    119.9589    238.1102   1.3055510993e+02   1.0863875368e+01    0.2668512    0.1575046 -86.54  0.001398859    2.549    0.608
        19  -8.6622    152.5994    212.7986   1.2099498959e+02   9.6577942174e+00    0.1517291    0.1251979 -74.32 0.0002344608    1.482    0.325
        20  -9.8009    192.0020    192.9885   1.0990012307e+02   5.7838698223e+00    0.3747697    0.2193381 -66.89   0.00137638    4.216    0.763
        21 -11.3064     64.3496    197.6087   1.3719241412e+02   2.6736722650e+01    0.3164068    0.2318928 -48.71  0.001191824    1.867    0.464
        22  -8.6022     51.9100    197.4668   1.3972553551e+02   2.8372546515e+01    0.1675232    0.1017235  46.90 0.0005011316    1.491    0.329
        23 -11.3714     11.0923    195.6381   1.4760799952e+02   3.3180162297e+01    0.3579862    0.2164707  39.29  0.001828458    1.749    0.428
        24  -9.8833    234.0857    237.8219   1.0984231389e+02  -7.3819443719e+00    0.1649855    0.1409419  29.01 0.0007101736    1.305    0.233
        25 -11.5188     69.9875    189.8235   1.3519068782e+02   2.7600814376e+01    0.2606662    0.2222885 -70.11 0.0004247987    1.300    0.231
        26  -8.4077     47.7045    192.7418   1.4016303587e+02   2.9873116098e+01   0.09995405   0.09139153 -58.09 0.0001905729    1.499    0.333
        27 -10.6405     79.5968    177.2710   1.3156498289e+02   2.8938234569e+01     0.238771    0.2109875 -87.06  0.000378927    1.118    0.105
        28 -12.9355     66.6082    175.1711   1.3424726040e+02   3.1246806135e+01      0.46586    0.2724623 -47.30  0.001524555    2.234    0.552
        29 -11.5951     87.0751    168.0198   1.2855572935e+02   2.9858991265e+01    0.6191309    0.5160962  55.09  0.003674484    1.150    0.130
        30 -12.3369     38.6038    231.7920   1.4478233590e+02   2.3285165128e+01    0.2840241    0.2195621 -84.51 0.0007730549    1.347    0.258
        31  -9.6826     99.2414    151.8270   1.2298101944e+02   3.1557315204e+01    0.2534779    0.2441985  86.61 0.0007203838    1.115    0.103
        32  -8.9386    102.1411    147.6858   1.2150147740e+02   3.2009371211e+01     0.270746    0.1923383 -43.39 0.0008756391    1.602    0.376
        33 -11.8194     87.8759    151.1074   1.2570412421e+02   3.3593776941e+01    0.2814026    0.2532279 -48.57 0.0005601427    1.276    0.216
        34 -12.3060     67.1891    143.7943   1.2980265938e+02   3.8365982836e+01    0.7510534    0.4804664  70.75  0.003494222    1.743    0.426
        35 -11.3286     58.1022    132.3687   1.3040219699e+02   4.2263048800e+01    0.8294768    0.2959085 -77.06   0.00231101    5.516    0.819
        36  -9.0451    134.0000    146.5774   1.1340177052e+02   2.6248450000e+01    0.3318775    0.0851988 -49.57 0.0009420514    3.994    0.750
        37  -8.2441    192.2195    144.0157   9.9855179361e+01   1.4353748439e+01    0.1870302    0.1206508 -38.41 0.0004616499    1.571    0.363
        38 -14.5846     44.4605    223.2285   1.4318458451e+02   2.4182357122e+01     5.496174     1.646963  37.92   0.01401138    3.042    0.671
        39  -9.5876    110.3158    137.0867   1.1732860547e+02   3.2979945140e+01    0.3710092    0.2584671 -23.48  0.001275692    2.228    0.551
        40 -10.2325     97.6938    134.2921   1.2006173004e+02   3.5889021400e+01    0.2496478    0.2297602 -34.72 0.0006862571    1.254    0.202
        41  -9.2375    107.1762    123.8350   1.1528502778e+02   3.6619762789e+01    0.2074475    0.1884696 -89.11 0.0002824547    1.092    0.085
        42  -9.1146     23.9889    235.7961   1.4749079879e+02   2.4199784926e+01    0.1502996    0.1223117  72.13  0.001225313    1.269    0.212
        43 -10.7112     53.5654    119.3014   1.2947639211e+02   4.5925850131e+01    0.4098357    0.1209016 -64.86  0.001436482    3.141    0.682
        44 -10.1593    168.0156    113.0334   9.7460315222e+01   2.5869271308e+01    0.3604048     0.289306 -84.69 0.0008226759    1.547    0.354
        45  -8.6911    203.4590    111.4977   8.9830998695e+01   1.7814154180e+01    0.1507403    0.1446383  -9.40 6.315329e-05    1.051    0.048
        46 -10.2639    106.9479    247.9905   1.3394431098e+02   1.1255702835e+01    0.1924515    0.1117292  64.37  0.001133885    1.691    0.409
        47  -9.3023     28.4582     60.6390   1.2529808216e+02   6.1846394988e+01    0.2164693   0.08522432  40.32 0.0009495073    3.314    0.698
        48  -9.7476    231.9539    250.0000   1.1206622906e+02  -8.4043839431e+00    0.1865328    0.0508535  39.89 0.0008037209    2.951    0.661
        49  -9.9005     81.4473    248.3098   1.3848408474e+02   1.4886639674e+01    0.1801564    0.1018051 -65.33 0.0007919542    2.050    0.512
        50  -9.6544     46.3766    248.7181   1.4448757988e+02   1.9376023821e+01    0.2988868    0.1185483  68.51  0.001153194    2.506    0.601
