#   1 NUMBER                 Running object number                                     
#   2 MAG_AUTO               Kron-like elliptical aperture magnitude                    [mag]
#   3 X_IMAGE                Object position along x                                    [pixel]
#   4 Y_IMAGE                Object position along y                                    [pixel]
#   5 X_WORLD                Barycenter position along world x axis                     [deg]
#   6 Y_WORLD                Barycenter position along world y axis                     [deg]
#   7 A_WORLD                Profile RMS along major axis (world units)                 [deg]
#   8 B_WORLD                Profile RMS along minor axis (world units)                 [deg]
#   9 THETA_WORLD            Position angle (CCW/world-x)                               [deg]
#  10 FWHM_WORLD             FWHM assuming a gaussian core                              [deg]
#  11 ELONGATION             A_IMAGE/B_IMAGE                                           
#  12 ELLIPTICITY            1 - B_IMAGE/A_IMAGE                                       
         1 -15.5496    243.3645    166.4302   9.3790504296e+01  -1.0225141059e+00      9.01072     2.204037 -37.15    0.0277625    4.005    0.750
         2 -17.9847    235.8728     27.1634   6.3572246610e+01   2.3529951297e+01     4.326705     2.270861 -43.23   0.02194763    1.778    0.438
         3 -14.3931    124.8572      8.5668   7.4577030981e+01   5.2168666484e+01     3.238946     1.610086  65.17   0.01541275    1.967    0.492
         4 -14.2035     82.3851      4.2108   8.3191782211e+01   6.1287652269e+01      3.16345    0.4236479  50.57   0.01018477    4.939    0.798
         5  -9.8496    194.1572    220.9130   1.1378970586e+02  -1.1120418266e+00    0.2788755    0.1921435 -38.42  0.001167031    1.617    0.382
         6  -9.5973    119.3326    247.3198   1.3217299386e+02   7.5702493179e+00    0.1138877   0.09655815  16.03 0.0006710878    1.696    0.410
         7  -9.6817    177.3293    244.7999   1.2087372457e+02  -1.9313250573e+00    0.2554356    0.1548113 -39.56  0.001397397    2.005    0.501
         8 -10.0112    131.5013    241.9962   1.2923274389e+02   6.4641183878e+00    0.1751326    0.1258672 -60.29  0.001041432    1.616    0.381
         9  -9.7135    153.4798    241.4825   1.2495435130e+02   2.7538737915e+00    0.1295651    0.1084399  45.11 0.0003705414    1.038    0.037
        10  -9.5110    138.2784    241.3629   1.2785583953e+02   5.4135655974e+00    0.1174243   0.09922545   4.76 0.0005299077    1.671    0.402
        11  -9.3467    122.2925    241.3747   1.3090684685e+02   8.1305550282e+00    0.1149666    0.1000475   0.29 0.0007023286    1.734    0.423
        12  -8.7470    172.4651    239.5168   1.2101582177e+02  -2.5469957826e-01    0.1299933    0.1093277  38.72 0.0001590805    1.024    0.023
        13 -10.0091    159.2327    237.8632   1.2332897694e+02   2.3490316246e+00    0.2649973     0.175228 -39.89  0.001459727    1.881    0.468
        14  -9.9880    146.8582    237.8945   1.2573358238e+02   4.5226584313e+00    0.1942937    0.1701467  26.78  0.001216299    1.281    0.220
        15  -8.8011    183.2639    237.3737   1.1861009842e+02  -1.8110527247e+00    0.1258154   0.09453769   4.77 0.0006055665    1.665    0.399
        16  -9.7589    134.6397    237.1588   1.2800173972e+02   6.7806028240e+00    0.1658487    0.1195051 -44.28 0.0009477418    1.761    0.432
        17  -8.7302    177.6611    236.6838   1.1958283523e+02  -7.1615588410e-01    0.1309408   0.09474996  14.10 0.0007048275    1.703    0.413
        18  -9.6571    153.2742    234.1839   1.2395721022e+02   4.0318256359e+00    0.2079687    0.1647666 -47.70  0.001045022    1.494    0.330
        19 -10.1006    139.8402    235.1620   1.2672202632e+02   6.2313560834e+00    0.1704714    0.1519751  24.88  0.001078282    1.319    0.242
        20  -9.6976    130.2903    235.3584   1.2860776081e+02   7.8549194794e+00    0.1187806    0.1019483   2.33 0.0007027265    1.688    0.408
        21  -8.9838    170.5498    234.2605   1.2059071565e+02   9.3953340906e-01    0.1649168    0.1254035 -27.93 0.0009278997    1.649    0.393
        22  -9.0026    188.3593    231.7154   1.1672649392e+02  -1.8164686354e+00    0.1652702    0.1205212 -26.90 0.0005458884    1.627    0.386
        23  -9.4580    194.9143    230.7394   1.1530044707e+02  -2.8199486624e+00    0.2071529    0.1718078 -15.78 0.0009766287    1.342    0.255
        24  -9.3359    158.4683    230.5409   1.2239806968e+02   3.7350179421e+00    0.2093936    0.1247661 -36.46  0.001027292    2.224    0.550
        25 -10.3969    144.0348    230.2012   1.2520358390e+02   6.3794822938e+00    0.2216198    0.1949746 -63.04  0.001394476    1.299    0.230
        26 -10.2727    132.9850    231.0222   1.2750073606e+02   8.1789048573e+00    0.1932416    0.1626654   6.34 0.0009755414    1.694    0.410
        27  -9.2575    177.5036    229.4659   1.1848069569e+02   4.8731499052e-01    0.2350727    0.1329823 -45.24  0.001021762    2.048    0.512
        28  -9.0290    172.5390    229.2513   1.1942269609e+02   1.4180777185e+00    0.1688552     0.126758 -27.47 0.0009432236    1.659    0.397
        29  -9.3066    151.6940    228.8253   1.2348423634e+02   5.2556383462e+00    0.1926386    0.1699195 -13.33 0.0009556971    1.453    0.312
        30  -9.1112    138.4492    228.4855   1.2606769224e+02   7.6837768699e+00    0.1323005    0.1144383  52.29 0.0001190815    1.042    0.040
        31  -9.2599    211.5932    226.7219   1.1142923752e+02  -5.1090161419e+00    0.2169501    0.1225469 -33.57  0.001104104    1.964    0.491
        32  -8.9991    184.5891    227.2103   1.1672577174e+02  -4.1653295695e-01     0.169566    0.1250025 -26.39 0.0009421502    1.623    0.384
        33  -9.1546    190.5222    226.0130   1.1536673492e+02  -1.2878878639e+00    0.1791738    0.1315409 -38.48  0.001014199    1.541    0.351
        34  -9.0274    167.5077    226.0349   1.1991099324e+02   2.8799781680e+00    0.1853201    0.1346655 -46.89 0.0008804504    1.586    0.370
        35  -9.5449    200.5002    224.5529   1.1318032729e+02  -2.8347567850e+00    0.2335808    0.1300816 -39.50  0.000852184    2.006    0.501
        36  -9.5891    154.5400    224.4687   1.2225990500e+02   5.5215898890e+00    0.2154349    0.1261473 -37.69  0.001026426    2.237    0.553
        37  -9.0964    164.3409    248.3136   1.2383956675e+02  -2.3673965821e-01    0.1249931    0.0918163  16.97 0.0007047043    1.701    0.412
        38  -8.6710    125.6438    216.6735   1.2697295661e+02   1.2208526282e+01    0.1295017    0.1080068   3.98 0.0007045289    1.775    0.437
        39  -9.5082    198.4968    215.0813   1.1191625871e+02  -9.3956324101e-01    0.1876214     0.133012 -36.83 0.0008590412    1.542    0.351
        40  -9.8598    169.8671    214.3953   1.1753669230e+02   4.5057940135e+00    0.2562916    0.2029048 -33.80   0.00143265    1.464    0.317
        41  -9.8505    185.3039    213.2868   1.1422168093e+02   1.8066792606e+00    0.2719176    0.1837604 -36.51 0.0009888351    1.663    0.399
        42  -9.6081    154.3143    213.1983   1.2053002014e+02   7.6470582519e+00    0.2447819    0.2076674  -8.23  0.000889398    1.531    0.347
        43 -10.3729    156.7056    246.6320   1.2505120692e+02   1.3474075951e+00    0.2035445    0.1555668 -34.58 0.0009476356    1.697    0.411
        44  -9.0194    208.6252    212.2617   1.0942913883e+02  -2.3176262232e+00    0.1787423    0.1220229 -24.72 0.0007187646    1.636    0.389
        45  -9.3505    141.1629    211.8212   1.2303754228e+02   1.0358403254e+01    0.1805703    0.1651273   8.90 0.0007578424    1.345    0.257
        46  -9.5844    203.5535    210.2824   1.1005721345e+02  -1.0676702869e+00    0.2694767    0.2105161 -43.89  0.001526315    1.437    0.304
        47  -9.8545    207.0244    206.2161   1.0862581411e+02  -1.0263984259e+00    0.2769427    0.1960988 -35.38  0.000951449    1.496    0.332
        48  -9.3637    199.1017    210.6003   1.1099181457e+02  -3.0052601976e-01    0.2124456    0.1471381 -34.05 0.0006524929    1.571    0.363
        49  -9.8216    146.9438    210.3814   1.2160462568e+02   9.5662913622e+00    0.2575931    0.2057588 -42.33   0.00116243    1.456    0.313
        50 -10.0910    192.6793    208.9087   1.1196264278e+02   1.1857736469e+00    0.2911945    0.2318543 -35.51 0.0009097571    1.363    0.266
        51  -9.7691    177.8911    209.4185   1.1504364079e+02   3.8903915251e+00    0.2605798    0.2049927 -31.55  0.001393731    1.444    0.308
        52  -9.4810    161.9414    209.5643   1.1835029393e+02   6.8958299443e+00    0.2537239    0.1960583 -24.73  0.001343329    1.654    0.395
        53  -9.6484    132.9164    209.0571   1.2433201358e+02   1.2421110518e+01    0.2060889    0.1738721  -1.10  0.001128823    1.688    0.407
        54  -9.2038    172.4249    205.8222   1.1553289036e+02   5.5943270571e+00    0.2207194    0.1893617  -7.59  0.001236048    1.375    0.273
        55  -8.9070    175.4608    203.5042   1.1449210113e+02   5.4412443069e+00    0.2120346    0.1263789  33.49 0.0001632452    1.718    0.418
        56  -9.2008    156.6269    206.2055   1.1888968184e+02   8.5487137431e+00    0.1877132     0.132251 -38.35 0.0008857895    1.675    0.403
        57  -9.4387    149.9652    205.2613   1.2013187525e+02   1.0000545277e+01    0.2421068    0.1822946 -35.51  0.001264198    1.622    0.383
        58  -9.4170    139.6298    205.4996   1.2235588458e+02   1.1898087369e+01    0.2251716    0.1715025 -29.86  0.001161884    1.771    0.435
        59  -9.0366    126.6447    206.6742   1.2528762637e+02   1.4043603143e+01    0.1337565     0.111334   0.97 0.0007045956    1.771    0.435
        60 -10.5844    197.6624    202.6170   1.0980682865e+02   1.3424528203e+00    0.3611664    0.2537293 -26.11  0.001150481    1.617    0.382
        61 -10.3041    211.1701    200.2923   1.0669526752e+02  -7.9531999193e-01    0.3714186    0.2571621 -22.41  0.001562508    1.611    0.379
        62  -9.1515    215.1373    195.7681   1.0504834899e+02  -7.6574006592e-01    0.2359849    0.1869759 -21.54 0.0006284153    1.294    0.227
        63  -9.3788    214.4744    191.4865   1.0433556664e+02   9.3964714642e-02    0.2555219    0.1636055 -32.96 0.0008055419    1.616    0.381
        64  -9.3702    186.5161    201.9912   1.1194382893e+02   3.5858230489e+00     0.200415    0.1395485 -40.67 0.0007790991    1.555    0.357
        65  -9.7227    167.4330    200.8048   1.1568107758e+02   7.5083426089e+00    0.3124715    0.1388835 -43.94  0.001121207    2.491    0.599
        66  -9.2620    161.1474    200.3575   1.1692610674e+02   8.8165084690e+00    0.2402284    0.1921507 -34.87  0.001037281    1.442    0.306
        67  -9.1170    150.4701    199.4672   1.1904197506e+02   1.1057588746e+01    0.1420533    0.1307182  48.85 0.0001591938    1.044    0.042
        68  -9.7855    139.1614    197.5597   1.2114957129e+02   1.3606666395e+01    0.2726265    0.1890524 -33.90  0.001238158    1.915    0.478
        69  -9.8455    202.8938    196.2536   1.0755164249e+02   1.4649294661e+00    0.2585675     0.200521 -25.52 0.0009035029    1.374    0.272
        70  -8.9429    177.4677    196.4979   1.1279278506e+02   6.3682801715e+00    0.1429653    0.1319649  32.01 2.325599e-05    1.038    0.037
        71  -9.2027    195.5806    195.2746   1.0883296637e+02   3.0500929324e+00    0.1857261    0.1336641 -27.53 0.0006405524    1.549    0.355
        72  -9.4268    209.3090    194.0026   1.0584266279e+02   6.3622016616e-01    0.1942512    0.1709767 -14.00 0.0005721633    1.139    0.122
        73  -9.1385    156.7056    194.6537   1.1685718356e+02   1.0815235248e+01     0.141668    0.1145258  -1.85 0.0007031325    1.669    0.401
        74  -9.3770    147.9515    193.0037   1.1845618991e+02   1.2861400376e+01    0.2246401    0.1812306  -2.94  0.001127986    1.740    0.425
        75  -9.5888    186.4776    191.3564   1.0994226784e+02   5.5614926807e+00    0.2821105    0.1993393 -28.52  0.001096961    1.630    0.387
        76  -9.2903    199.1760    190.8111   1.0723781141e+02   3.1596640843e+00    0.1960208    0.1615366  -0.79 0.0007449161    1.341    0.254
        77  -9.2893    130.6808    201.0163   1.2354452604e+02   1.4474778790e+01    0.1941317    0.1820864 -76.95   0.00115443    1.134    0.118
        78  -9.2607    205.8132    190.2476   1.0579580617e+02   1.9697180906e+00    0.1918189    0.1571236   3.84 0.0005038371    1.315    0.240
        79  -8.8652    139.6624    190.6738   1.1985971795e+02   1.4950853784e+01    0.1424155    0.1165482  -0.26 0.0007051582    1.725    0.420
        80  -8.5419    179.3260    189.3586   1.1104930206e+02   7.3686458791e+00     0.150358    0.1133562   2.62 0.0007043793    1.780    0.438
        81  -8.7362    172.3210    189.3383   1.1252788823e+02   8.7762589625e+00    0.1478923    0.1145316   3.24 0.0006161656    1.713    0.416
        82  -9.5009    185.1540    221.0434   1.1558689928e+02   5.0585134063e-01    0.2481896     0.192614 -30.42  0.001075263    1.469    0.319
        83 -10.1657    148.4779    220.4230   1.2286487203e+02   7.3700618288e+00    0.3222008     0.242118 -24.61  0.001407961    1.894    0.472
        84  -9.3261    215.5083    186.8892   1.0321659099e+02   6.9833467436e-01    0.2047584    0.1353583 -36.69 0.0009852487    1.534    0.348
        85  -9.4601    202.9884    182.5073   1.0480891513e+02   3.9297827827e+00    0.2692126    0.1955572 -20.95 0.0008928893    1.574    0.365
        86  -9.1638    216.1904    220.8260   1.0952215528e+02  -5.0070862608e+00    0.1786431    0.1378247  -1.69  0.000589559    1.362    0.266
        87  -9.5511    211.1019    181.5236   1.0299121806e+02   2.5065479542e+00    0.2628949    0.1905531 -19.21  0.000824371    1.554    0.356
        88  -9.0880    182.7787    181.9717   1.0886951778e+02   8.1095178467e+00    0.1923842    0.1210126 -43.39 0.0008717729    1.666    0.400
        89  -9.8092    219.5580    177.9966   1.0061644910e+02   1.4885859389e+00    0.2089034    0.1349354 -37.72 0.0005712654    1.541    0.351
        90  -8.9266    191.2175    177.6878   1.0623262796e+02   7.2186071674e+00    0.2214145    0.1151321 -32.88 0.0008666187    2.295    0.564
        91  -9.4830    161.7142    225.6877   1.2101141817e+02   3.9966564592e+00     0.225879     0.164042 -35.08  0.001091784    1.699    0.411
        92 -10.2995     44.4341    174.3889   1.3870594267e+02   3.3753574189e+01    0.2375109    0.2014736 -45.66  0.001020146    1.514    0.340
        93  -9.3249    140.4092    220.8000   1.2456093538e+02   8.7667155763e+00    0.1754385    0.1278645 -41.09 0.0009466332    1.698    0.411
        94  -9.7818    160.7185    218.3605   1.2005232640e+02   5.4936853961e+00    0.2590461    0.1888449 -35.48  0.001392892    1.667    0.400
        95  -9.8062    210.9804    217.5389   1.0992900781e+02  -3.5845518895e+00    0.2457326    0.1918621 -30.32 0.0009214619    1.364    0.267
        96  -9.2334    206.5506    223.0997   1.1176296309e+02  -3.6754403945e+00    0.1788959    0.1274524 -33.62  0.001005879    1.534    0.348
        97  -9.8704    204.1281    217.6183   1.1126671435e+02  -2.3752036040e+00    0.2442817    0.1845127 -22.82 0.0009280123    1.454    0.312
        98  -8.3971    179.2879    166.6767   1.0645958960e+02   1.1902409129e+01    0.1497343    0.1202633 -88.64 0.0003504521    1.605    0.377
        99  -9.2302    190.5984    217.2015   1.1384882539e+02   1.5425705828e-01    0.1746007    0.1267259 -26.21 0.0006959072    1.603    0.376
       100  -9.2531    131.5009    140.5064   1.1179478757e+02   2.7762533415e+01    0.1543063    0.1471542 -88.28 6.226054e-05    1.021    0.021
       101  -9.1766    179.5683    222.9745   1.1701791162e+02   1.2015041745e+00    0.1838601    0.1336314 -45.02  0.000852644    1.571    0.364
       102  -9.4153    159.5211    130.0001   1.0255388908e+02   2.4052814962e+01     0.245123    0.1548694 -45.15  0.001029633    1.583    0.368
       103  -9.8486    135.8072    216.9893   1.2493376975e+02   1.0328843916e+01     0.205359    0.1584609 -20.39  0.001042158    1.986    0.497
       104  -9.8142    134.0000    108.9867   1.0346277670e+02   3.4275280095e+01    0.2608908   0.08724526 -44.80 0.0008044575    2.956    0.662
       105  -8.9306    179.6170    216.2525   1.1587792462e+02   2.3506143433e+00    0.1727456    0.1293727 -31.04 0.0006329486    1.551    0.355
       106  -9.4735    143.6029    216.2398   1.2321865661e+02   9.0534140892e+00    0.1757113    0.1298844 -41.39 0.0009422491    1.632    0.387
       107  -8.7752    189.6711     85.7478   8.4672353906e+01   2.5739935560e+01    0.1493068    0.1180881  28.20 0.0002067821    1.551    0.355
       108 -10.5876    155.0005     82.1562   9.0935512107e+01   3.4862174929e+01    0.2642163    0.2265685 -36.67 0.0005448152    1.196    0.164
       109  -9.1061    179.2774     76.9858   8.4339918725e+01   2.9863086013e+01    0.2099011    0.1913387 -48.43 0.0003469963    1.110    0.099
       110  -9.1478    170.9802     66.0383   8.2947217832e+01   3.3776982202e+01    0.2406731    0.1809809  22.60 0.0008006875    1.724    0.420
       111 -12.4749    138.5144     35.5733   8.0542763427e+01   4.6112301843e+01    0.3791458    0.3384642  26.56 0.0005159464    1.127    0.113
       112  -9.8354    134.7710    223.4131   1.2608261068e+02   9.2835621832e+00    0.1892346    0.1174245  35.86 0.0009471533    1.646    0.393
       113 -10.0662    149.5066    246.5050   1.2639861187e+02   2.6095034461e+00    0.1955146    0.1190299 -37.77  0.001027119    2.285    0.562
       114 -10.3347    139.5033    246.9800   1.2835210251e+02   4.2441793146e+00     0.169226    0.1258711 -57.09  0.001036114    1.603    0.376
