#   1 NUMBER                 Running object number                                     
#   2 MAG_AUTO               Kron-like elliptical aperture magnitude                    [mag]
#   3 X_IMAGE                Object position along x                                    [pixel]
#   4 Y_IMAGE                Object position along y                                    [pixel]
#   5 X_WORLD                Barycenter position along world x axis                     [deg]
#   6 Y_WORLD                Barycenter position along world y axis                     [deg]
#   7 A_WORLD                Profile RMS along major axis (world units)                 [deg]
#   8 B_WORLD                Profile RMS along minor axis (world units)                 [deg]
#   9 THETA_WORLD            Position angle (CCW/world-x)                               [deg]
#  10 FWHM_WORLD             FWHM assuming a gaussian core                              [deg]
#  11 ELONGATION             A_IMAGE/B_IMAGE                                           
#  12 ELLIPTICITY            1 - B_IMAGE/A_IMAGE                                       
         1 -13.2177    245.1067     78.2564   7.0189570207e+01   1.4654767251e+01      2.21207    0.8568305 -33.56  0.008340663    2.975    0.664
         2 -12.2616     22.1323     74.3919   1.2448059336e+02   5.8709035708e+01    0.4242873    0.3970105 -38.82  0.002359158    1.200    0.167
         3 -11.1074     20.9716     29.2858   1.1126690152e+02   6.6886035534e+01    0.8555729    0.4858942 -19.73  0.005282049    1.621    0.383
         4 -11.6640      9.1982      3.3307   1.0601910132e+02   7.1483846729e+01    0.7553806    0.2513396  28.47  0.004095131    2.968    0.663
         5 -11.1879     39.9928      3.1581   9.2363308645e+01   6.8044913791e+01    0.6201319    0.3420931  19.25  0.003167144    1.687    0.407
         6 -11.6113      7.4411     13.9183   1.1141433406e+02   7.0252107547e+01     1.257908    0.4239482 -27.55   0.00578514    3.342    0.701
         7 -10.6409     16.8848      9.9420   1.0531813035e+02   6.9957315856e+01     0.294179    0.1895226 -11.30 0.0003958362    1.243    0.195
         8 -11.5866     27.5578     14.8745   1.0267547754e+02   6.8240107008e+01     1.001087    0.5179577   8.21  0.004492446    2.240    0.553
         9 -11.1902     20.2324     14.6543   1.0580929185e+02   6.9027029787e+01    0.6505412    0.3367697  -6.74  0.003686826    2.214    0.548
        10 -11.4567     25.7258      5.4764   9.9353926366e+01   6.9569898406e+01    0.5361392    0.3655806  11.83  0.002312958    1.211    0.174
        11  -9.8104     75.2206     18.1428   8.6360993084e+01   6.1028767304e+01    0.3734503    0.1657254 -17.14  0.001702298    2.799    0.643
        12 -12.1144     68.8014     11.6497   8.5794720058e+01   6.2804308956e+01    0.3716191     0.230791  34.23  0.000279244    1.375    0.272
        13  -9.3448    161.1907     10.4652   6.5196145667e+01   4.3387804662e+01    0.2068842    0.1878376 -26.88 0.0006344136    1.310    0.236
        14  -8.9526     48.9643     10.1080   9.1990920976e+01   6.6077221674e+01    0.1859459    0.1381667  -6.61 0.0003430108    1.168    0.144
        15 -10.9854     81.1425      5.9382   7.9845921119e+01   6.1136930102e+01    0.5794371    0.3343278  42.17  0.002544185    1.434    0.303
        16  -9.0297    144.6871      4.2996   6.5936622775e+01   4.7793357365e+01    0.2728675    0.1980156  26.32  0.001624121    1.624    0.384
        17  -9.1150    111.4998      3.0036   7.1488045529e+01   5.5293616939e+01    0.2713487      0.09281  37.15  0.001039222    3.443    0.710
        18  -9.4317    158.2793      1.4237   6.3152388514e+01   4.4884687297e+01    0.3668803    0.1049729  68.19  0.001084383    2.951    0.661
        19  -8.5046     55.9356      1.4920   8.5775487293e+01   6.5861048947e+01    0.1657671   0.09462649  41.62 0.0007814044    1.551    0.355
        20  -9.1769    240.7797    239.0210   1.0389795271e+02  -1.1895776718e+01    0.2019558    0.1487952  17.85 0.0004055104    1.178    0.151
        21  -9.1663    250.0471    250.3340   1.0418451291e+02  -1.4682442643e+01    0.1685754    0.1222999  11.90 0.0004220558    1.138    0.121
        22  -8.7623    231.9360    250.7239   1.0748473793e+02  -1.2216143620e+01    0.2436118   0.09157711  37.21  0.000898773    2.381    0.580
        23  -9.3373    202.5834    249.7698   1.1278871595e+02  -7.6434586130e+00    0.3386509    0.2735521 -12.15   0.00170218    1.289    0.224
        24  -8.7877    198.0146    250.5699   1.1378499043e+02  -7.0371802820e+00    0.1814345    0.1056139  38.09 0.0003765064    1.486    0.327
        25  -8.3826    190.4503    249.7805   1.1511020067e+02  -5.7025109736e+00    0.2977705    0.1470462  25.37  0.001334339    2.412    0.585
        26  -8.6444    183.1298    250.6273   1.1665222036e+02  -4.6397961090e+00    0.1800604    0.1044028  37.65 0.0003189764    1.473    0.321
        27  -8.8626    166.4670    250.0636   1.1980687668e+02  -1.7901480862e+00    0.2281448    0.1576285  53.23  0.001295027    1.469    0.319
        28  -8.4674    150.1032    249.7120   1.2296066891e+02   1.0131330633e+00    0.3349035    0.1778575  43.32  0.000351299    1.592    0.372
        29  -8.4806    147.8699    245.1864   1.2277031086e+02   2.1741877987e+00    0.2231185    0.1684874 -65.80  0.001307735    1.598    0.374
        30 -10.0573    156.8770    246.1678   1.2112622734e+02   4.7575589990e-01    0.4162373    0.2814638  11.56 0.0005592527    2.180    0.541
        31  -9.4443    151.8580    244.4126   1.2186884343e+02   1.6316645783e+00    0.2533934    0.2107753 -63.33 0.0003616456    1.413    0.292
        32  -8.2567    136.6407    250.3889   1.2568715824e+02   3.1488394312e+00    0.2556024    0.1017387  44.53 0.0006268905    2.107    0.525
        33 -10.2272    124.9682    248.5074   1.2772605404e+02   5.4204517503e+00    0.2710562    0.2176856 -73.63 0.0005378849    1.397    0.284
        34  -8.1725     84.4599    250.5084   1.3570136525e+02   1.1436532049e+01    0.1254076    0.0976668  66.30  0.000279422    1.029    0.028
        35  -9.8886     71.8178    250.0364   1.3798845433e+02   1.3369176709e+01    0.3293007    0.1719547  59.59 0.0005449952    1.684    0.406
        36 -10.3867     61.8554    248.8726   1.3969259283e+02   1.4985769779e+01     0.228433    0.2045289  81.97 0.0004660146    1.291    0.225
        37 -10.6286     47.4061    250.1970   1.4236232340e+02   1.6646813177e+01    0.3363114    0.1592556  39.80  0.001504324    2.085    0.520
        38 -10.2055     16.3029    249.1620   1.4753132676e+02   2.0550950563e+01    0.2333176    0.2218599  28.70  0.001550085    1.804    0.446
        39  -8.2614      1.7069    250.6570   1.4993254477e+02   2.1808176108e+01    0.1415874   0.07168921  53.05 0.0006410558    1.597    0.374
        40  -9.5513    193.0222    243.1680   1.1356680571e+02  -5.0995305777e+00    0.4373594    0.3069292  70.74  0.001383434    2.547    0.607
        41  -9.1586    187.6140    245.0869   1.1492360688e+02  -4.5099967858e+00    0.3037619    0.2058944  26.41 0.0009239694    1.395    0.283
        42  -8.6403    163.0541    244.3869   1.1964322428e+02  -2.6956578279e-01    0.1982581    0.1781728  83.49  0.001266351    1.321    0.243
        43  -8.8057    133.7643    245.0946   1.2555442863e+02   4.5750627351e+00    0.1854105    0.1557593  68.24 0.0003825458    1.178    0.151
        44  -9.6728    113.8976    244.0499   1.2934265736e+02   8.0628371624e+00    0.2138857    0.1920873 -65.83 0.0003860143    1.292    0.226
        45  -9.9546     81.1758    244.4066   1.3570328069e+02   1.3101866222e+01    0.2180265    0.1942763  61.91 0.0003786077    1.219    0.180
        46  -8.0985     66.9206    245.7319   1.3849059177e+02   1.4896803632e+01    0.1445224   0.09242741  45.62 0.0004954911    1.443    0.307
        47  -9.9223     41.2071    244.4107   1.4300338593e+02   1.8560594489e+01      0.21343    0.1729472  62.51 0.0005582824    1.223    0.182
        48  -8.6185    219.6042    243.7976   1.0860217542e+02  -9.4233486078e+00    0.2526443    0.1687909  55.00  0.001362234    2.190    0.543
        49  -8.4037     47.9771    244.3338   1.4180065780e+02   1.7718800735e+01    0.1670782    0.1292401  67.17  0.001158676    1.091    0.083
        50  -8.6742     19.6869    243.9229   1.4665439308e+02   2.1190923345e+01      0.16507    0.1332962  59.65 0.0005900168    1.327    0.246
        51  -8.2650    177.1726    242.8367   1.1661614602e+02  -2.4036569271e+00    0.1756271     0.139085  14.93 0.0004412123    1.328    0.247
        52  -8.4967    210.5110    241.8589   1.0999147584e+02  -7.7231486240e+00    0.1640373    0.1204971 -33.36 0.0003690733    1.462    0.316
        53  -8.5511    176.8668    232.8614   1.1509073054e+02  -6.6995734985e-01    0.1909901    0.1637989  14.28 0.0003494079    1.182    0.154
        54  -9.9649    170.2864    239.8984   1.1752533942e+02  -7.4127113284e-01    0.3488629    0.2781217  37.23  0.001568535    1.094    0.086
        55 -10.2643    171.7980    233.6091   1.1623211823e+02   8.1319311507e-02    0.4277313    0.3297979  78.04  0.002333566    1.829    0.453
        56  -8.2017     87.6469    242.7262   1.3429544722e+02   1.2460535310e+01    0.1102533   0.09962948  11.94 0.0006540931    1.640    0.390
        57  -9.8064    214.7812    238.8779   1.0867994111e+02  -7.9514026957e+00    0.2639824    0.2036059 -32.94  0.000371656    1.389    0.280
        58 -10.3670    201.8462    239.0745   1.1118770766e+02  -5.9056319734e+00    0.5039792    0.3706774 -72.49 0.0008561218    2.478    0.596
        59 -11.3686    207.6571    232.4491   1.0894326426e+02  -5.8168762766e+00     0.920903    0.4778134  30.30   0.00134001    1.887    0.470
        60  -8.1685    155.4669    241.0078   1.2065479752e+02   1.6111655978e+00    0.1661517    0.1316687 -54.28 0.0003530477    1.460    0.315
        61  -9.6838    126.5698    240.3141   1.2635253219e+02   6.6678013814e+00    0.2367215     0.215509 -88.66  0.001533286    1.170    0.145
        62  -9.9810     69.1951    240.1560   1.3754399398e+02   1.5681636858e+01    0.2234056    0.1822183  60.60 0.0004135351    1.141    0.123
        63 -10.3528     25.3326    239.4359   1.4540329065e+02   2.1441032673e+01    0.2271845    0.1815428 -74.43 0.0005708716    1.428    0.300
        64  -9.4449    135.8482    239.2021   1.2433857765e+02   5.3031310552e+00     0.362192     0.225635  62.08  0.001834094    1.794    0.442
        65  -9.2879    118.3722    239.2103   1.2784925327e+02   8.2476687056e+00    0.2181604    0.1747571  52.95 0.0003529135    1.070    0.065
        66  -9.4605     62.0170    239.6454   1.3884000566e+02   1.6786100336e+01    0.1976089    0.1764086  82.90 0.0004085551    1.254    0.202
        67 -10.1827     34.9692    239.6239   1.4373987631e+02   2.0275175723e+01    0.4143867    0.1671703  57.96  0.001861266    2.174    0.540
        68 -10.6130     35.5871    231.8067   1.4303308553e+02   2.1787261016e+01    0.4515236    0.1857503 -68.35  0.001261573    2.203    0.546
        69  -8.4344     19.0146    240.0233   1.4651936910e+02   2.2032223517e+01    0.1541487     0.126551 -61.93  0.001134317    1.684    0.406
        70 -10.3613     10.5707    238.9875   1.4786897945e+02   2.3143416580e+01    0.2336085     0.180841  78.20 0.0005506391    1.152    0.132
        71  -8.5762    238.7212    234.5343   1.0348613029e+02  -1.0967383271e+01    0.2071005     0.175582 -44.01  0.001360458    1.558    0.358
        72  -9.3717    245.1764    229.6402   1.0145510513e+02  -1.1212176199e+01    0.3025124    0.1978813 -19.72  0.001027693    1.462    0.316
        73 -10.3432    247.8771    238.5676   1.0255092762e+02  -1.2839885370e+01    0.2945264    0.1854761  29.55  0.001570856    1.458    0.314
        74  -9.6910    243.4277    234.5207   1.0263495279e+02  -1.1650074820e+01    0.3070605    0.2628991  86.70 0.0007198426    2.321    0.569
        75  -9.5105    149.4612    238.0799   1.2143232094e+02   3.1687414890e+00     0.229727    0.2107192  37.52 0.0004529718    1.085    0.079
        76  -8.7589    148.9298    232.6815   1.2073913084e+02   4.2511155758e+00    0.2732604    0.2068406 -65.11   0.00153784    1.553    0.356
        77  -9.2925    112.2536    237.4184   1.2884627380e+02   9.6051647295e+00    0.3234781     0.188615 -64.02 0.0009826092    1.895    0.472
        78  -9.1918    108.4535    233.2518   1.2908544398e+02   1.1051158060e+01    0.2212189    0.1892801  45.08 0.0004334449    1.192    0.161
        79  -9.7515     41.7747    236.8017   1.4230929214e+02   2.0011706562e+01    0.2694167    0.1736435 -89.25  0.001318863    1.324    0.245
        80  -9.4788    220.5597    237.9533   1.0743286463e+02  -8.7178480686e+00    0.2253929    0.1606115  30.89 0.0004788777    1.258    0.205
        81  -8.0486     48.4427    238.5070   1.4123993183e+02   1.8822629966e+01    0.1199867   0.09306104  76.09 9.786601e-05    1.032    0.031
        82  -8.1918    183.6749    237.0267   1.1440805403e+02  -2.5451949076e+00    0.1690282    0.1592147  14.92 0.0004563466    1.096    0.087
        83 -10.1012     91.5044    236.2489   1.3283248772e+02   1.3154571583e+01    0.2350276    0.2147434 -86.69 0.0004011983    1.217    0.178
        84 -11.0672     93.4165    228.3814   1.3153128360e+02   1.4459979342e+01    0.3867484    0.3522809 -36.67 0.0008463442    1.510    0.338
        85  -9.7992     78.7260    236.0658   1.3531122899e+02   1.5126538575e+01    0.2615167    0.1918005  64.55  0.000401782    1.142    0.124
        86  -8.2368    225.1964    236.2056   1.0626467695e+02  -9.1763130765e+00    0.1491483    0.1436487  -0.99 0.0003965137    1.310    0.236
        87  -9.4921      3.5133    235.4771   1.4883205822e+02   2.4557550489e+01    0.1885428    0.1530457 -86.00 0.0007045771    1.335    0.251
        88  -9.4648    140.4670    234.9496   1.2280191409e+02   5.3021041984e+00    0.2358392    0.1882997  42.47 0.0003923227    1.123    0.110
        89  -8.7378    129.9273    235.2153   1.2498547309e+02   7.0655311673e+00    0.1907573    0.1560237  60.43 0.0003638243    1.122    0.108
        90  -8.1044    119.6526    234.1785   1.2693411873e+02   9.0081108220e+00     0.251077    0.1230536 -68.53  0.001082691    2.688    0.628
        91  -7.6477    116.2586    235.2991   1.2776923775e+02   9.3566861294e+00      0.11424    0.1038261  -5.61 0.0002641513    1.506    0.336
        92 -10.2095    192.2999    233.2210   1.1207418608e+02  -3.3798384846e+00    0.2388494    0.2205555  -7.43 0.0004202368    1.126    0.112
        93  -8.6170     64.9533    234.1289   1.3776589600e+02   1.7500589083e+01    0.1817826    0.1478474  77.22 0.0004309073    1.050    0.048
        94  -9.0370    230.8594    232.9359   1.0464339139e+02  -9.5615321711e+00     0.218343    0.1657508  35.32 0.0006039763    1.327    0.246
        95  -8.9188    153.1805    233.0383   1.1992399590e+02   3.4404202168e+00    0.1946432    0.1726966  50.58 0.0004526983    1.049    0.047
        96 -10.2368      7.9452    216.0853   1.4687544332e+02   2.8075504927e+01    0.2612001    0.2098699 -43.14 0.0005692385    1.974    0.493
        97 -10.0069     10.3895    231.6193   1.4745144983e+02   2.4631429402e+01    0.2190081     0.167761 -79.57 0.0006929975    1.327    0.247
        98 -10.2411      7.6719    226.0796   1.4757146891e+02   2.6032050700e+01    0.3509491    0.2464605 -59.99  0.001299841    1.773    0.436
        99 -10.2654      1.8683    226.5432   1.4859188610e+02   2.6508147403e+01    0.6007398    0.1265165 -73.39  0.001842496    3.597    0.722
       100 -10.1820    250.3167    231.5498   1.0088240549e+02  -1.2217184980e+01    0.2123892    0.1515855 -28.02  0.001084562    1.337    0.252
       101  -7.9840    166.2178    232.6242   1.1720428887e+02   1.2293236565e+00    0.1813807    0.1148044  32.60 0.0002967326    1.518    0.341
       102  -9.9269    100.5885    231.2221   1.3042384844e+02   1.2736665804e+01    0.2372868    0.2321286  21.27 0.0003707327    1.343    0.256
       103  -9.2243     85.0865    231.3637   1.3355106271e+02   1.5133547533e+01    0.2095734    0.1865866 -84.85 0.0003923121    1.199    0.166
       104  -9.3273     55.3723    231.1095   1.3930310020e+02   1.9429827089e+01    0.1998274    0.1763352  69.23 0.0005956023    1.236    0.191
       105  -9.3734    133.2140    230.1293   1.2359495347e+02   7.4798561164e+00    0.3026602    0.2265908  52.35  0.001373341    1.198    0.165
       106  -8.4640    226.2528    230.2165   1.0501894063e+02  -8.4479566338e+00    0.1549496    0.1405293  36.24 0.0004928961    1.315    0.240
       107  -9.4387    158.9477    229.5519   1.1820279422e+02   3.0653627249e+00    0.4520168    0.2287583 -41.21 0.0003069195    2.346    0.574
       108  -9.8117    163.3758    225.1574   1.1658605043e+02   3.0889425296e+00     0.536002    0.3891624  85.29  0.002493056    2.093    0.522
       109  -9.5420    160.1827    218.1903   1.1610119566e+02   4.9816734884e+00     0.428074    0.3108684 -63.92  0.001052174    1.659    0.397
       110  -9.5936    114.0288    229.0288   1.2739903528e+02   1.0974616309e+01    0.3251324    0.1964039  48.48 0.0007815173    1.461    0.316
       111  -9.9083     45.0166    229.1895   1.4108163729e+02   2.1170786610e+01    0.2080191    0.1878138 -88.14 0.0004447766    1.327    0.247
       112 -10.2917    222.0978    225.4888   1.0495754919e+02  -7.0660351602e+00    0.6898577    0.3794137  13.82  0.002436277    2.631    0.620
       113  -9.2317    216.7279    220.8738   1.0514784954e+02  -5.4581900798e+00    0.2953769     0.223444  15.52 0.0009884177    1.279    0.218
       114 -10.6103    238.7557    217.6842   1.0043912142e+02  -8.4797920494e+00    0.4496429     0.234789  31.85  0.001043363    1.894    0.472
       115 -11.1014    203.5845    216.4332   1.0690173406e+02  -2.4888657121e+00     0.488147    0.2906534 -44.20  0.002437563    1.805    0.446
       116 -10.4560    233.2087    203.1066   9.8703815075e+01  -5.2691396588e+00    0.5507684    0.3716765  23.58  0.002980711    1.526    0.345
       117 -11.1897    227.4768    215.4622   1.0211299811e+02  -6.3461049023e+00    0.7627662    0.5957509   0.94  0.004098488    1.239    0.193
       118 -10.5577    233.5613    210.3425   1.0001985989e+02  -6.5070158255e+00     0.436394    0.3313783 -13.30  0.001087057    1.264    0.209
       119  -8.5501    144.6556    229.1757   1.2109030973e+02   5.6615425677e+00    0.2619731     0.179856  35.18  0.001282019    1.408    0.290
       120  -9.3351     79.2638    228.6748   1.3440984405e+02   1.6567077124e+01    0.2114435    0.1941746  81.23 0.0003594751    1.209    0.173
       121  -9.0240     29.7159    228.8994   1.4387155398e+02   2.3077336529e+01    0.1673784    0.1429559  68.02 0.0004242728    1.268    0.211
       122 -10.3553    104.2179    241.1103   1.3089226149e+02   1.0190265562e+01    0.2752269    0.2253954  68.87 0.0005456943    1.072    0.067
       123  -8.5872    153.0469    227.9788   1.1917167351e+02   4.4036749235e+00     0.199186    0.1798781  42.12 0.0003346526    1.026    0.026
       124  -8.4067    107.3534    228.1577   1.2865728560e+02   1.2260222846e+01    0.1760273    0.1526041  87.13 0.0006882672    1.123    0.109
       125 -10.2185     19.5302    226.8239   1.4554498785e+02   2.4644701967e+01    0.2331877     0.199124  84.73 0.0005777708    1.272    0.214
       126  -8.7311    175.6151    227.1956   1.1441185139e+02   5.4204572246e-01    0.2228785    0.1670432  37.40 0.0003257058    1.202    0.168
       127  -9.5327    123.5406    231.0135   1.2571176755e+02   8.9712855386e+00    0.2417572    0.1757556  44.91 0.0003471733    1.232    0.189
       128  -8.7683     59.6860    227.6555   1.3814956046e+02   1.9570907261e+01    0.1866942    0.1148349  37.17 0.0008472027    1.788    0.441
       129  -9.6619    229.3998    225.7242   1.0363053467e+02  -8.2575574401e+00    0.2189749    0.1874157  -0.26 0.0004039477    1.032    0.031
       130  -9.8728    200.2310    225.1221   1.0911859049e+02  -3.3840233477e+00    0.2267848    0.2086224   3.30 0.0003698016    1.069    0.065
       131  -8.2725    185.1374    226.1612   1.1230910930e+02  -9.5056791876e-01    0.1920231    0.1640902  13.15 0.0003405209    1.161    0.138
       132 -10.5180    236.2871    226.5592   1.0251032134e+02  -9.4436849153e+00    0.2994826     0.256256   8.60  0.001105188    1.063    0.059
       133 -10.6335    249.0248    223.0483   9.9578818112e+01  -1.0821160464e+01    0.2905144    0.2429395 -24.48 0.0004647265    1.223    0.182
       134  -8.7855    120.9560    224.9608   1.2540502940e+02   1.0623231065e+01    0.1974527    0.1746635  63.32 0.0003323745    1.014    0.014
       135  -8.8295    109.9116    224.3774   1.2762932581e+02   1.2612266991e+01    0.2085783     0.169786  85.04 0.0005005776    1.214    0.176
       136  -9.0254    191.7335    224.0943   1.1062790055e+02  -1.7446307374e+00    0.2142817    0.1744248  31.48 0.0004962803    1.114    0.103
       137  -8.1294    170.9456    223.7496   1.1479239320e+02   1.9935265299e+00    0.1852849    0.1593415  36.87  0.001086843    1.053    0.050
       138  -8.4983    155.9317    223.8824   1.1792421651e+02   4.6624346161e+00    0.1933984    0.1726595  20.94  0.000280075    1.180    0.153
       139  -9.7676    129.8729    223.5543   1.2333368890e+02   9.3616662457e+00     0.251769    0.2242778  49.25 0.0004175627    1.067    0.063
       140  -8.7938    136.0038    223.2887   1.2200543979e+02   8.3357551224e+00    0.1948227    0.1598203  46.34 0.0005260538    1.104    0.094
       141  -8.8267     83.0318    223.0282   1.3300892852e+02   1.7189702960e+01    0.1919202    0.1619266  71.28  0.000341705    1.028    0.027
       142 -10.6038     50.2929    221.4564   1.3937783518e+02   2.2131881587e+01    0.6202909    0.3240216 -79.98  0.003281895    1.802    0.445
       143  -9.8420     47.9473    217.5416   1.3946541555e+02   2.3275315256e+01    0.3997048     0.251029 -58.59  0.001574762    1.747    0.428
       144  -8.6425    175.1684    221.4646   1.1353756240e+02   1.6541887319e+00    0.2290378     0.196361 -56.49 0.0007406789    1.340    0.254
       145  -8.5697    115.1662    221.6766   1.2615882336e+02   1.2285736524e+01    0.1838546    0.1576791  50.70 0.0005070571    1.102    0.093
       146  -8.9008     97.8432    221.8498   1.2981080325e+02   1.5120942370e+01    0.2037206    0.1770026 -46.37 0.0004367641    1.453    0.312
       147  -8.2215     92.7020    221.9525   1.3089104952e+02   1.5919624803e+01    0.1770977    0.1501048 -83.63 0.0004333862    1.150    0.130
       148  -8.6248     75.1928    222.4014   1.3453014330e+02   1.8493587418e+01    0.1817458    0.1372799  59.56  0.001060345    1.156    0.135
       149  -9.7160     15.9825    221.3436   1.4579410693e+02   2.6160357382e+01    0.2204829    0.1909177 -79.61 0.0005701464    1.379    0.275
       150  -8.4412    180.9921    221.0181   1.1226696442e+02   6.9230977053e-01    0.2042176    0.1572132   1.33  0.000416239    1.557    0.358
       151  -9.1929    141.2922    220.4530   1.2045469440e+02   7.9583028751e+00    0.2433315    0.2087309  82.78 0.0008096115    1.259    0.206
       152  -8.3462    104.5863    223.8620   1.2866905874e+02   1.3601284785e+01    0.1835829     0.157227 -53.29 0.0004360344    1.377    0.274
       153  -8.3489     68.3574    221.0230   1.3575811848e+02   1.9775926872e+01    0.1732558    0.1392546 -87.54 0.0004230031    1.123    0.110
       154  -9.1157     59.9219    220.7014   1.3741099960e+02   2.1017840572e+01    0.2009728     0.156823 -63.89 0.0003741451    1.415    0.293
       155  -9.6267     40.3649    220.7593   1.4122797061e+02   2.3526264283e+01    0.2064675    0.1707459 -84.43 0.0004051116    1.203    0.168
       156  -9.0009    186.0755    220.0865   1.1106907707e+02  -4.6958154367e-02    0.1991705    0.1836885  20.81 0.0004162885    1.021    0.021
       157  -8.6962    109.0619    219.5237   1.2714806587e+02   1.3766825602e+01    0.1928594    0.1711547 -87.19 0.0003915046    1.118    0.105
       158  -8.0035     88.1875    220.3791   1.3163168878e+02   1.6962560311e+01    0.1794164     0.106795  52.26 0.0002656948    1.514    0.339
       159  -8.4490    129.8974    218.9032   1.2263485755e+02   1.0300670343e+01    0.2035281    0.1817871  30.98 0.0005567804    1.223    0.183
       160  -8.6375    104.4782    219.0372   1.2805000229e+02   1.4633205184e+01     0.183775    0.1290871 -63.92 0.0004534886    1.474    0.322
       161  -8.0907    137.0120    218.4271   1.2104726775e+02   9.1316656463e+00    0.2018104    0.1257101  40.97 0.0001031089    1.485    0.327
       162  -9.6790    194.6247    216.7515   1.0874759059e+02  -9.7316064741e-01    0.2545547    0.2192187   9.27 0.0003909357    1.137    0.120
       163  -8.4224    120.0282    217.3574   1.2450960408e+02   1.2349972643e+01    0.1915477    0.1587009  52.23 0.0004722919    1.096    0.088
       164  -8.1219     72.6063    217.1690   1.3446760464e+02   1.9999633946e+01    0.1673468     0.111064 -59.89 0.0002989196    1.586    0.370
       165  -8.9273     56.1371    216.7843   1.3776691688e+02   2.2374921037e+01    0.2091471    0.1377348 -86.88 0.0007373649    1.368    0.269
       166  -8.4967     21.8743    216.8011   1.4438550885e+02   2.6493102254e+01    0.1613574    0.1352055 -82.16 0.0005209311    1.276    0.216
       167  -8.6761    180.4997    216.0392   1.1149772305e+02   1.6869441708e+00    0.1893266    0.1368832 -43.81 0.0004414914    1.487    0.328
       168  -8.1678    124.8199    215.8215   1.2325530478e+02   1.1833649574e+01    0.1880389     0.148002  71.29 0.0003200177    1.299    0.230
       169  -8.0010     91.4020    216.4960   1.3047410803e+02   1.7294421700e+01    0.1328876    0.1157788  77.32 0.0001161034    1.036    0.035
       170  -9.0111     83.0417    215.8532   1.3214880695e+02   1.8732756910e+01    0.1924606    0.1695589  76.54 0.0004457431    1.077    0.071
       171  -9.2897    172.0488    214.3025   1.1294655242e+02   3.5530765317e+00    0.2340168    0.2157185  -1.20 0.0005836527    1.142    0.124
       172  -8.7347    144.0938    214.9694   1.1898547002e+02   8.5523401029e+00    0.2062306    0.1912309  46.42 0.0003862057    1.044    0.042
       173  -7.7970    101.2701    215.5749   1.2826218272e+02   1.5902322096e+01    0.1456215   0.09407947  78.44 0.0006945641    1.807    0.446
       174 -10.0089    248.7652    212.7259   9.7716278043e+01  -9.2465742008e+00    0.3187828    0.2066819 -19.03  0.001215547    1.504    0.335
       175  -8.7290    132.8580    213.7965   1.2121363263e+02   1.0825894223e+01    0.1936479    0.1811277  37.11  0.000370835    1.139    0.122
       176  -9.6932    186.9338    212.7102   1.0957977079e+02   1.1311427502e+00    0.2196526    0.1807263 -24.01 0.0002404495    1.294    0.227
       177  -7.6794    155.2757    213.3240   1.1632210851e+02   6.8323416278e+00    0.1352341    0.1099327  -4.25 0.0002400262    1.582    0.368
       178  -8.8525    117.9833    212.9260   1.2429502650e+02   1.3641395503e+01    0.2081472    0.1881012  67.61 0.0004704386    1.017    0.017
       179  -8.4605    111.7518    213.2157   1.2568394645e+02   1.4653468782e+01    0.1694157    0.1606018 -31.35 0.0003545325    1.323    0.244
       180  -8.1443     74.9549    212.9308   1.3348876597e+02   2.0585210574e+01    0.1768357    0.1548986 -37.25  0.000292654    1.601    0.375
       181  -8.8818     41.8589    212.8351   1.4022070244e+02   2.5057795040e+01    0.1710532    0.1479175 -84.24 0.0004726939    1.223    0.183
       182  -9.0674     98.8837    211.4134   1.2820589713e+02   1.7197705270e+01    0.2212394    0.2053323  21.64 0.0008425452    1.372    0.271
       183  -8.9874     25.1602    211.2417   1.4332674181e+02   2.7331557748e+01    0.1969382    0.1515271  89.22 0.0005659611    1.069    0.065
       184  -9.9510     17.2065    210.5024   1.4477559443e+02   2.8333715765e+01    0.4256496    0.1951403 -88.63  0.001121658    1.972    0.493
       185  -8.4072    125.1501    211.0773   1.2245921506e+02   1.2774535331e+01    0.1945042    0.1824981  33.06 0.0003504614    1.189    0.159
       186  -7.6994    141.2748    210.3382   1.1883599210e+02   1.0014748919e+01    0.1354057    0.1120334 -10.20 0.0006527399    1.610    0.379
       187  -8.3682    107.6480    210.0108   1.2610980162e+02   1.6045064141e+01    0.1844626    0.1663428  88.89 0.0004540131    1.076    0.070
       188 -11.2584    211.4333    217.3353   1.0552616672e+02  -3.9892844878e+00    0.7569284    0.5441762  27.66  0.002917125    1.315    0.239
       189  -9.9122    194.0381    208.4840   1.0735365834e+02   6.1424367160e-01    0.2712916    0.2087903 -45.21 0.0006133283    1.394    0.283
       190  -8.3013    162.0373    209.2546   1.1417765562e+02   6.3856555342e+00     0.198478    0.1735782  44.58 0.0004863923    1.070    0.066
       191  -8.1327     93.6257    209.1736   1.2903589164e+02   1.8543664341e+01    0.1791285    0.1193654 -53.57 0.0003535628    1.636    0.389
       192 -10.0982     67.3002    208.0692   1.3452457646e+02   2.2769522182e+01    0.2935481    0.2167615 -74.78  0.001124897    1.253    0.202
       193  -8.1059    149.5680    207.8743   1.1662312047e+02   8.9897116016e+00    0.1915248    0.1400525 -49.67 0.0003715426    1.463    0.316
       194  -8.2600    133.8514    208.4118   1.2013780275e+02   1.1773990566e+01     0.188706    0.1309621  31.32 0.0005312188    1.573    0.364
       195  -8.6684     78.9273    208.1298   1.3206304001e+02   2.1061434702e+01    0.1988427    0.1733666  79.37 0.0004312343    1.050    0.048
       196  -8.8135     72.7449    208.2057   1.3338963747e+02   2.1958373544e+01    0.1652572    0.1507163 -58.15 0.0004416947    1.349    0.259
       197 -10.2510    206.9810    205.8880   1.0426671550e+02  -1.2446955429e+00    0.2597799    0.2000485 -15.52            0    1.377    0.274
       198  -8.5385    120.1712    206.8988   1.2290032325e+02   1.4554568452e+01    0.2102823    0.1769517  69.69 0.0004256924    1.137    0.121
       199  -8.3238    114.9843    207.3831   1.2411584579e+02   1.5359096111e+01    0.1934278    0.1656763  52.38  0.001097749    1.102    0.092
       200  -9.6009    184.3930    206.1134   1.0889542055e+02   2.8251757768e+00    0.2528625    0.1792445  30.77 0.0006969102    1.398    0.285
       201  -8.2447    127.2753    206.3080   1.2124196415e+02   1.3413759162e+01     0.210578     0.167977  48.97 0.0002521357    1.167    0.143
       202  -9.4421    124.0218    206.0033   1.2191079263e+02   1.4063772644e+01    0.2031877    0.1858118  63.26            0    1.020    0.019
       203  -8.0316    104.0419    205.9472   1.2630923238e+02   1.7547412521e+01    0.1631035    0.1443794  83.08 0.0002893655    1.043    0.042
       204  -8.3481     47.8305    206.2071   1.3837016277e+02   2.5785579113e+01     0.152739    0.1391755 -74.79 0.0003376256    1.307    0.235
       205  -8.1057     39.2224    205.8694   1.4008757205e+02   2.6912542460e+01    0.1544098    0.1288742 -70.30 0.0003958688    1.303    0.232
       206  -9.5529    247.1490    204.6373   9.6471013245e+01  -7.7464426377e+00     0.230902    0.1792966 -27.96 0.0003857663    1.183    0.155
       207  -9.4783    224.1697    204.7201   1.0070840171e+02  -4.0283033155e+00    0.4040755     0.208712  49.59  0.001153157    2.371    0.578
       208 -11.0067    199.5760    201.4496   1.0490144130e+02   8.9364679463e-01    0.5577039    0.2752936 -39.43  0.001849864    2.083    0.520
       209 -11.1329    211.6459    199.1424   1.0204848895e+02  -8.7478104990e-01    0.3922143      0.26376  41.36 0.0009723526    1.491    0.329
       210  -8.3294    141.0113    203.7522   1.1779021090e+02   1.1442081111e+01    0.1980714    0.1724962  46.26            0    1.086    0.079
       211  -8.9313     93.7503    203.4382   1.2821778088e+02   1.9805048691e+01    0.2772642    0.1639349  60.02  0.001147433    1.745    0.427
       212 -10.0033    179.2606    202.0200   1.0920635162e+02   4.5712195358e+00    0.3025097    0.2539528 -88.11  0.001609929    1.546    0.353
       213  -7.5478     43.2843    203.3642   1.3901442489e+02   2.6984804807e+01    0.1201168   0.08836235 -51.39 0.0007019201    1.688    0.408
       214  -8.5870     21.5127    202.4050   1.4330017348e+02   2.9653446196e+01    0.1666382    0.1531065  44.97 0.0003442972    1.459    0.315
       215  -8.3088     16.7310    201.2047   1.4413544253e+02   3.0406178053e+01    0.1945053    0.1420925  28.63  0.001268701    1.861    0.463
       216  -8.0670    110.4745    202.4812   1.2436666156e+02   1.7222130918e+01    0.1400661    0.1293261  72.64  0.000720326    1.049    0.047
       217  -8.9261     98.5811    202.0036   1.2694329166e+02   1.9339530921e+01    0.2648305    0.1964246  43.36 0.0005355409    1.339    0.253
       218 -10.0815     81.2961    200.6983   1.3058804869e+02   2.2382823145e+01    0.3121314    0.2335936  81.81 0.0007795186    1.278    0.218
       219  -9.8882     69.2730    200.8282   1.3323384801e+02   2.4127520741e+01    0.4053064    0.2382358  63.29  0.001706645    1.730    0.422
       220 -11.1000     64.1275    195.5701   1.3370643602e+02   2.6059242717e+01    0.4871556    0.3248641  61.74  0.001070377    1.435    0.303
       221  -8.5064     29.0871    201.6999   1.4173692206e+02   2.8999713632e+01    0.1643841    0.1355078  84.31 0.0005580681    1.099    0.090
       222  -9.2099    224.1019    200.6598   9.9937225783e+01  -3.3252027327e+00    0.2264139    0.1741936 -42.06 0.0006691741    1.361    0.265
       223  -7.8851    187.4335    201.4907   1.0739734751e+02   3.1362722165e+00    0.1403986    0.1318852  13.04 0.0001555463    1.017    0.017
       224  -9.7515    132.4397    199.8705   1.1903402720e+02   1.3865253884e+01    0.3717382    0.2581881 -28.94  0.000847966    2.041    0.510
       225  -7.7752     34.5185    201.5075   1.4062341254e+02   2.8434486900e+01     0.125361   0.09873281  86.74 0.0008103055    1.016    0.016
       226  -9.6648    250.2624    199.1946   9.4874288793e+01  -7.3666034215e+00    0.2260868    0.1768654 -39.78 0.0007759367    1.339    0.253
       227  -9.3004    194.3859    200.4131   1.0575851056e+02   2.0435825894e+00    0.2094623    0.1612365   0.58 0.0005618496    1.524    0.344
       228  -9.6450    243.4035    198.3749   9.5930257807e+01  -6.1504557888e+00    0.2400316    0.1989376  -7.25  0.000420542    1.089    0.082
       229  -7.8440    104.0094    198.9995   1.2528319648e+02   1.9110674314e+01    0.1679504    0.1495942  71.47 0.0003241166    1.020    0.019
       230  -8.1429     42.4214    199.4827   1.3879792681e+02   2.7964985569e+01     0.126768    0.1023404 -89.95 0.0001186156    1.043    0.041
       231  -8.7967    231.0623    197.6108   9.8033915469e+01  -3.9897124442e+00    0.2015162    0.1596351 -28.83 0.0003000493    1.184    0.155
       232  -9.1813    140.2991    197.4763   1.1686235526e+02   1.2918631339e+01    0.3281761    0.2226047   1.10  0.001304409    2.852    0.649
       233 -12.3215    206.1288    194.9591   1.0232173528e+02   8.8728649351e-01    0.8943148     0.586105   7.08  0.003873162    2.178    0.541
       234  -7.6247    150.7092    197.2995   1.1451251348e+02   1.0980110270e+01    0.1443768    0.1121486  77.38  0.000254973    1.562    0.360
       235  -8.3072     89.7609    197.2261   1.2822534625e+02   2.1859036910e+01    0.1753764    0.1594926 -47.98 0.0004400582    1.327    0.246
       236  -8.6385     21.7579    197.4648   1.4282872288e+02   3.0724276415e+01    0.1299579    0.1203907  23.99 0.0006997539    1.568    0.362
       237  -9.2968    238.1395    195.9890   9.6413994127e+01  -4.8989717137e+00    0.2027352    0.1772885  10.41 0.0003301974    1.096    0.088
       238 -10.0065    196.3133    194.3738   1.0419137690e+02   2.8243600685e+00    0.2781577     0.174872 -44.12 0.0006985531    1.628    0.386
       239  -9.4655    114.0479    194.9616   1.2237408622e+02   1.8287874030e+01    0.2154779    0.1991232  75.96 0.0003650331    1.022    0.021
       240  -7.8135     74.7156    194.2817   1.3119216354e+02   2.4847161804e+01    0.1374119   0.09263313  73.71 0.0001909944    1.518    0.341
       241  -8.2620    186.6706    193.7288   1.0606233673e+02   4.7811046773e+00    0.1442288    0.1104488   6.63 0.0002388502    1.585    0.369
       242  -8.5255     27.3002    192.7525   1.4127221432e+02   3.1204446677e+01    0.2376771    0.1253342  60.76  0.000665856    1.859    0.462
       243  -9.7593    199.8833    190.8888   1.0277333140e+02   2.8145035778e+00    0.1869745    0.1738328  83.69 0.0004708083    1.302    0.232
       244 -10.0628      7.4804    203.6581   1.4609351695e+02   3.0768774188e+01    0.2159268    0.2000459 -75.27 0.0006556842    1.443    0.307
       245 -10.7102    154.7234    188.3844   1.1196167566e+02   1.2108368529e+01    0.4716019    0.3771805  72.80  0.002194439    1.451    0.311
       246  -7.7188     79.2951    190.3073   1.2961145694e+02   2.5091367168e+01    0.1286369    0.1067744 -36.55 0.0007001531    1.586    0.369
       247  -8.5821      9.4461    190.5234   1.4470405755e+02   3.3468599960e+01    0.1193471   0.08987949 -87.81 0.0001014936    1.036    0.035
       248  -9.6071    190.0252    190.8388   1.0479276309e+02   4.7032385844e+00    0.2873932    0.2234792  82.60   0.00138911    1.883    0.469
       249  -8.9617     94.8204    189.0679   1.2585821949e+02   2.2932020671e+01    0.2263361    0.1778353  75.22    0.0005433    1.254    0.203
       250  -7.7953     14.2775    188.9879   1.4360283464e+02   3.3362474763e+01    0.1516916   0.08469304 -78.12 0.0006990933    1.423    0.297
       251 -10.3077    222.6792    187.8502   9.7672293068e+01  -8.2548945066e-01     0.280145     0.198806  51.23  0.001442946    1.647    0.393
       252 -10.6323    231.7753    185.4140   9.5474451657e+01  -2.0022967424e+00    0.3500326    0.2830537  -6.18  0.001751897    1.247    0.198
       253 -10.1411    229.5242    182.5294   9.5305971285e+01  -1.0941043199e+00    0.2456238    0.2248102  -4.70 0.0006337613    1.035    0.034
       254 -10.4661    233.2520    181.3697   9.4381921451e+01  -1.5470969084e+00    0.4282422    0.3191685  46.33  0.001531908    1.503    0.334
       255  -8.2357      1.3873    187.8388   1.4609011253e+02   3.4772214668e+01    0.1599055   0.08092602 -68.26 0.0003497064    1.622    0.383
       256  -7.9690    249.3486    183.2709   9.1897216356e+01  -4.6112688948e+00    0.1336313   0.09508324   0.89 0.0002206708    1.624    0.384
       257  -9.1563    224.5221    182.9863   9.6336187816e+01  -2.7990185884e-01    0.2083721    0.1297173 -39.83 0.0004606233    1.534    0.348
       258  -9.9534     28.5073    179.4172   1.3968146115e+02   3.4140034252e+01     0.395306    0.1934673  46.93  0.002051021    2.067    0.516
       259  -8.9963      8.0913    182.6958   1.4432846621e+02   3.5341634992e+01    0.1594293    0.1293893  85.12  0.000519104    1.109    0.098
       260 -10.7664    117.1815    179.0927   1.1892280683e+02   2.1383622881e+01    0.6061146    0.3802191  59.19  0.001774751    1.764    0.433
       261  -8.5498      3.4860    182.5410   1.4525497328e+02   3.5772187575e+01    0.1182727    0.0889827 -85.23 8.278195e-05    1.047    0.045
       262  -7.9840     43.3950    179.7705   1.3640594550e+02   3.2411552916e+01    0.1807892    0.1033426 -63.14 0.0009408883    1.547    0.354
       263  -7.3868     14.3857    180.2722   1.4280451379e+02   3.5324727374e+01    0.1131137   0.08237017 -47.80 0.0006994152    1.711    0.416
       264  -8.5959     56.9404    202.3648   1.3605909027e+02   2.5475223164e+01    0.1758822    0.1493961  76.00 0.0005140715    1.078    0.073
       265  -7.9915    100.9751    176.0145   1.2226778754e+02   2.4986255230e+01    0.1697012    0.1549519  89.75            0    1.005    0.005
       266  -9.3504      9.8333    176.5913   1.4343113809e+02   3.6570396022e+01     0.319526    0.1660435  21.60  0.001710901    2.809    0.644
       267  -9.2636     10.1378    172.7284   1.4301164027e+02   3.7425020751e+01    0.3132336    0.1239781  54.34  0.001474947    2.749    0.636
       268  -9.8188     40.7003    171.4381   1.3601213727e+02   3.4695185191e+01     0.243939    0.1989828 -66.83 0.0006691387    1.174    0.149
       269  -7.7619    248.2690    167.6952   8.8916177414e+01  -1.7564767006e+00    0.1266792    0.1024756 -61.14 0.0002890406    1.533    0.348
       270 -10.0898    185.9175    165.9182   1.0049723545e+02   1.0579059060e+01    0.4193629    0.3510052  36.65  0.001344434    1.218    0.179
       271 -10.5163      6.4269    163.4347   1.4294252160e+02   3.9861113322e+01    0.3987989    0.2496744 -56.03  0.001772777    1.564    0.361
       272 -10.1300    217.6931    161.3665   9.3089959174e+01   5.0569694869e+00    0.6609391    0.2933299  47.93  0.002592525    2.441    0.590
       273 -10.3100    148.8175    166.6657   1.0897917368e+02   1.8105693239e+01    0.5808719    0.3720951  18.50  0.002246244    2.476    0.596
       274  -8.9097    172.0290    158.0227   1.0179474735e+02   1.5178848824e+01    0.2555625    0.1952791  88.09   0.00113944    1.772    0.436
       275  -8.4946    217.0709    156.6846   9.2190815101e+01   6.0859366767e+00    0.2046363    0.1879282  28.37 0.0007565457    1.144    0.126
       276  -8.3749    228.7438    156.0483   8.9887584895e+01   3.9215586254e+00     0.200727    0.1733359 -32.14 0.0004494688    1.067    0.062
       277  -9.2863    123.8375    155.5640   1.1270070446e+02   2.5694586461e+01    0.3517036    0.2937709  36.94  0.001295508    1.270    0.213
       278  -9.2127     84.5597    154.3750   1.2251474190e+02   3.2937184530e+01    0.3003382    0.2333692  47.27  0.001574006    1.345    0.256
       279 -10.1848    245.5349    149.6177   8.5591622490e+01   1.9495004525e+00    0.3342232    0.2722486  13.42  0.001576614    1.447    0.309
       280 -11.3564     84.3055    146.1249   1.2101788514e+02   3.4993659290e+01    0.5738721     0.561776  59.01   0.00180941    1.126    0.112
       281  -9.6765     26.9163    148.4016   1.3639379515e+02   4.1607772954e+01    0.2491266    0.1544834 -65.03 0.0007027963    1.310    0.237
       282  -9.7646     11.8050    146.8263   1.3993137176e+02   4.3277356057e+01    0.3539265     0.219114 -66.22  0.002122131    1.275    0.216
       283  -8.5449    134.0287    148.0020   1.0851796718e+02   2.5447495004e+01    0.2417013    0.2320435 -69.54 0.0005389046    1.014    0.014
       284  -8.0430    236.4065    145.5158   8.6254563664e+01   4.4171950442e+00    0.1425317    0.1261285 -34.70  0.000139073    1.026    0.026
       285  -9.9239     48.1947    143.3794   1.3016367695e+02   4.0593574087e+01    0.3951319    0.2937526  34.40  0.001621777    1.556    0.357
       286  -8.9204    225.1753    138.7094   8.6721240481e+01   7.9250612263e+00    0.3805233    0.2064178 -29.96  0.001559784    2.095    0.523
       287  -9.9243     98.9118    137.6885   1.1535391731e+02   3.4613308979e+01    0.3795315    0.3197623 -70.98  0.001007623    1.180    0.152
       288 -10.2920    249.7935    134.1977   8.1614286904e+01   3.9416948737e+00    0.3985056    0.2493817 -26.93  0.001128396    1.751    0.429
       289 -10.5644    244.8509    133.4050   8.2227325714e+01   5.0228942138e+00     0.390852    0.2606755 -68.20  0.001497502    2.050    0.512
       290  -9.9936     42.2606    134.2430   1.3025979226e+02   4.3452833278e+01    0.3008426    0.2585315 -78.44  0.000774484    1.084    0.078
       291 -10.2210    242.2520    125.7619   8.0980204996e+01   6.9227467314e+00      0.27061    0.2272731  35.01 0.0007653194    1.401    0.286
       292 -10.7306    100.7542    116.7034   1.0996706717e+02   3.9239257247e+01    0.5196673    0.3865094 -49.19 0.0007313289    1.273    0.214
       293 -10.9385     18.0541    115.4352   1.3396601181e+02   5.0076228628e+01    0.4671498    0.2702141 -65.57  0.001076339    1.384    0.278
       294  -9.4893    249.7422    117.9329   7.8129610262e+01   6.8673641230e+00    0.1971401     0.164915 -46.88 0.0007109161    1.039    0.037
       295  -8.8948    231.6228    116.3769   8.0603709941e+01   1.0810245051e+01    0.3541565    0.2014409  62.02  0.001291155    2.098    0.523
       296  -9.4967     34.0572    109.3791   1.2815693329e+02   5.0109272187e+01    0.3517195    0.1971555 -49.06   0.00108778    1.511    0.338
       297  -8.5227    129.2467    110.3848   1.0058295238e+02   3.5036306788e+01    0.2191088    0.1468571  54.36 0.0009524332    1.610    0.379
       298 -10.5874    250.3386    103.9605   7.5033549491e+01   9.2156755665e+00    0.5363498    0.1571526 -39.56  0.001852661    3.021    0.669
       299 -10.2439    225.3216    247.9168   1.0822882026e+02  -1.0867216278e+01    0.2452282    0.2220451 -13.62 0.0004415585    1.260    0.207
       300  -9.7447     17.3049     89.6669   1.2953128551e+02   5.5869192628e+01    0.2584835    0.1477271 -54.30  0.001113216    1.353    0.261
       301  -9.8852     16.4793     85.9664   1.2904250247e+02   5.6719123603e+01    0.3315884    0.1854111 -61.01  0.001615032    1.488    0.328
       302  -8.8031     33.9467     88.9905   1.2388022139e+02   5.4649654602e+01    0.1946293    0.1576235 -45.79 0.0004267124    1.016    0.016
       303  -8.2512     72.3872     97.8285   1.1360517179e+02   4.8137045780e+01    0.2043701    0.1153397 -41.43 0.0004457384    1.673    0.402
       304  -9.5539    154.8212     82.2049   8.6617493403e+01   3.4942451502e+01    0.3193127    0.2884219 -14.28  0.001052349    1.235    0.191
       305  -9.7847    156.8502     77.9082   8.4969389797e+01   3.5237875558e+01    0.3449039    0.2814803  12.24 0.0008519178    1.552    0.356
       306 -10.3966    220.7814     79.7816   7.3888692455e+01   1.9730607441e+01    0.3660758    0.2899814  86.52 0.0005686123    1.289    0.224
       307 -12.6587     80.0598     75.9707   1.0503179873e+02   5.1468213963e+01     0.371374    0.3394887 -40.10 0.0003951608    1.136    0.120
       308  -7.9042    221.4895    248.4330   1.0902236478e+02  -1.0366915508e+01    0.1218004    0.1010282  16.84 7.238024e-05    1.042    0.040
       309  -9.8821     45.0930     75.1248   1.1655211041e+02   5.6402868322e+01    0.3004864    0.2737691 -84.44  0.001117805    1.445    0.308
       310  -8.4753    101.7353     73.0305   9.7494590579e+01   4.8175325310e+01    0.2044319    0.1800098 -26.31 0.0006621419    1.104    0.094
       311  -9.3029      8.3108     72.8280   1.2902310281e+02   5.9978819258e+01    0.1804201    0.1326443 -69.29  0.001196256    1.413    0.292
       312 -11.2050    227.2479     70.8036   7.0897818228e+01   1.9759526010e+01    0.4863524    0.3487526 -78.31 0.0006262655    1.454    0.312
       313 -10.7118    143.7884     63.8332   8.3808006591e+01   4.0711709117e+01    0.5057026     0.370071 -17.50  0.001542606    1.655    0.396
       314  -8.8085     51.7725     64.8987   1.1120776378e+02   5.7603024998e+01    0.2292611    0.1993632  53.27 0.0009322227    1.571    0.364
       315  -9.8048     59.0628     60.7837   1.0732989964e+02   5.7412269513e+01    0.4459961     0.271907 -13.84  0.002079696    2.038    0.509
       316 -10.7219      7.9224     99.3546   1.3431047207e+02   5.4382621521e+01    0.3390354    0.2814506 -32.74  0.001303517    1.275    0.216
       317 -11.2616     79.8370     54.6991   9.8277475380e+01   5.5293260567e+01     0.893136    0.5000616  15.22  0.001782231    2.708    0.631
       318  -9.8586     15.2601     56.4166   1.2236625505e+02   6.2726617464e+01      0.40528    0.1824052 -29.70  0.002078815    2.248    0.555
       319  -7.4957     23.5385     56.5122   1.1918956851e+02   6.2068963594e+01    0.1188351    0.0942256 -32.85 7.909121e-05    1.023    0.023
       320  -8.4525    114.7133     95.3046   1.0037644430e+02   4.1261737030e+01    0.2377149    0.1726244  -2.91  0.001045743    1.947    0.486
       321  -7.5921    171.9992     49.9759   7.4245509470e+01   3.6073248745e+01    0.1584078    0.1465677  81.51            0    1.012    0.012
       322  -8.7215     54.4774     95.4876   1.1869968569e+02   5.1044296550e+01    0.1356355    0.1160143 -40.49 8.526332e-05    1.028    0.027
       323  -8.3421    120.0113    248.6587   1.2871137580e+02   6.2070100558e+00    0.1750688    0.1387043  49.46 0.0004984378    1.082    0.076
       324  -9.8716     13.8078     26.7214   1.1345226375e+02   6.7887785288e+01    0.3123097     0.170208  10.51  0.001223482    1.892    0.471
       325  -8.7178    115.7728    248.9456   1.2956951163e+02   6.8446826155e+00    0.2474875    0.1635287  16.03   0.00118305    2.718    0.632
       326  -8.4055    108.7336    249.3083   1.3097207582e+02   7.9106322101e+00    0.1545198    0.1358936  36.52 0.0004010483    1.311    0.237
       327 -10.4363     33.0477    248.1452   1.4468334276e+02   1.8826197599e+01     0.222488    0.1918601  78.91 0.0004313929    1.311    0.237
       328  -9.1906     24.6379    248.9161   1.4614735902e+02   1.9662809099e+01    0.1815799    0.1737584  17.56  0.001236492    1.819    0.450
       329 -10.0019      8.9966    248.4758   1.4866887652e+02   2.1467913954e+01    0.2007051    0.1627737  73.66 0.0005680987    1.275    0.215
       330 -11.1074    211.6667    246.7821   1.1058663117e+02  -8.6302417056e+00    0.2815395    0.2162038  21.78 0.0004415448    1.117    0.105
       331  -7.7362    206.3029    245.6982   1.1142487667e+02  -7.6294763161e+00    0.1276024    0.1069245  19.01 0.0004704492    1.007    0.007
       332 -10.5023     24.5153     38.5075   1.1307251249e+02   6.5115364073e+01    0.2324042    0.1812721  -6.37 0.0005839788    1.149    0.129
       333 -12.3895     19.4710     41.2104   1.1607442076e+02   6.5106552402e+01    0.5638796    0.2972451 -16.11  0.001598633    2.103    0.524
       334 -12.4625     12.9762     38.8764   1.1802660734e+02   6.6005312162e+01    0.5576745    0.3302762  -3.38  0.001840786    1.759    0.431
       335 -11.0531    115.8461     74.2015   9.3880460218e+01   4.5135834727e+01    0.4634117    0.3910841  68.56  0.001646291    1.393    0.282
       336  -9.6556      2.0691     94.5519   1.3530230309e+02   5.5770064511e+01    0.2889185    0.1898909 -72.89  0.001654107    1.362    0.266
       337  -8.5197     75.6264     42.1335   9.5259901573e+01   5.7933566105e+01    0.1819846     0.110076 -21.61 0.0009408541    1.727    0.421
       338  -8.5992     32.0241     40.4851   1.1069442309e+02   6.4069355050e+01    0.1807162     0.131088 -29.62 0.0004786176    1.138    0.122
       339  -9.6595     53.6482     36.2042   1.0074397472e+02   6.2138072558e+01    0.3012366    0.1772111  12.41  0.001178719    1.942    0.485
       340  -9.9019     31.9510     34.5950   1.0861448473e+02   6.5005376118e+01    0.3720628    0.2494831  -6.74  0.002405313    1.390    0.281
       341  -9.3425    145.8654     34.4892   7.4632713287e+01   4.4402162180e+01    0.3329149    0.2065977  50.79  0.001054687    1.462    0.316
       342  -9.9598     45.7136     32.9768   1.0252725449e+02   6.3652747230e+01    0.2677387    0.1933895 -32.09 0.0009830935    1.324    0.245
       343  -9.6338     75.5139     31.9793   9.1567301061e+01   5.9344594533e+01    0.3603691    0.1757104  45.75  0.001235794    2.037    0.509
       344  -8.4304     79.3409     30.5462   8.9816056497e+01   5.8863991681e+01    0.2194075    0.1466277 -27.24  0.001268541    1.509    0.337
       345  -8.2466    205.5410     31.0561   6.4523813657e+01   3.0564214158e+01    0.1888961   0.08817133 -56.96 0.0007249438    2.367    0.577
       346  -9.3702     66.6006     30.3709   9.3915618650e+01   6.1020889073e+01    0.2299108    0.1786822   4.51 0.0005964566    1.139    0.122
       347 -10.0209     67.9895     24.4434   9.1154751357e+01   6.1538280576e+01    0.5762338    0.2031998  29.30  0.001968987    4.606    0.783
       348  -9.5440      4.7404     32.6491   1.1953479615e+02   6.7604721656e+01    0.3214999    0.1735846  28.89  0.002044109    2.266    0.559
       349  -8.6348    158.3105     91.1237   8.8301986637e+01   3.2445593887e+01    0.2425621    0.2057599  41.00 0.0004494497    1.227    0.185
       350  -7.8908    128.5190     22.5089   7.4392578891e+01   4.9766286618e+01    0.1306795     0.115416  51.41 8.462783e-05    1.016    0.016
       351  -9.1739     83.7813     19.4979   8.4312324672e+01   5.9342378022e+01    0.2115994    0.1647045 -11.03 0.0007728381    1.287    0.223
       352  -9.6476    140.7451    247.0900   1.2444241976e+02   3.0432426465e+00    0.2385041    0.2029708  62.20 0.0004417584    1.140    0.123
       353  -9.6058     58.3001     18.3327   9.2046088442e+01   6.3785845576e+01    0.2372719    0.1748949  10.22  0.000600391    1.162    0.140
       354  -8.9622     76.1918    245.7614   1.3677480042e+02   1.3568241563e+01    0.3875577    0.1583762 -53.44   0.00175628    3.075    0.675
       355 -10.1615    243.2763    245.1360   1.0450212611e+02  -1.3079562962e+01    0.2653154    0.1813365 -12.20 0.0003848489    1.390    0.280
       356  -8.1427    171.2538    246.5793   1.1835326233e+02  -2.0217209807e+00    0.1662515    0.1089571  32.00 0.0002844535    1.400    0.286
       357 -10.1643     94.8079    244.9316   1.3315839218e+02   1.0932840913e+01    0.2465789     0.203428  49.56 0.0003889301    1.189    0.159
       358  -9.2684     90.7080    245.3346   1.3398789807e+02   1.1486045190e+01    0.2015821    0.1179161 -72.71 0.0004880269    1.836    0.455
       359  -8.5045    248.9521    245.3252   1.0352744342e+02  -1.3888746872e+01    0.1620545    0.1198739  18.33 0.0003459603    1.156    0.135
       360 -11.0299    234.2388    243.1054   1.0578511963e+02  -1.1513517214e+01    0.3618259    0.2459002  -8.14 0.0005797183    1.489    0.328
