#   1 NUMBER                 Running object number                                     
#   2 MAG_AUTO               Kron-like elliptical aperture magnitude                    [mag]
#   3 X_IMAGE                Object position along x                                    [pixel]
#   4 Y_IMAGE                Object position along y                                    [pixel]
#   5 X_WORLD                Barycenter position along world x axis                     [deg]
#   6 Y_WORLD                Barycenter position along world y axis                     [deg]
#   7 A_WORLD                Profile RMS along major axis (world units)                 [deg]
#   8 B_WORLD                Profile RMS along minor axis (world units)                 [deg]
#   9 THETA_WORLD            Position angle (CCW/world-x)                               [deg]
#  10 FWHM_WORLD             FWHM assuming a gaussian core                              [deg]
#  11 ELONGATION             A_IMAGE/B_IMAGE                                           
#  12 ELLIPTICITY            1 - B_IMAGE/A_IMAGE                                       
         1 -11.7350     25.7471     55.7992   1.1587967287e+02   6.2124514470e+01     1.003729    0.7607442  -3.75   0.00677459    1.270    0.213
         2 -12.4356     60.6469     45.0610   9.8962729702e+01   5.9807099693e+01    0.8878793     0.449357 -34.97  0.004419078    1.897    0.473
         3 -11.4931    118.8898     58.3211   8.5615350875e+01   4.7080837547e+01     1.713582     1.177757 -69.91  0.007807583    2.328    0.570
         4 -12.1889    124.4178     27.6267   7.4642815641e+01   4.9947270964e+01    0.8228188    0.6478013  21.71  0.002650433    1.385    0.278
         5 -12.9318    120.1044     38.7368   7.9134695482e+01   4.9578917429e+01    0.7730537    0.5584244 -73.58  0.002618869    2.069    0.517
         6 -11.4854    183.2852     24.9020   6.3882807485e+01   3.6562201445e+01     0.634549    0.2721962  54.59  0.002503662    2.185    0.542
         7 -11.5523    178.4831     21.2038   6.3612518185e+01   3.8108596800e+01    0.5981572    0.3340756  40.12  0.002397824    2.378    0.580
         8 -10.8838    138.7131     32.7436   7.3263753176e+01   4.6124467047e+01    0.5713832    0.5088632 -47.40   0.00284364    1.252    0.201
         9 -12.6261    113.7602     24.4398   7.5985387716e+01   5.2622787910e+01    0.8709392    0.3381343  60.51  0.001468021    2.599    0.615
        10 -11.2649    139.9711     20.6675   6.9460943695e+01   4.7170114344e+01     1.341248    0.2690457  47.34  0.003912873    5.098    0.804
        11 -10.6239    145.4077     16.3552   6.7271252069e+01   4.6351969394e+01    0.4792489    0.2850513  75.55            0    1.690    0.408
        12 -11.5961    199.0871     28.3781   6.2700391083e+01   3.2460541366e+01    0.4182193    0.3762569 -14.11 0.0006874747    1.499    0.333
        13 -11.9003     69.0821     18.7958   8.6206382534e+01   6.1884073049e+01    0.7613949    0.5056093  43.40  0.004701761    1.421    0.296
        14 -11.9121     27.3430     28.0139   1.0574454074e+02   6.6499776644e+01    0.5263211    0.4781092  28.72  0.003990352    1.609    0.379
        15 -12.6477     15.6863     13.2805   1.0504661959e+02   6.9660919004e+01    0.9788981    0.5058731 -16.74  0.004001502    1.864    0.464
        16 -11.9069     22.5529     10.9962   1.0092139525e+02   6.9254202221e+01    0.4762107    0.2964234   2.19  0.002377904    1.412    0.292
        17 -11.5851     19.7269     22.9432   1.0712084983e+02   6.7976232278e+01     0.516064    0.2262202 -38.21  0.002940401    1.979    0.495
        18 -11.4349     91.0526     20.1195   8.0173505157e+01   5.7732353854e+01    0.5604501    0.4604319  22.11  0.003690583    1.096    0.088
        19 -11.2359     86.1281     13.7386   7.9186525898e+01   5.9312715283e+01     0.395387    0.2584035  12.45  0.001725174    1.656    0.396
        20 -10.8355     47.1096     18.6198   9.3909314327e+01   6.5313086124e+01    0.3483788    0.2472086   3.54  0.001458659    1.219    0.180
        21 -11.6805     36.1296     17.5112   9.7826636883e+01   6.6894760794e+01    0.6016682    0.3566215 -33.39  0.003367624    1.683    0.406
        22 -12.1120     49.0870     12.9580   9.0814545869e+01   6.5667863994e+01    0.5779855    0.3201424  43.85  0.003416923    1.891    0.471
        23 -12.4113    237.7426     15.2425   5.6009723057e+01   2.5467105270e+01    0.4712425    0.4289108  80.97  0.002462071    1.357    0.263
        24 -11.7146    243.9016     15.3409   5.5522513527e+01   2.4171780056e+01    0.2809656    0.2426389 -56.75  0.002033172    1.318    0.241
        25 -10.5852    122.8930     19.0832   7.2271506462e+01   5.1183331180e+01    0.6546872    0.3931872 -82.77  0.002865695    3.093    0.677
        26 -12.2578    132.0013     14.6251   6.9119203034e+01   4.9580027142e+01     1.227606    0.5276436  73.10  0.004270297    2.921    0.658
        27  -9.4898    141.4920     12.4811   6.6817933865e+01   4.7623261903e+01     0.176495    0.1585984 -47.43 0.0005754383    1.281    0.219
        28 -11.1892    165.1808     17.4228   6.4495781199e+01   4.1636584954e+01    0.4088803    0.2428128  40.83  0.001179746    1.982    0.495
        29  -9.7812    225.5641     16.2187   5.7269279747e+01   2.7957089482e+01    0.2313822     0.189409 -70.48  0.001325682    1.111    0.100
        30 -10.7500     42.4951     14.3220   9.3920367928e+01   6.6444327896e+01    0.3096524    0.1645466  36.15  0.001217277    1.760    0.432
        31 -11.5171    192.3483      7.8820   5.8780188268e+01   3.6300878317e+01    0.4956883    0.3408103  10.94  0.002206625    2.629    0.620
        32  -9.5380    186.2734      9.1118   5.9736454611e+01   3.7571663680e+01    0.4826373    0.1991304 -63.93  0.001874387    3.615    0.723
        33 -12.2053    104.7805     12.7535   7.4140748083e+01   5.5674880886e+01    0.4243327    0.3863358 -17.17  0.001605363    1.263    0.208
        34 -11.5723    211.7966      9.7875   5.7227967683e+01   3.1708875547e+01    0.3710953    0.3083712  -1.30   0.00120273    1.905    0.475
        35  99.0000     87.6641      7.6813   7.6538135701e+01   5.9562523004e+01    0.6271981    0.3099614  51.42  0.003381954    1.698    0.411
        36  -9.9511     31.7908     12.1067   9.7358998257e+01   6.8070216720e+01    0.1636581    0.1307497  20.68 0.0004787207    1.321    0.243
        37 -11.1196      3.1583      1.7981   1.0614590605e+02   7.2203188832e+01    0.3650853    0.1458619  17.84  0.002101679    2.522    0.603
        38 -10.4049      4.8744     10.1882   1.0893627539e+02   7.1002994483e+01    0.3234119    0.1746184 -20.63  0.002081122    1.533    0.348
        39  -9.3223      5.4145      5.5109   1.0666182198e+02   7.1559754209e+01    0.1741961    0.1148529 -27.23 0.0009793103    1.286    0.222
        40 -10.4682    169.1781      9.9415   6.2026493639e+01   4.1452120014e+01    0.3322844    0.1821259  50.77  0.001743043    1.789    0.441
        41 -10.6820     66.4395     10.3057   8.3700522603e+01   6.3193465194e+01    0.3517102    0.1740177  44.26  0.001927037    1.745    0.427
        42 -10.1204     63.1923      6.4365   8.3179474080e+01   6.4099980513e+01    0.2676779    0.1807884  35.42 0.0009920012    1.223    0.183
        43 -11.6486    246.1304      7.5608   5.3905460227e+01   2.4618443948e+01     0.384367    0.3245478 -77.31   0.00285156    1.205    0.170
        44 -11.4247    241.9716      3.9950   5.3557313057e+01   2.5869586645e+01    0.6846489    0.1879434  66.65   0.00305236    3.091    0.677
        45 -10.0136    162.9611      5.7541   6.1777889156e+01   4.3286470620e+01    0.2409315     0.189822  -6.68   0.00066771    1.704    0.413
        46  -9.7213    157.8407      2.6503   6.1655635635e+01   4.4741932151e+01    0.2207948    0.2030455  62.78 0.0009181527    1.159    0.137
        47  -9.6741    157.0164      8.5628   6.3330916048e+01   4.4406325189e+01     0.253449     0.120898 -46.25 0.0007831588    2.394    0.582
        48  -9.6348    151.8364      7.7295   6.3858592507e+01   4.5679209044e+01    0.3964674   0.07800363  56.14  0.001204928    3.447    0.710
        49  -9.9640      1.2970      7.2323   1.0947402738e+02   7.1666944445e+01     0.157577   0.07241962 -37.14 0.0002567155    1.798    0.444
        50 -10.7269     77.3514      5.2926   7.8434620238e+01   6.1711352941e+01    0.4252174    0.2441374 -19.88  0.002525935    1.889    0.471
        51 -10.8056    175.6392      5.1707   6.0037116437e+01   4.0408316193e+01    0.5761225     0.229918  79.65  0.002424782    2.681    0.627
        52 -10.6668     41.8593      4.0005   8.9718450841e+01   6.7618256817e+01    0.4001605    0.2049624   5.67  0.002030934    2.414    0.586
        53 -11.0030    218.6344      3.0599   5.5226535408e+01   3.0917062004e+01    0.2829243    0.2276973 -79.52 0.0009672752    1.067    0.063
        54 -11.4040    223.9691      1.7782   5.4527527034e+01   2.9896768084e+01    0.7200626    0.2820646 -86.78  0.003047388    3.132    0.681
        55 -11.2762    205.5646      2.7568   5.6329605425e+01   3.3829983310e+01    0.4272112    0.2627801  82.80  0.001329307    1.358    0.263
        56 -10.3751     71.3410      4.1296   7.9719758686e+01   6.2895125836e+01    0.3601194    0.1951786  28.95  0.002060392    1.705    0.414
        57 -10.4653    141.9655      3.3035   6.4122144726e+01   4.8321057075e+01    0.3480638    0.2298318  69.40  0.002012194    1.291    0.225
        58 -12.0412    133.6871      2.6337   6.5250844655e+01   5.0245193841e+01    0.3648615    0.2081589  57.51 0.0007288915    1.411    0.291
        59  -9.5819     55.0191      4.0439   8.4917049339e+01   6.5646484114e+01    0.1452461    0.1405758  75.79 0.0004509403    1.676    0.403
        60  -9.8033    123.0346      1.2999   6.6681238489e+01   5.2714421171e+01    0.5547841   0.09421173  63.93  0.001678645    5.008    0.800
        61 -11.0292    112.1870      2.0867   6.8982524763e+01   5.5003001380e+01    0.7019091    0.1838102  61.92   0.00268106    3.243    0.692
        62 -10.9460    105.3842      1.7348   7.0262769465e+01   5.6466219976e+01    0.4399426    0.1779573  64.59  0.001568584    2.422    0.587
        63  -9.7330     13.3213      2.1354   1.0126829288e+02   7.1242307425e+01    0.2683082    0.1337905   9.45   0.00161559    2.070    0.517
        64  -8.8298     29.2638      1.9536   9.3935055310e+01   6.9486762414e+01    0.1192428   0.07866043 -18.78 0.0003831101    1.378    0.274
        65  -9.5864     82.0834      1.3718   7.5642058274e+01   6.1144639926e+01    0.1709146   0.09443383  52.28 0.0004028825    1.545    0.353
        66 -11.8546     29.8543    132.8613   1.3143874862e+02   4.5130135560e+01    0.6062765    0.3667292 -86.06 0.0004088354    1.847    0.459
        67  -9.4479     26.7154    139.6825   1.3333301287e+02   4.3785241474e+01     0.172278    0.1328762  85.36  0.000241762    1.315    0.240
        68 -12.0735     22.6882    135.4249   1.3380964687e+02   4.5156796021e+01    0.7313113    0.3790199  43.98  0.003724433    2.236    0.553
        69 -10.7312     46.5749    134.5426   1.2699732159e+02   4.3008830111e+01    0.4274434    0.3656694  85.83  0.002561838    1.223    0.182
        70 -10.9573     69.4892    134.6799   1.2047843702e+02   4.0066403796e+01    0.4561238    0.2538612  36.38  0.002071664    1.943    0.485
        71 -10.1614     82.2543    134.8811   1.1688145551e+02   3.8112528785e+01    0.3270839    0.2410307   9.13  0.001557471    1.827    0.453
        72 -10.9159     92.5968    129.7943   1.1282688482e+02   3.7647529159e+01    0.5189505    0.3340578 -49.29  0.001800167    1.465    0.318
        73 -10.7469     10.6004    127.3225   1.3598326092e+02   4.8005756675e+01     0.472114    0.1401139 -54.85  0.001798844    2.486    0.598
        74 -10.1815     18.5806    124.7195   1.3336169111e+02   4.8020227841e+01    0.4131821    0.1238248 -56.80  0.001590909    2.410    0.585
        75  -9.7406      2.2628    125.8256   1.3807316027e+02   4.8902921109e+01    0.2393658    0.1557302  87.48   0.00142329    1.580    0.367
        76  -9.9470    239.6742    125.0048   7.8663768756e+01   7.9146018517e+00    0.2408345   0.09102531 -55.71 0.0007050829    4.323    0.769
        77 -10.1022     83.6272    124.2202   1.1414170379e+02   4.0458447410e+01    0.4568574    0.2744089 -13.80  0.001612519    3.442    0.710
        78  -9.7856     79.4575    124.5272   1.1543123635e+02   4.1041046512e+01    0.2595084    0.2310897  89.36 0.0007182577    1.229    0.187
        79 -11.0100     55.5054    123.1602   1.2224217875e+02   4.4694426086e+01    0.5776234    0.3444805  25.52  0.002162656    1.973    0.493
        80 -11.6132    104.5815    121.5276   1.0748045767e+02   3.7465149566e+01    0.5150744     0.431917 -52.71  0.001364855    1.152    0.132
        81 -10.4072     45.7633    120.6048   1.2465407876e+02   4.6438864200e+01     0.344616    0.2436922  88.46  0.001403984    1.772    0.436
        82  -9.6304      4.2929    121.2977   1.3690859302e+02   4.9816720656e+01    0.2510643    0.1729757  76.14  0.001113296    1.665    0.399
        83  -9.4732    221.2060    120.4384   8.0687171183e+01   1.2501231267e+01    0.1916896    0.1399854  70.96 0.0006168931    1.620    0.383
        84  -9.4272     72.8660    119.8135   1.1632392988e+02   4.3150118584e+01    0.2141818    0.1836242 -25.27 0.0005662931    1.244    0.196
        85 -10.7538     34.1574    119.1656   1.2786982491e+02   4.7972521508e+01    0.2347145    0.1773461 -68.96 0.0008664083    1.203    0.169
        86  -9.3397    148.4539    119.5363   9.5428440305e+01   2.8864584691e+01    0.1549097     0.152821 -37.80 4.124294e-05    1.042    0.040
        87  -9.5812    113.8470    115.9178   1.0349014404e+02   3.6976146434e+01    0.2276781     0.204611 -18.54 0.0003735106    1.198    0.165
        88 -10.5023     67.0797    111.8845   1.1626559348e+02   4.5826444314e+01    0.5260375    0.2852943 -58.49  0.002357464    1.783    0.439
        89 -12.3830     35.2216     92.4705   1.2205769927e+02   5.3923758027e+01     1.697473     1.229883 -87.75  0.008213028    1.939    0.484
        90 -11.8615     18.8115    106.1257   1.3020161999e+02   5.2285827985e+01    0.4484491    0.2160908 -43.77 0.0002547219    1.865    0.464
        91 -12.0311      9.4056     96.2806   1.3140751357e+02   5.5124478981e+01    0.9209152     0.623903  82.99  0.005359915    1.970    0.492
        92 -12.1057      7.6066     88.9355   1.3062915804e+02   5.6825907644e+01    0.4778207    0.4181934 -42.12  0.001248596    1.133    0.117
        93 -11.6933     44.0832     85.4581   1.1732244733e+02   5.4513692906e+01    0.9717575    0.5680501  50.10  0.004696596    2.521    0.603
        94 -11.2272     37.6309     85.8607   1.1965841978e+02   5.5103313346e+01    0.3161775    0.3037102 -62.18  0.001480778    1.226    0.184
        95 -11.8187     28.3674    112.9708   1.2849154712e+02   4.9944896294e+01    0.6636747    0.3512444  19.61  0.003361374    2.334    0.571
        96 -11.1204     21.3799    114.3147   1.3085433872e+02   5.0218071207e+01    0.3441089    0.2465279  -9.30  0.001072263    1.755    0.430
        97 -12.8057     25.5429    107.5214   1.2835289139e+02   5.1435645933e+01     1.058457    0.5782875 -37.21  0.005219217    1.870    0.465
        98 -12.6919     18.0033     90.4290   1.2743044328e+02   5.5815508303e+01    0.4853907    0.2969876 -38.81 0.0005081302    1.454    0.312
        99 -11.9007     18.9888     96.0030   1.2823060080e+02   5.4529271184e+01    0.4869003    0.3765937  77.59  0.002573791    1.695    0.410
       100 -11.2271     23.2246     94.8100   1.2658970797e+02   5.4464896696e+01     0.302711    0.2279808 -71.29  0.001285018    1.364    0.267
       101  -9.8023      7.0322    114.3074   1.3511902554e+02   5.1241874492e+01     0.221684     0.203132  34.66  0.001604636    1.363    0.266
       102 -11.3754      2.4555    112.1303   1.3613599472e+02   5.2013057552e+01    0.3381588    0.2114233 -64.48 0.0007778167    1.230    0.187
       103 -12.0708      3.9314    105.3090   1.3465747677e+02   5.3457819030e+01    0.4082969    0.3307055 -69.07  0.001049181    1.112    0.101
       104 -10.3826    107.9263    112.4767   1.0426137074e+02   3.8900807123e+01    0.4634969    0.3195183  88.58  0.001562073    2.458    0.593
       105 -10.8796    102.8744    107.9717   1.0453193910e+02   4.0860455686e+01    0.6065349    0.4286518 -31.61   0.00122147    1.538    0.350
       106 -11.2450     79.9636    108.8445   1.1157182358e+02   4.4612971982e+01    0.6488592    0.4424673  49.85   0.00309792    1.701    0.412
       107 -11.0286     87.6834    104.4522   1.0810327570e+02   4.4340262626e+01    0.8181227    0.3324522  31.86  0.002560306    2.960    0.662
       108 -10.6395    170.2420    110.2461   8.8066537822e+01   2.5881808331e+01    0.4328866      0.39488 -39.88   0.00160693    1.116    0.104
       109 -10.0514    175.3527    107.5070   8.6287144017e+01   2.5255494506e+01    0.3559622    0.2476705 -33.86  0.001480853    1.547    0.354
       110  -9.7975     93.7935    111.3548   1.0805309457e+02   4.1745740628e+01    0.3262995     0.242688 -81.82  0.001510135    1.842    0.457
       111  -9.7976     48.9860    112.0632   1.2192667679e+02   4.8077388008e+01    0.2389151      0.19669  28.23  0.001121489    1.378    0.274
       112  -9.7336    120.0961    109.1283   1.0001447971e+02   3.7226984721e+01    0.2356605    0.2077813 -11.75 0.0006299188    1.260    0.207
       113 -10.2180    157.7441    106.0648   8.9775597960e+01   2.9614553802e+01    0.3226065    0.2636893 -12.65  0.001015354    1.526    0.345
       114  -9.6029    130.3136    107.6572   9.6907516570e+01   3.5401424572e+01    0.1590227    0.1232713 -85.69 0.0007047146    1.706    0.414
       115 -10.1190    143.3672    105.9696   9.3158213826e+01   3.2896773734e+01    0.3254368    0.3047239  -9.56  0.001046809    1.161    0.139
       116 -10.8164    145.9793    100.0781   9.0952794095e+01   3.3519812316e+01    0.4856414    0.3727313 -20.38    0.0022652    1.586    0.369
       117 -11.7916     48.2317    103.1838   1.2021361682e+02   5.0192508852e+01    0.5028926     0.279545 -25.73 0.0003451971    2.411    0.585
       118  -9.9288     52.6034     96.2296   1.1714440040e+02   5.1227205752e+01    0.3561966    0.1675713 -48.90  0.001319751    1.828    0.453
       119  -9.2797     82.0692    102.7418   1.0937326028e+02   4.5643375473e+01    0.1954559    0.1832873 -21.96 0.0005013666    1.042    0.040
       120 -10.2894     57.3314    101.9933   1.1700119433e+02   4.9368747384e+01    0.2994423    0.1867412 -51.46 0.0006987822    1.420    0.296
       121 -10.4286     57.4953     97.9484   1.1596254077e+02   5.0245207148e+01    0.2842272    0.2283491 -76.02  0.001464645    1.502    0.334
       122  -9.3812    120.5140    101.4926   9.7852216022e+01   3.8777983746e+01      0.15052    0.1470112 -13.60 0.0008103685    1.024    0.023
       123 -11.7435     67.9675     96.8286   1.1228097730e+02   4.9079707427e+01    0.5816941    0.3633739 -43.10 0.0006992224    1.466    0.318
       124  -9.3042     95.9890    100.0254   1.0443122105e+02   4.3858499508e+01    0.2172417    0.1703151  -5.49            0    1.541    0.351
       125  -9.5307     92.9350     85.6535   1.0131637128e+02   4.7386911928e+01    0.3166422    0.1925878  41.38  0.001188871    1.686    0.407
       126 -10.4500     78.0092     97.0099   1.0912879164e+02   4.7539295874e+01    0.3228891    0.2091159 -55.39  0.001555442    1.579    0.367
       127 -11.1768     81.1305     92.6998   1.0697678392e+02   4.7960544711e+01    0.6672083    0.6014495  40.78   0.00386091    1.210    0.173
       128 -11.1860     89.4159     89.9941   1.0364022614e+02   4.7131406967e+01    0.4487472    0.2951137 -36.02   0.00101199    1.509    0.337
       129 -10.0340     66.8072     74.0950   1.0630620750e+02   5.3904776425e+01    0.4290532    0.2542473 -58.04  0.002011355    2.159    0.537
       130 -11.1015     79.4493     82.7176   1.0468191353e+02   5.0276304879e+01     0.628216    0.5420584 -87.25  0.002900553    1.581    0.367
       131 -11.0174     66.6986     81.8252   1.0860917655e+02   5.2403412868e+01    0.4385282    0.3139159  26.17  0.002391521    1.469    0.319
       132 -11.3226     73.5170     77.4257   1.0505523786e+02   5.2254801857e+01    0.6291273    0.4382401  -6.07  0.003180386    1.752    0.429
       133  -9.4440    210.3105     98.0422   7.7400418837e+01   1.9067241783e+01     0.214956    0.1841343 -54.91  0.001169525    1.081    0.075
       134  -9.0918    140.4760     96.5025   9.1322985526e+01   3.5480801141e+01    0.1513638    0.1483318  12.84 8.652833e-05    1.056    0.053
       135  -9.6759    138.1360     93.2960   9.1020044946e+01   3.6642153139e+01    0.3730949    0.2358626  26.96  0.001041272    2.156    0.536
       136 -10.3722    117.3057     93.0073   9.6374949082e+01   4.1192484779e+01    0.4445496    0.2355425  32.05  0.001199237    2.336    0.572
       137 -10.2231    126.3451     93.1314   9.3983156717e+01   3.9262804280e+01    0.3790259    0.3185056  33.66  0.001062108    1.225    0.183
       138 -10.9739    122.4889     93.5271   9.5116831602e+01   4.0005099865e+01    0.2948586     0.238731 -32.97 0.0008048512    1.268    0.211
       139 -11.3416    102.3368     90.3564   9.9864377006e+01   4.4702082679e+01    0.5495616    0.4644284 -31.50 0.0009178804    1.167    0.143
       140  -9.3793    160.5229     93.5134   8.5851561770e+01   3.1462162404e+01    0.2729492    0.1467253  63.45  0.001030878    2.258    0.557
       141  -9.9582    152.4812     92.1780   8.7296538416e+01   3.3590239415e+01    0.2970506    0.2680946 -49.70    0.0011838    1.114    0.102
       142  -9.9146    183.6686     86.5959   7.9344469323e+01   2.7298499429e+01    0.4853188    0.1820507 -47.31  0.001677871    2.745    0.636
       143 -10.2366    104.6709     76.5603   9.5128195865e+01   4.6920088319e+01    0.4038894    0.3400025 -27.22  0.001899531    1.189    0.159
       144 -10.8172    113.4552     83.4428   9.4689678904e+01   4.3864779386e+01    0.6324462    0.3429945 -33.14  0.002388569    2.041    0.510
       145 -11.2744    109.3030     80.4447   9.4968943920e+01   4.5275842835e+01    0.3358859     0.306189   7.58 0.0009955004    1.103    0.094
       146  -9.4525     67.3478     88.0962   1.1015104610e+02   5.1026944747e+01    0.2278568    0.1495448 -33.70  0.001149116    1.492    0.330
       147  -9.2584    212.2249     87.5333   7.4638092893e+01   2.0525308243e+01    0.1878172    0.1330215  47.27 0.0005661827    1.601    0.375
       148 -11.2512    143.3322     84.0909   8.7200042580e+01   3.7227029344e+01    0.3517185    0.3220196  -7.79  0.001893151    1.208    0.172
       149 -10.8734    120.4232     85.1638   9.3288457150e+01   4.2085305706e+01    0.4462458    0.2134637  46.04  0.001770051    2.069    0.517
       150 -10.2662    165.6129     83.2841   8.2044451412e+01   3.2170566176e+01    0.3378383    0.2867766 -60.77  0.001652941    1.202    0.168
       151 -10.3806    127.6205     83.5181   9.0919541718e+01   4.0851585795e+01    0.2983528    0.2458673  25.27  0.001526578    1.317    0.241
       152  -9.6652     60.1522     83.1938   1.1120248806e+02   5.3033088769e+01    0.2117379    0.1706628 -21.03  0.001231599    1.192    0.161
       153 -11.8788     52.7966     75.7156   1.1163355452e+02   5.5481979260e+01    0.8089943    0.3531894 -49.18  0.003643514    2.089    0.521
       154 -10.7267     58.6943     78.3478   1.1033347937e+02   5.4203680059e+01    0.2903976    0.2528821  32.40 0.0008925473    1.290    0.225
       155 -10.1009     20.5224     71.6995   1.2226241382e+02   5.9524061296e+01    0.2669562    0.1703481   0.22  0.001046685    1.771    0.435
       156 -11.8000     14.1571     74.4395   1.2526566344e+02   5.9435629259e+01    0.4609047    0.2910703 -52.95  0.001549677    1.283    0.221
       157  -9.8396      9.4276     76.0785   1.2735039206e+02   5.9409464581e+01    0.1900395    0.1255522 -37.30  0.000445528    1.274    0.215
       158 -11.7803      1.9334     71.3860   1.2904040538e+02   6.0790346589e+01    0.5693946    0.1457085 -59.81  0.002437271    2.858    0.650
       159 -12.1777      6.1791     62.3819   1.2536379307e+02   6.2328843541e+01    0.7201424    0.3071299 -38.87  0.003877957    1.903    0.475
       160 -11.0321     14.2344     66.4237   1.2329042998e+02   6.1027333396e+01    0.3111811    0.2327335 -58.08 0.0009866292    1.325    0.245
       161 -11.4039     12.7659     62.1436   1.2275574447e+02   6.1956431434e+01    0.2380592    0.1625716 -14.53 0.0003552973    1.446    0.309
       162 -10.2970     98.0665     63.1139   9.2874913210e+01   5.0565122415e+01    0.4097213    0.2503066  20.00  0.001821355    2.171    0.539
       163 -10.6598     93.8034     76.3327   9.8280100820e+01   4.9027909387e+01    0.5130134    0.3685878  25.08  0.001702667    1.481    0.325
       164 -11.6070     85.5776     73.5904   9.9991593636e+01   5.1003676031e+01    0.9389026    0.6574447 -46.71  0.004896137    1.484    0.326
       165 -11.3133     78.7890     67.3186   1.0021373174e+02   5.3293123861e+01     1.113505    0.6249169 -56.56  0.004843403    2.570    0.611
       166 -10.9402     81.8438     49.3339   9.3282333198e+01   5.5737198048e+01    0.9628519    0.3761344 -28.78  0.003695333    3.180    0.686
       167 -11.1215     91.4429     62.4471   9.4649756043e+01   5.1923039863e+01    0.4589791    0.3948535  58.02  0.001645711    1.395    0.283
       168 -10.7464     91.4725     57.9324   9.3171232073e+01   5.2659257095e+01    0.3287094    0.2712157  44.80  0.001213441    1.265    0.209
       169 -10.8050     87.6133     56.9505   9.4033994727e+01   5.3523644094e+01    0.5583157    0.2565135 -30.28  0.001871444    2.444    0.591
       170 -11.6704     74.5749     52.8133   9.6841353941e+01   5.6434104257e+01      0.60618    0.3144236 -43.19  0.002689564    2.047    0.511
       171 -10.4880     72.6853     47.0657   9.5491063512e+01   5.7632601824e+01    0.7263317    0.5085447 -46.01  0.004098235    1.704    0.413
       172  -9.3545      5.0527     78.3387   1.2939392100e+02   5.9203552761e+01    0.1511476    0.1296393 -39.46 0.0004849689    1.124    0.111
       173  -9.1075    134.4578     77.4532   8.7448916332e+01   4.0449817702e+01    0.1454427    0.1411549  66.50 7.851278e-05    1.042    0.040
       174  -9.5972    126.8601     76.8526   8.9176629516e+01   4.2242864953e+01    0.2145149    0.1951253  14.54 0.0003296389    1.150    0.130
       175  -9.7061    242.3316     76.6566   6.7970543987e+01   1.5838528501e+01    0.1450432   0.08896566 -68.70 0.0007050777    1.754    0.430
       176 -11.8807    186.5225     70.5171   7.4769923725e+01   2.9398036981e+01    0.7310627    0.5728219 -43.32  0.003111797    1.295    0.228
       177  -8.9334    151.4624     73.5162   8.2388803494e+01   3.7227980670e+01    0.1459712    0.1398028  47.52 6.351434e-05    1.057    0.054
       178 -11.9570    122.8881     68.8620   8.7818277975e+01   4.4503809155e+01    0.5887969    0.4418727  53.12  0.001713519    1.325    0.245
       179  -9.3314     60.9970     72.9591   1.0795978914e+02   5.4945143546e+01    0.1828187    0.1631707  73.95 0.0005117298    1.580    0.367
       180  -9.8801    161.8118     70.4471   7.9366580864e+01   3.5300869830e+01    0.2884359    0.2235633 -79.22    0.0011142    1.498    0.333
       181 -10.1607    171.9892     67.6594   7.6640542210e+01   3.3331319440e+01    0.4193961    0.2790318 -52.02  0.002016617    1.567    0.362
       182 -11.3013    219.7292     66.5004   6.8717700068e+01   2.2352168778e+01    0.5677854    0.3097348  67.82  0.002279395    1.874    0.466
       183  -9.5658    208.4355     68.0451   7.0672925737e+01   2.4669125559e+01     0.230597    0.1851252  58.44 0.0008079485    1.305    0.233
       184 -11.3852     40.9507     70.9185   1.1451461335e+02   5.7794075402e+01    0.5510087    0.2746383 -52.76  0.002733636    1.904    0.475
       185  -8.7125     69.7170     66.7168   1.0304386476e+02   5.4843248933e+01    0.1319006   0.09498861  -8.42 0.0001805984    1.518    0.341
       186 -10.9948     58.4630     61.9087   1.0543272104e+02   5.7333775850e+01    0.4808533    0.3760376 -52.27  0.002864462    1.504    0.335
       187 -10.3439    142.9432    249.3161   1.2187564096e+02   1.9033556444e+00    0.1953487    0.1533219  41.00  0.001171316    1.101    0.092
       188  -9.9609     51.5879     47.8955   1.0327840165e+02   6.0627957723e+01    0.2864569    0.2136141  30.63  0.001426554    1.405    0.288
       189 -11.2206     34.1834     43.3348   1.0846940883e+02   6.3441483589e+01    0.5263456    0.3526093 -15.99  0.002822179    1.358    0.264
       190 -10.9411     20.9840     47.2816   1.1517630407e+02   6.4043619030e+01    0.5189505    0.2765291 -22.67  0.002903413    1.876    0.467
       191 -10.2480     26.0250     47.9819   1.1333468084e+02   6.3478020120e+01    0.2445085    0.1661465 -24.94 0.0003829837    1.234    0.190
       192 -12.4133     49.5691     60.3429   1.0816155973e+02   5.8773857952e+01    0.6544238    0.5449733  62.60  0.001600535    1.880    0.468
       193 -11.4912     40.2705     55.8772   1.1023833329e+02   6.0659228263e+01    0.4055551    0.3770632  76.66  0.002633411    1.649    0.393
       194  -9.1445    213.3433    248.3173   1.0774725698e+02  -9.2846641708e+00    0.1307472   0.08552322   4.45 0.0007048841    1.717    0.417
       195 -11.4402     46.1035     49.0466   1.0574792716e+02   6.1140314403e+01    0.4468854     0.290267   7.42  0.001549546    1.623    0.384
       196 -11.7923     42.1846     45.2173   1.0594371833e+02   6.2236182960e+01    0.4467663    0.2861228  17.98 0.0008904468    1.550    0.355
       197  -9.9277     21.4327     65.1415   1.2021543232e+02   6.0739563197e+01    0.2004294    0.1782532 -88.97  0.001178667    1.599    0.375
       198  -9.3547     25.8982     65.2675   1.1854793313e+02   6.0344307683e+01    0.2274363    0.1509652 -20.63 0.0004315073    1.455    0.313
       199 -10.2159    106.2417     62.9128   9.0457419865e+01   4.8987604972e+01    0.3158433    0.2331373 -34.55  0.001672207    1.388    0.280
       200  -9.1736    205.2910     63.1772   6.9993926620e+01   2.6165575451e+01    0.2563119    0.1683882  21.09   0.00103597    3.233    0.691
       201 -10.5163    159.3385     61.6439   7.7450987217e+01   3.7308583085e+01    0.4478298    0.2510598  45.49  0.001978789    1.834    0.455
       202  -9.4360    175.3148    246.6429   1.1494063207e+02  -3.0121924465e+00    0.1268593   0.09917542  68.79 0.0001611378    1.746    0.427
       203 -11.4057    127.4954    242.7261   1.2412774576e+02   5.6958183360e+00    0.4090451    0.2520897 -70.67  0.002065944    2.063    0.515
       204 -11.0924    113.5829     49.6203   8.4232166607e+01   4.9514362882e+01    0.6266486    0.3513988  30.10  0.002446354    2.165    0.538
       205 -12.7228    116.6869     42.7096   8.1229252704e+01   4.9805441827e+01     0.931367    0.6185325  81.07  0.004312824    2.389    0.581
       206  -9.9466    199.0477    244.5231   1.0988765994e+02  -6.5033755004e+00    0.1989917    0.1117788  36.58  0.001030577    1.589    0.371
       207 -11.7290     32.2776     72.0217   1.1800289481e+02   5.8452211375e+01    0.5789794    0.2522228  30.66  0.002618491    2.534    0.605
       208 -10.8096    136.4941     56.2900   8.0751733906e+01   4.3474117992e+01     0.507827    0.3728186   0.83  0.001767024    1.842    0.457
       209 -11.4283    145.5470     48.1743   7.6418999740e+01   4.2552486775e+01    0.9107927    0.4464177 -23.90  0.003713234    2.730    0.634
       210 -10.6498    133.5322     50.3277   7.9634570365e+01   4.5022074970e+01    0.3950841    0.2744757  71.24  0.001659726    1.642    0.391
       211  -9.4363      1.9499     56.4075   1.2552655167e+02   6.3705982891e+01    0.1450012    0.1011082   1.46 0.0005103871    1.546    0.353
       212  -9.3512    187.5410     55.2981   7.0785621684e+01   3.1538377043e+01    0.2549325    0.1174333  61.44  0.001071533    2.041    0.510
       213  -9.9986     66.9440     54.7852   1.0010347289e+02   5.7324504461e+01    0.2286344    0.1818378 -37.77 0.0006789775    1.300    0.231
       214 -10.2183     18.6328     41.4953   1.1428767309e+02   6.5221293223e+01    0.2949843    0.2114006   0.46  0.002039979    1.316    0.240
       215 -11.0633    240.0398     50.4734   6.2801694680e+01   2.0351351726e+01    0.3103665    0.2780628 -51.42 0.0008030098    1.274    0.215
       216 -10.5982    249.0825     53.0440   6.2360657700e+01   1.8093840473e+01    0.2764096    0.1717701 -69.16  0.001532081    1.520    0.342
       217  -9.1218    210.4926     53.0027   6.6903627963e+01   2.6508247615e+01    0.1951897    0.1276731 -40.79 0.0007423529    1.545    0.353
       218  -9.4754    105.0098     52.6374   8.7502323144e+01   5.0850434332e+01    0.2400588    0.1784882   3.01 0.0009129685    1.573    0.364
       219 -11.2893     60.8100     36.3493   9.5743915859e+01   6.1051127144e+01    0.3066899    0.1968516 -27.28 0.0009691711    1.494    0.331
       220 -10.8093    174.2799     48.3158   7.1154023135e+01   3.5710546723e+01    0.4584669    0.3028125  78.23  0.001433465    1.577    0.366
       221 -10.6201    202.0441     47.1357   6.6682722907e+01   2.9304979953e+01    0.4350227    0.2714798 -37.92  0.002244876    1.681    0.405
       222 -10.7433    139.7028     43.7525   7.6329914253e+01   4.4512259838e+01    0.5095236    0.1987105  48.48  0.001989223    2.356    0.575
       223  -9.7540     90.7546     48.2685   9.0159829561e+01   5.4278500144e+01     0.248101    0.2161332 -81.87  0.001003311    1.667    0.400
       224 -10.0566     13.2351     47.0592   1.1832076827e+02   6.4692059494e+01    0.4306925    0.1557198 -27.05  0.001765307    3.680    0.728
       225  -9.5830      2.4677     48.8387   1.2331678577e+02   6.5071927106e+01    0.2212043    0.1862552   9.90  0.001702982    1.408    0.290
       226 -10.0041      3.8887     44.1805   1.2139669157e+02   6.5817225422e+01    0.3498426    0.1604421 -20.95 0.0009413969    2.315    0.568
       227 -11.5125      4.1631     35.9238   1.1874725698e+02   6.7207815039e+01    0.3116854    0.1924417 -33.48 0.0004120938    1.220    0.180
       228  -9.6398      6.6468     30.7585   1.1591946207e+02   6.7879729983e+01    0.3405665    0.1531767   5.65  0.001854543    2.583    0.613
       229  -9.9980    195.0569     46.6785   6.7545913165e+01   3.1004049421e+01    0.5202457    0.2249524  87.51  0.001316535    6.925    0.856
       230 -10.0328    233.5309     45.3335   6.2448211220e+01   2.2476836605e+01    0.2441099    0.1471778  67.46 0.0008314816    1.614    0.380
       231 -11.5271    156.4154     52.5482   7.5502197144e+01   3.9370867727e+01    0.7801881    0.3887974 -48.83  0.003303187    2.283    0.562
       232 -10.4619    101.0811     43.7197   8.5639528599e+01   5.2919534232e+01    0.3333201    0.2581629 -70.31   0.00127205    1.977    0.494
       233 -11.1183     94.3562     41.3791   8.6743917357e+01   5.4561856457e+01    0.5304803    0.2659803  44.55  0.002174817    1.824    0.452
       234 -11.6445    156.3029     41.7450   7.2514093134e+01   4.0887243092e+01    0.3552303    0.3392997  85.67 0.0007675944    1.073    0.068
       235 -10.8177    153.3198     36.1520   7.1492258212e+01   4.2305259235e+01    0.2784222    0.2321431  78.57  0.000607418    1.159    0.137
       236 -10.9514    189.0376     42.3009   6.7345382326e+01   3.3025303288e+01    0.2596769    0.1860288 -41.84 0.0006253069    1.458    0.314
       237 -10.6450     69.7785     32.6321   9.1254653668e+01   6.0129912776e+01    0.5627036     0.235791  43.91  0.002243102    2.292    0.564
       238 -11.2377     81.5568     39.6217   8.9979386646e+01   5.7180370614e+01    0.5483851    0.3761725  44.75  0.002400999    1.446    0.308
       239 -10.8882     77.7114     34.4226   8.9323379040e+01   5.8548457226e+01    0.3859607    0.2097683  38.31  0.001204313    1.680    0.405
       240 -11.0015     82.1080     31.3495   8.6833058406e+01   5.8150780666e+01    0.6186407    0.3659541  41.89  0.003074891    1.524    0.344
       241 -10.2836    231.5846     39.5671   6.1460077568e+01   2.3696958568e+01     0.237679    0.1790117 -72.40 0.0004844829    1.131    0.116
       242  -8.9723     29.3543     40.2580   1.0937451582e+02   6.4437096185e+01    0.1197489   0.07389299 -11.20  0.000691551    1.612    0.379
       243 -10.8607    149.6470    237.8976   1.1885404571e+02   2.8549178390e+00     0.390309    0.2110605  31.65  0.001811818    1.891    0.471
       244 -10.9489    176.5185     36.9266   6.7855160045e+01   3.6701176916e+01    0.3429251    0.2871274 -38.24  0.001643415    1.330    0.248
       245 -10.2049    172.0563     33.0514   6.7539034576e+01   3.8246047637e+01    0.2801543    0.2228558  82.17 0.0009046375    1.161    0.138
       246 -10.5855    176.2973     29.9565   6.6112544447e+01   3.7615425593e+01    0.3735189    0.2519871  50.68  0.001467435    1.504    0.335
       247  -9.4268     15.1333    234.1021   1.4522579647e+02   2.3298542309e+01    0.1659191    0.1339515 -83.47  0.001213471    1.274    0.215
       248 -10.7611     22.7811     36.8758   1.1095109484e+02   6.5608017837e+01    0.3016362    0.2203399  37.36  0.001448851    1.873    0.466
       249  -9.7450    133.6133     37.3194   7.5679110052e+01   4.6737542217e+01    0.3552655    0.2369462 -80.20  0.001669163    2.290    0.563
       250  -9.6647    206.9596     37.0060   6.3711241903e+01   2.9548489742e+01    0.2072567    0.1719568 -83.26  0.000845324    1.033    0.032
       251  -9.4888    247.4488    231.4600   9.8518997981e+01  -1.1731939373e+01    0.1230536   0.09927106  -3.49  0.000100514    1.009    0.009
       252  -9.7405    162.5790     43.7807   7.1949296538e+01   3.9126342989e+01     0.262413    0.1796123  61.78   0.00102392    1.325    0.245
       253  -9.3689     98.7710     28.7484   8.1151823946e+01   5.5266140325e+01     0.447369    0.3581261  80.83  0.002103542    1.738    0.425
       254 -11.9959    105.6886     33.0613   8.0820280848e+01   5.3349394096e+01    0.7115751    0.4087824  10.51  0.001501483    2.772    0.639
       255  -9.3780     23.4943    231.5304   1.4353883400e+02   2.2922415409e+01    0.1198927   0.08893765  77.63  0.000809834    1.015    0.015
       256 -11.9992    105.9730     20.0788   7.6354501856e+01   5.4724146783e+01    0.2539348    0.2184688  -1.51 0.0003649175    1.242    0.195
       257 -11.5776    159.9326     30.1382   6.8691799355e+01   4.1468937236e+01    0.4902663    0.3107325 -49.49 0.0004498485    1.737    0.424
       258 -11.1913    164.0131     27.4520   6.7314286373e+01   4.0816363017e+01    0.2779392    0.2474754 -65.69  0.000398464    1.177    0.151
       259 -10.6233    144.4037     25.2677   7.0000029270e+01   4.5659298906e+01     1.155595    0.3658519  61.92  0.004387224    2.774    0.640
       260  -9.8183    158.4813     20.4434   6.6298308362e+01   4.2891230928e+01    0.6517559    0.1507564  64.86  0.002124877    3.835    0.739
       261 -11.0575    147.5486     31.6815   7.1273367430e+01   4.4199685244e+01    0.2599398    0.2350724  63.66 0.0003998367    1.023    0.023
       262  -8.8157    190.2964    229.6949   1.0914435150e+02  -2.6231747951e+00     0.123995    0.1053424  69.77 0.0003325372    1.584    0.369
       263  -9.1021    181.2917    228.3220   1.1074931207e+02  -8.4921014166e-01    0.1352424    0.1008045  -0.13 0.0003792619    1.609    0.379
       264 -10.5580    152.5634     26.9422   6.9046422334e+01   4.3570814734e+01    0.4620835    0.2823699  21.94  0.001662257    2.590    0.614
       265 -10.1983    156.6077     25.1738   6.7882745430e+01   4.2818885980e+01    0.3971703    0.2194915 -54.19 0.0003811658    2.190    0.543
       266 -10.7799    240.5572     31.4632   5.8924058411e+01   2.2859902812e+01    0.3305087    0.2479501 -34.63   0.00148284    1.616    0.381
       267 -10.3594    189.1458     28.0328   6.3870154137e+01   3.4818218869e+01    0.3286037     0.275145   4.12  0.001972442    1.718    0.418
       268  -8.9718      9.3281    227.3096   1.4581675584e+02   2.5310289901e+01    0.1025851   0.08003004 -58.86 0.0002737491    1.662    0.398
       269  -9.6563    182.8091     32.1148   6.5723045503e+01   3.5812967131e+01    0.2067026    0.1627698 -81.66 0.0005309096    1.217    0.178
       270  -9.8145    234.4877    222.5292   9.9268027494e+01  -8.5167940260e+00     0.128784    0.1075737  -2.26 8.392515e-05    1.021    0.021
       271  -9.9446     59.8417     24.5020   9.1572798550e+01   6.2735835797e+01    0.3819882    0.1776938 -42.89  0.001836131    2.876    0.652
       272 -10.8192     56.3356     30.9092   9.5313629116e+01   6.2455341793e+01    0.2949948    0.2120982  28.86  0.001029275    1.291    0.225
       273 -11.8758     48.4416     30.5298   9.8126746358e+01   6.3621263899e+01    0.8050761    0.2716414  34.14  0.003226828    2.907    0.656
       274  -9.5470      9.6974    217.6747   1.4510169206e+02   2.7313852043e+01    0.1070532   0.07886721 -58.90  0.000675709    1.640    0.390
       275  -9.2833    165.6838    212.3664   1.1127437226e+02   4.9335044308e+00    0.1444389    0.1115839  78.66 0.0007038703    1.775    0.436
       276  -9.6180    152.9358    207.9377   1.1328079892e+02   8.1798493711e+00    0.2318198    0.1749357  74.25  0.001132259    1.696    0.410
       277  -9.5237    238.6531    204.4649   9.5131733509e+01  -6.2329079073e+00     0.229904    0.1119025 -38.29 0.0009256758    1.911    0.477
       278 -10.8512     14.9971     22.5149   1.0909504657e+02   6.8467779302e+01    0.2463619    0.1622095   6.01 0.0006708252    1.367    0.268
       279  -9.0805    221.5378     29.4813   6.0407983672e+01   2.7228649443e+01     0.128685    0.1034701 -79.81 0.0002751865    1.022    0.021
       280  -9.8892    230.0809     27.1250   5.9056010021e+01   2.5654514120e+01    0.2097189    0.1637715 -53.17 0.0009546023    1.251    0.201
       281 -10.3230    250.5269     25.4713   5.6882643073e+01   2.1567306230e+01    0.2311635    0.1030332 -40.42  0.001194172    2.114    0.527
       282 -10.7662    214.7022     23.2941   5.9807356026e+01   2.9517602067e+01    0.3862552    0.2987041 -24.24  0.002370056    1.746    0.427
       283 -10.8243    242.0175     22.3621   5.7016977011e+01   2.3711088353e+01    0.1852544    0.1588944 -52.17 0.0009198961    1.328    0.247
       284  -9.8726    180.7153     16.3093   6.2120550617e+01   3.8117044462e+01    0.1919889    0.1515809 -89.53 0.0002781285    1.129    0.114
       285 -10.0049      4.3167    204.9006   1.4521946830e+02   3.0599763402e+01    0.2242814    0.1208911 -66.28  0.001323707    1.667    0.400
       286 -10.6738     82.1774     19.1938   8.2330652842e+01   5.9514964098e+01    0.4729244    0.1521274  46.12  0.001473616    2.586    0.613
       287  -9.8156    245.3816    200.8017   9.3220120071e+01  -6.6660350156e+00    0.1829582    0.1075472 -28.47 0.0004919323    1.607    0.378
       288 -10.8049      5.5615    198.2195   1.4448346758e+02   3.1964709513e+01    0.3606184   0.09651796 -76.75  0.001441379    3.172    0.685
       289  -8.7091      1.2921    199.6758   1.4543086001e+02   3.2020757431e+01    0.1227083   0.06751987  72.40  0.000701613    1.615    0.381
       290  -9.8787    233.9568    196.8368   9.4521391315e+01  -4.1925278778e+00    0.2418162    0.1796428 -32.96  0.001004378    1.238    0.193
       291  -9.9220    221.0964     19.1065   5.8281102895e+01   2.8596015430e+01    0.2030661    0.1479352 -65.86  0.001277823    1.203    0.169
       292  -9.7554     16.9313    192.1057   1.4165788626e+02   3.2282836034e+01    0.1843419    0.1441371 -85.77 0.0004806114    1.050    0.048
       293 -12.0967      4.8543    184.6317   1.4354867015e+02   3.5089916174e+01    0.6336464     0.435833  77.92  0.004114714    1.249    0.199
       294  -9.8696    169.8517    191.2021   1.0643062702e+02   8.4822985584e+00    0.4003204    0.1939107  29.17  0.001158322    2.732    0.634
       295  -9.1629    239.9584    185.0000   9.1100473667e+01  -3.1135769298e+00    0.2007533   0.07595447  41.73 0.0007916343    2.868    0.651
       296  -9.2952     28.3135    176.3175   1.3758040922e+02   3.4837040145e+01    0.1252765   0.08716816 -48.05 0.0004160925    1.646    0.393
       297  -9.4080    247.6683    173.6789   8.7487805168e+01  -2.3942984762e+00    0.1377622   0.09753815  -7.05 0.0007049309    1.697    0.411
       298  -9.0842      1.4818     20.5577   1.1468349883e+02   6.9796176299e+01    0.1078644   0.07637928 -20.98  0.000328437    1.016    0.016
       299  -9.7052    114.8759     17.6409   7.3507447779e+01   5.3075780113e+01    0.3901074    0.1565513  40.13  0.001659679    2.560    0.609
       300  -9.6352     51.7002    173.3401   1.3165570138e+02   3.2908356937e+01    0.1427225   0.09302496  75.86 0.0003772498    1.667    0.400
       301  -9.8602    191.3393     16.7828   6.0940222147e+01   3.5596970793e+01    0.2254062     0.200477  16.10  0.001469395    1.568    0.362
       302 -10.1668     39.3469    173.0684   1.3460570796e+02   3.4433648318e+01    0.1980563    0.1492161 -78.08  0.001161867    1.123    0.109
       303 -10.4846    186.3988     15.1942   6.1153115860e+01   3.6913063577e+01     0.242193    0.1897133  76.89 0.0006222898    1.080    0.074
       304 -10.0096     35.7967    169.7885   1.3505069632e+02   3.5615267427e+01    0.1902201    0.1365571  78.72  0.001082375    1.356    0.263
       305 -11.5725      9.8438    165.8673   1.4073527000e+02   3.9011467321e+01    0.5552665    0.3612515 -65.40  0.002900671    1.299    0.230
       306 -11.1417     13.8582    157.8771   1.3894181034e+02   4.0560000395e+01    0.4149425    0.1827092 -74.94  0.001217576    1.900    0.474
       307  -9.4718    198.0401    167.7147   9.5563827794e+01   7.8206525423e+00    0.2036804    0.1921495  17.81 0.0006099361    1.080    0.074
       308  -8.8613    149.4964    168.5049   1.0650469085e+02   1.7521134086e+01    0.1538433    0.1493673  83.87 8.207394e-07    1.027    0.027
       309 -10.2017     18.9103    165.2503   1.3855253318e+02   3.8373929340e+01    0.2540902    0.2224957 -42.04  0.001365838    1.406    0.289
       310  -9.9091    205.1439    163.2262   9.3163549148e+01   7.3228454181e+00    0.2477647    0.2315005 -15.02 0.0006433629    1.062    0.058
       311  -9.5578    188.8896    164.0641   9.6685969567e+01   1.0418448430e+01    0.2400328    0.1847517  -5.17  0.001079827    1.671    0.402
       312 -10.0026     28.2877    162.6551   1.3599370509e+02   3.8108768882e+01    0.3379172    0.1345163 -58.12  0.001520457    2.110    0.526
       313  -9.5786     79.8486    160.3402   1.2247584650e+02   3.2216047950e+01    0.2651443    0.1943486 -75.51  0.001326701    1.360    0.265
       314  -9.4342    223.9886    157.0017   8.8220343433e+01   4.8881589876e+00    0.1749698    0.1628902 -30.88 0.0007402776    1.020    0.020
       315 -10.7141    104.9782    153.9272   1.1463213554e+02   2.9616659727e+01     0.540927     0.368769 -63.84  0.002478503    1.489    0.328
       316 -10.0001      8.8102    156.1338   1.3996647204e+02   4.1378254931e+01    0.2520472    0.1295977 -57.50  0.001360159    1.684    0.406
       317 -10.4860     31.5113    153.9624   1.3406921654e+02   3.9887160248e+01    0.3885341    0.2642493  70.51  0.001666767    1.599    0.375
       318 -10.3613     30.6336    149.3061   1.3365885887e+02   4.1099546124e+01    0.2645814    0.1795931  80.66 0.0008019614    1.581    0.367
       319  -9.8809     22.7540    155.1610   1.3643763255e+02   4.0432122690e+01     0.225564    0.1855737  -3.28  0.001421021    1.675    0.403
       320 -10.3080     70.9654    151.5113   1.2326243645e+02   3.5717906395e+01    0.2636567    0.2220174  47.87    0.0014603    1.263    0.208
       321 -11.9994     23.1423    149.1180   1.3557181160e+02   4.1845027538e+01    0.4879269     0.284013 -34.36  0.002461646    2.305    0.566
       322 -11.2672     16.5415    148.2514   1.3714790941e+02   4.2620380738e+01     0.372415    0.2176173  41.07  0.001682041    1.930    0.482
       323 -11.6316      3.8764    147.4657   1.4022719193e+02   4.3775039728e+01    0.6715264    0.3064087 -72.20  0.003231515    1.704    0.413
       324 -11.8520      3.9018    136.6534   1.3898328329e+02   4.6292955037e+01    0.2504207    0.1912289 -64.45 0.0003414702    1.094    0.086
       325 -10.7528      7.7591    144.9995   1.3898087798e+02   4.4073007628e+01    0.3525711    0.1597012 -78.61 0.0009937556    1.962    0.490
       326 -11.5157      3.7600    141.7070   1.3961150075e+02   4.5126114560e+01    0.3511682    0.3170178 -11.90  0.001432478    1.453    0.312
       327 -11.0699     62.4246    149.8029   1.2526767002e+02   3.7320488697e+01    0.5229851    0.4452284  66.63   0.00251188    1.233    0.189
       328  -9.8809     48.0917    151.6946   1.2941912299e+02   3.8647098416e+01    0.2495908     0.221366 -20.20  0.000760595    1.396    0.284
       329 -10.6204     44.1014    150.4730   1.3028811685e+02   3.9403999614e+01    0.3436242    0.2389199  89.20  0.001830705    1.510    0.338
       330 -10.8457     46.8503    146.0741   1.2886142892e+02   4.0168253526e+01    0.5326487     0.278024 -70.35  0.001933663    1.802    0.445
       331 -10.2007     56.1520    148.9299   1.2681446389e+02   3.8348243858e+01    0.2119478    0.1736215  88.31 0.0003562327    1.227    0.185
       332 -10.6233    249.3898    141.6100   8.0636763033e+01   3.0615735248e+00    0.3957597    0.1897362 -37.86  0.001755161    1.874    0.466
       333  -9.5555    223.4915     22.4268   5.8735164746e+01   2.7672365367e+01    0.1973012    0.1570853 -81.11 0.0006607167    1.008    0.008
       334  -9.2157    239.5478    146.5395   8.3268028957e+01   3.9487251125e+00    0.1398613     0.123527 -39.72  0.000253934    1.007    0.007
       335 -10.3408    108.2880    146.0616   1.1210414250e+02   3.0931752093e+01    0.3345602    0.2269896  36.48  0.001516254    1.566    0.362
       336 -10.6786     33.1462    144.3237   1.3228274566e+02   4.2057541907e+01    0.2662102     0.229336 -87.39 0.0007530239    1.112    0.101
       337 -11.7401     11.3578    138.2163   1.3722822490e+02   4.5400964243e+01    0.4675115    0.2327169 -88.22  0.002220029    2.249    0.555
       338  -9.8489    133.4063    140.6854   1.0432996426e+02   2.7296406731e+01    0.3373002    0.2671207 -17.43  0.001403193    1.605    0.377
