#   1 NUMBER                 Running object number                                     
#   2 MAG_AUTO               Kron-like elliptical aperture magnitude                    [mag]
#   3 X_IMAGE                Object position along x                                    [pixel]
#   4 Y_IMAGE                Object position along y                                    [pixel]
#   5 X_WORLD                Barycenter position along world x axis                     [deg]
#   6 Y_WORLD                Barycenter position along world y axis                     [deg]
#   7 A_WORLD                Profile RMS along major axis (world units)                 [deg]
#   8 B_WORLD                Profile RMS along minor axis (world units)                 [deg]
#   9 THETA_WORLD            Position angle (CCW/world-x)                               [deg]
#  10 FWHM_WORLD             FWHM assuming a gaussian core                              [deg]
#  11 ELONGATION             A_IMAGE/B_IMAGE                                           
#  12 ELLIPTICITY            1 - B_IMAGE/A_IMAGE                                       
         1 -11.6793    185.8607     40.9267   5.0386881951e+01   3.3675911549e+01     1.039035    0.8953347  17.40  0.005111584    1.418    0.295
         2 -10.6317    211.1870     12.2775   3.9605828435e+01   3.0904069465e+01    0.7604405    0.5078672   5.67  0.003756521    2.483    0.597
         3 -10.3696    206.3331      9.7227   3.9443076860e+01   3.2349840092e+01     0.590331    0.4732983  38.43  0.003489926    1.569    0.363
         4  -8.5889    119.9082      8.4263   5.1494124185e+01   5.3923633133e+01    0.3403412     0.220373  69.52    0.0017563    1.567    0.362
         5  -7.8444    238.0675      4.1515   3.5433645749e+01   2.5563248382e+01    0.1689148    0.1507047 -88.12 0.0003359653    1.181    0.154
         6  -7.0957    124.2414      3.6791   4.8862840838e+01   5.3309604494e+01    0.1231084   0.09757993 -59.67 0.0001930862    1.520    0.342
         7  -7.8254    186.0000    229.0838   9.4040553612e+01   6.4360873009e-02    0.1846946   0.07243636 -42.82 0.0008053898    2.963    0.662
         8 -10.0644    123.9912    248.8776   1.0866352482e+02   6.8922786637e+00    0.4187143    0.2413893  47.10  0.002438003    1.392    0.282
         9 -10.2895    108.8293    249.9396   1.1162366907e+02   9.0059838168e+00    0.3544031    0.2260306  63.88 0.0003208788    1.560    0.359
        10  -9.2792    104.3546    249.2943   1.1239395512e+02   9.7755111849e+00     0.329891    0.2619451 -14.56  0.001664451    2.182    0.542
        11 -17.7216     25.2804    241.0903   1.2597149289e+02   2.1473485123e+01     2.697319     2.282415  53.93   0.01115635    1.387    0.279
        12  -9.1231     91.7540    215.3835   1.1128899256e+02   1.7889515739e+01    0.2497878    0.2340442  77.23 0.0008680971    1.185    0.156
        13  -8.9650    220.4053    210.4121   8.4359735603e+01  -2.7693429501e+00    0.2362912    0.2223588 -65.25 0.0006601558    1.592    0.372
        14  -8.5825    142.8753    209.5486   9.9744234635e+01   1.0680613766e+01    0.2940271    0.2210711  -0.49  0.001537314    1.906    0.475
        15  -8.3112    221.7675    227.8914   8.7131240381e+01  -5.4159566624e+00    0.1967303    0.1447123  25.28 0.0004181451    1.140    0.123
        16  -7.7728     81.9617    209.2624   1.1264781194e+02   2.0576175360e+01    0.1664478    0.1427651  61.68 0.0002357593    1.075    0.070
        17  -9.0425    208.1225    204.7635   8.5660623991e+01   1.0485715449e-01     0.244075    0.2296161   8.53 0.0002890083    1.188    0.158
        18  -9.0739    209.3260    200.1205   8.4580022547e+01   6.2729784814e-01    0.2339996    0.1955885  21.42 0.0002534902    1.064    0.060
        19 -10.4237    239.7750    203.2100   7.9538229323e+01  -4.7934135047e+00    0.2325264    0.1950614  15.18 0.0003816497    1.127    0.113
        20  -8.4521    132.6834    202.8185   1.0090112510e+02   1.3741232773e+01    0.3000705    0.2083691  19.28   0.00102834    1.870    0.465
        21  -6.5467    121.3063    203.6512   1.0349337121e+02   1.5525801920e+01    0.1410029   0.09724055  71.04 0.0002666641    1.703    0.413
        22  -8.8284    101.6393    202.4862   1.0761499837e+02   1.8991385738e+01    0.2034675    0.1234618 -62.82 0.0008256827    1.749    0.428
        23  -8.7152     85.3511    200.9736   1.1097098732e+02   2.1813709921e+01    0.4639722    0.1600365  38.33   0.00170181    2.668    0.625
        24  -7.8203    234.6452    201.7051   8.0170629701e+01  -3.7805403671e+00    0.1344365   0.08610673   7.04 0.0007032455    1.690    0.408
        25  -7.7580     98.2589    198.6104   1.0784658403e+02   2.0338690864e+01    0.1392162    0.0928738  76.00 0.0006969936    1.690    0.408
        26  -9.1493     81.8676    195.7564   1.1110574517e+02   2.3446618384e+01    0.4723006    0.2382287  64.24  0.001620732    2.374    0.579
        27  -8.8642    210.0577    195.5495   8.3586164094e+01   1.2281261958e+00    0.2273232    0.1788492 -19.15  0.001319526    1.254    0.203
        28  -7.0990    219.7228    195.6948   8.1776806182e+01  -4.4820100494e-01    0.1327075    0.0923714   2.37 0.0002984817    1.548    0.354
        29  -8.4175     91.3688    192.2202   1.0853801891e+02   2.2785549874e+01    0.2385725    0.2199864  64.41 0.0006175733    1.107    0.097
        30  -9.0569     77.9275    225.1133   1.1510398575e+02   1.7978262550e+01    0.2281234    0.2098074  31.82  0.001590865    1.413    0.292
        31 -10.0142    177.6475    190.9440   8.9241734151e+01   7.8526128981e+00    0.2472324     0.238743  -2.20 0.0003958798    1.096    0.088
        32  -8.5442     97.1832    190.9516   1.0705304983e+02   2.2151792912e+01    0.2953254     0.188278 -66.70  0.001011528    1.623    0.384
        33  -8.5901    236.2213    190.9815   7.7854394602e+01  -2.4659271665e+00    0.1847251    0.1677781 -18.57 0.0005729724    1.241    0.194
        34  -8.7003    129.9731    190.1833   9.9511183298e+01   1.6769491994e+01    0.2053203    0.1970564 -81.26 0.0002536109    1.104    0.094
        35  -8.4272     80.4524    221.0189   1.1419790675e+02   1.8422287199e+01    0.2616628    0.1409759 -67.93  0.001313237    1.954    0.488
        36  -8.9361     63.2056    169.1349   1.1208687637e+02   3.2082350048e+01    0.2357985    0.1897822  80.46 0.0004186116    1.121    0.108
        37  -9.8218     71.8265    184.1903   1.1195333456e+02   2.7444434827e+01    0.4629583    0.3094343  44.53  0.002553541    1.432    0.302
        38 -10.6521     75.4187    180.1041   1.1060630460e+02   2.7863942359e+01      0.98224    0.5701851  58.98  0.004837575    1.747    0.428
        39  -9.4542     67.9279    174.2831   1.1161839458e+02   3.0248760386e+01    0.5575837     0.191286  52.75  0.001980521    3.438    0.709
        40  -7.5528    124.1036    184.1175   9.9852050378e+01   1.9091271158e+01    0.1920764    0.1574723  72.79 0.0004066109    1.283    0.221
        41 -10.6293    146.1858    222.1171   1.0091120752e+02   7.8419205929e+00    0.5060946    0.3361768   5.81  0.002404931    2.543    0.607
        42  -7.9364     22.8122    183.3709   1.2273751282e+02   3.3431201360e+01    0.2919218    0.1405565  66.23  0.001517732    1.996    0.499
        43  -8.7910     16.1909    183.9743   1.2417356949e+02   3.3927919047e+01    0.2415581     0.156754  26.77  0.000803892    1.976    0.494
        44  -8.7554    151.0575    180.4350   9.3065351654e+01   1.4888579443e+01    0.4218908    0.2068687 -60.44  0.001587513    2.857    0.650
        45  -8.1252    140.6204    179.9338   9.5338738649e+01   1.6960437765e+01    0.2345593    0.1239235 -74.44  0.000178158    4.620    0.784
        46 -10.2844    154.8311    217.4637   9.8457572483e+01   7.1866478995e+00    0.6398686    0.2502509  47.26  0.002606399    2.460    0.594
        47  -8.5310     24.4620    178.8197   1.2202008674e+02   3.4281851417e+01    0.2711423     0.195089  19.16   0.00127752    1.962    0.490
        48  -7.6363      7.4349    172.5089   1.2521399308e+02   3.7222996942e+01     0.158865   0.08649597 -71.78 0.0001205378    1.541    0.351
        49 -10.1245     17.4507    163.3997   1.2229099383e+02   3.8428379050e+01    0.6279433    0.3339946  87.34  0.003415347    1.691    0.409
        50  -7.7449      7.4748    177.4764   1.2554434541e+02   3.6122316215e+01    0.1578808   0.08691976 -69.79 0.0009381105    1.586    0.369
        51 -10.2715     14.2543    174.4761   1.2388972187e+02   3.6203342971e+01    0.3910506    0.1958481  30.85  0.002113177    2.280    0.561
        52  -9.5909     21.7280    172.7777   1.2211978844e+02   3.5903714533e+01    0.4795836    0.2740047  54.94  0.002160948    1.634    0.388
        53  -8.7943    198.7465    175.1793   8.1827070547e+01   6.7343682793e+00    0.2338135    0.2035043  23.19 0.0002671922    1.080    0.074
        54  -7.9836     29.3989    174.8876   1.2059549791e+02   3.4676875821e+01    0.1750892    0.1436066  39.43  0.001167697    1.419    0.295
        55  -7.6808     89.4999    174.5123   1.0649082219e+02   2.7041514439e+01    0.1387342     0.125533  78.51 -4.06052e-05    1.017    0.017
        56  -7.2964    184.2837    172.7113   8.4304680494e+01   9.9726889474e+00     0.134446    0.1161175  84.01 0.0002383815    1.529    0.346
        57 -10.1974     78.4658    167.5034   1.0814020968e+02   3.0341177071e+01    0.4427783    0.3337668  50.74  0.002448925    1.286    0.222
        58  -8.7617     83.5613    170.2801   1.0730062817e+02   2.8932732795e+01    0.2754167    0.2266875 -48.65 0.0007503142    1.377    0.274
        59  -9.2327     87.1234    165.7329   1.0573396952e+02   2.9451135643e+01    0.3762978    0.2517267 -40.00  0.001816613    1.896    0.473
        60  -8.2098    107.8079    169.6098   1.0127943407e+02   2.5161239709e+01    0.1984019    0.1248286  50.92 0.0002601131    1.561    0.360
        61  -8.8227    127.8258    166.9525   9.5957191604e+01   2.2160474262e+01    0.5656325    0.2057122  37.31  0.001731337    2.870    0.652
        62  -9.5981     55.2749    160.6871   1.1293826703e+02   3.5091344057e+01    0.5148724    0.2381763  64.36  0.002044026    2.935    0.659
        63  -7.4240    227.2805    164.3512   7.4091562023e+01   3.2791565655e+00    0.1431573   0.09990864  -2.79 0.0004953173    1.650    0.394
        64  -9.3704     71.4281    161.4311   1.0900317507e+02   3.2786861501e+01    0.3431647    0.1807492  39.33  0.001599022    1.909    0.476
        65  -8.6552     81.6152    161.0734   1.0638381979e+02   3.1393362188e+01    0.2660687    0.2108293  29.43  0.001072721    1.458    0.314
        66  -8.1807     93.3650    157.5583   1.0282183044e+02   3.0391318014e+01    0.2117638    0.1588108 -42.75 0.0005892148    1.516    0.340
        67  -9.2544     34.3360    157.9071   1.1776533612e+02   3.8108312534e+01    0.3241856    0.1664702  50.60  0.001655851    1.952    0.488
        68  -8.8852     31.4708    154.3171   1.1807713299e+02   3.9242824201e+01    0.3017552    0.1731182  35.55  0.001028369    1.896    0.473
        69  -9.3197     27.1461    152.4844   1.1894702049e+02   4.0090542426e+01    0.3256825    0.1873612 -81.19  0.001602329    1.493    0.330
        70  -9.8299     19.4577    151.7612   1.2075684239e+02   4.0950658324e+01    0.4222299    0.2187245  23.25  0.001204212    2.483    0.597
        71  -9.9469     18.8708    147.0692   1.2043836684e+02   4.2101504373e+01    0.3520808    0.2029591  31.98  0.001233762    1.987    0.497
        72  -7.8663    149.2674    157.4881   8.8963688642e+01   2.0062671719e+01    0.2134959    0.1405342  53.83 0.0009409434    1.615    0.381
        73  -8.6252     23.1454    156.3285   1.2030974976e+02   3.9556706638e+01    0.1710793     0.146736 -44.67 0.0006372121    1.468    0.319
        74  -9.3411      7.3733    153.5247   1.2379762434e+02   4.1518196104e+01    0.4059065    0.2706481  -3.59  0.002403008    2.491    0.599
        75  -8.3885      2.1511    152.4487   1.2492834952e+02   4.2147312737e+01    0.2481659    0.1632074 -79.31  0.001570799    1.186    0.157
        76 -10.4281     82.6879    151.7934   1.0459823010e+02   3.3452665591e+01     0.422287    0.2702428 -42.67  0.001050527    1.825    0.452
        77  -9.0897     97.7467    152.2716   1.0075618360e+02   3.0925147018e+01    0.3868515    0.3359419  71.33  0.001588608    1.138    0.121
        78  -7.9322    150.2793    147.7258   8.6624412405e+01   2.1974958239e+01    0.3011858    0.1935897 -64.99  0.001238996    2.019    0.505
        79  -7.5418    156.5234    147.4127   8.5078922856e+01   2.0740786082e+01    0.1513892     0.147104  36.64  0.000188301    1.015    0.014
        80  -8.7420    133.5871    145.8987   9.0300846711e+01   2.5787833461e+01    0.3782962    0.1496459 -52.93  0.001282755    2.681    0.627
        81  -9.4227     44.8392    146.9565   1.1379692757e+02   3.9608094382e+01    0.2758363    0.1659525  50.34  0.001442535    1.719    0.418
        82  -8.8527      7.0991    145.2642   1.2316538807e+02   4.3444059600e+01    0.2378964    0.1195364  74.71  0.001231216    2.019    0.505
        83  -9.4516     35.3358    144.2973   1.1593454695e+02   4.1249179709e+01    0.3696182    0.2381085  -2.65  0.001849411    2.660    0.624
        84  -9.3524     11.2377    144.6131   1.2209199517e+02   4.3287968044e+01    0.1755545    0.1674443  -4.19 0.0007003407    1.429    0.300
        85  -8.2660     97.4875    141.4316   9.8763691066e+01   3.3565701804e+01    0.2841072    0.1871468  73.78  0.001219487    2.045    0.511
        86  -9.2822     97.8071    137.0443   9.7794858399e+01   3.4567323304e+01    0.2959477    0.2478776  21.17 0.0002787184    1.404    0.288
        87  -9.7037      4.9337    140.3905   1.2326824416e+02   4.4727684911e+01    0.2805178     0.217693 -68.95  0.001224538    1.185    0.156
        88 -10.0129      3.2612    135.2003   1.2322179146e+02   4.6045596084e+01    0.4072689    0.1290772 -63.13  0.001872329    2.366    0.577
        89  -9.9058      2.4445    125.6328   1.2252931366e+02   4.8325638882e+01    0.2701689    0.1808254 -74.42  0.001722727    1.153    0.133
        90  -8.8906     14.6446    135.3032   1.2030160927e+02   4.5216104207e+01    0.2048856    0.1200352  70.74  0.001120135    1.775    0.437
        91  -9.6777     49.1202    126.8832   1.0965321712e+02   4.4016358563e+01    0.2395808    0.2144794 -22.14  0.001465563    1.354    0.262
        92 -10.2431     43.6917    130.6658   1.1179864232e+02   4.3689327386e+01    0.2965516    0.2878686  64.14  0.000535546    1.191    0.160
        93 -10.0432     32.8235    129.6905   1.1470531243e+02   4.5017404501e+01    0.3217801    0.2142148  39.36  0.001185924    1.667    0.400
        94  -9.7377     26.8504    128.8884   1.1625892758e+02   4.5751839927e+01    0.2990105    0.2212794  38.97  0.001070641    1.537    0.349
        95 -13.2704     12.7165    208.8033   1.2643617916e+02   2.9010239115e+01     1.251829    0.4337062  43.07  0.006680089    2.366    0.577
        96  -9.7728     71.8678    125.5655   1.0280907372e+02   4.1440908450e+01     0.337143    0.1882811  46.83  0.001516572    1.947    0.486
        97  -8.0106    103.9086    124.8664   9.3469553711e+01   3.6410473264e+01    0.2271373    0.2001651 -24.94 0.0006133845    1.275    0.216
        98  -8.4000    145.1817    123.0350   8.2058102374e+01   2.8495780886e+01    0.2264128    0.2242946 -42.76  0.000444368    1.008    0.008
        99  -9.4223     48.9507    131.7836   1.1048974312e+02   4.2837543974e+01    0.2533627    0.1975773  -4.14  0.001127928    1.779    0.438
       100  -9.5965    201.8413    121.2643   6.9084753854e+01   1.6154623790e+01      0.26807    0.2556818  54.69  0.000342831    1.115    0.104
       101  -7.8554    245.7966    121.4330   6.1508646158e+01   6.9758079428e+00    0.1763749    0.1291561  33.16 0.0007550902    1.569    0.362
       102  -7.6485     32.6428    121.3179   1.1355766876e+02   4.7060288458e+01    0.1355843    0.0883637  70.56 0.0007044908    1.754    0.430
       103  -8.9375     79.2882    138.9175   1.0324160896e+02   3.7091563847e+01    0.2111665    0.1773362 -65.29 0.0005921404    1.106    0.096
       104  -8.1004    206.9850    117.9606   6.7298518168e+01   1.5636571690e+01    0.2281201    0.2134372 -13.78 0.0003945737    1.066    0.062
       105  -7.6818    133.5016    118.4953   8.3889074599e+01   3.2025664741e+01    0.1557791    0.1529345 -70.12 0.0003156305    1.015    0.014
       106  -8.1784    108.4666    117.9677   9.0560337542e+01   3.7197340942e+01    0.3784995    0.1984212  43.96  0.001069717    1.968    0.492
       107 -10.6211     45.6257    115.7235   1.0878111646e+02   4.7123818721e+01    0.4385878    0.2785901  27.08  0.001951517    1.849    0.459
       108  -8.8169     53.1558    112.1189   1.0579953966e+02   4.7152368570e+01    0.2067349    0.1723758 -41.12 0.0005821504    1.231    0.188
       109  -9.5648     65.1555    115.3957   1.0276730066e+02   4.4848466639e+01    0.4169829    0.1997144  56.34  0.001543941    3.177    0.685
       110  -8.1354     82.9143    216.7582   1.1325934428e+02   1.8915438573e+01    0.2342691    0.1742752 -73.23  0.001216241    1.392    0.282
       111  -8.4787     37.9739    103.4828   1.0894353153e+02   5.0858282460e+01    0.1800347    0.1300941  31.83  0.001025866    1.604    0.377
       112  -8.1332     46.3772    101.3182   1.0579594505e+02   5.0517154139e+01    0.2007324    0.1169554 -12.24  0.000846322    2.915    0.657
       113  -8.6527     91.0865     97.8039   9.0558574593e+01   4.5049299439e+01    0.2405383    0.1996965 -49.76  0.000328531    1.137    0.121
       114  -7.6109    148.5092     96.9816   7.4293272080e+01   3.3316971651e+01    0.2219946    0.1548499 -40.67 5.307658e-05    1.422    0.297
       115  -7.7688    123.9958     83.3262   7.6651419245e+01   4.1682564199e+01    0.3120006    0.1802936  26.18  0.001143697    2.525    0.604
       116 -10.1590    107.2426     77.4682   7.9652251111e+01   4.6421320391e+01    0.2673272    0.2475973 -24.95 0.0002431239    1.044    0.042
       117  -7.6641    118.9826     76.0511   7.5790405563e+01   4.4233808371e+01    0.2308129    0.1802021   3.70 0.0004615042    1.580    0.367
       118  -8.8911    203.4140     73.7595   5.6615485122e+01   2.4315328936e+01    0.3305832    0.2517522 -16.64  0.001168391    1.560    0.359
       119  -7.3923    134.3147     65.6289   6.8347737151e+01   4.2701568052e+01    0.1592557    0.1198767 -72.43 0.0001848952    1.784    0.439
       120  -7.8558    178.0570     63.7390   5.8262638858e+01   3.2228884158e+01    0.2065271    0.1907315  60.17 0.0003895281    1.081    0.075
       121  -8.0086    143.9780     59.6296   6.4074237560e+01   4.1411229843e+01    0.2215054    0.1860637  57.46 0.0007927216    1.180    0.152
       122  -8.0399    165.2955     59.6636   5.9507305565e+01   3.6102150495e+01    0.1570785    0.1147531 -68.27 0.0005472031    1.649    0.393
       123  -9.9466    171.0975     55.7012   5.7198816700e+01   3.5264071500e+01    0.4047313    0.3276514 -82.38  0.001028899    1.370    0.270
       124  -7.8674    152.7984     51.0174   5.9371528656e+01   4.0601590206e+01    0.2031088     0.189671 -42.07 0.0003351219    1.103    0.094
       125  -9.4429    132.5988    248.5093   1.0699325193e+02   5.6253029239e+00    0.2150348    0.1882049  10.00  0.001457768    1.418    0.295
       126 -10.4118    190.9585     35.0557   4.7991636714e+01   3.3173761294e+01    0.5716323    0.4547634 -11.28  0.001853804    1.546    0.353
       127  -7.5516    221.8633     39.8447   4.5298460825e+01   2.4982200865e+01    0.1972179    0.1425565 -63.26 0.0005189675    1.321    0.243
       128  -7.0067    133.9978     30.0280   5.6355712422e+01   4.8185009369e+01    0.1620819    0.1543328  37.68 0.0009427048    1.033    0.032
       129  -7.4407    172.5217     22.4302   4.7010550455e+01   3.9393095337e+01    0.1396654    0.1261348  68.35 0.0001508464    1.052    0.050
       130  -8.4899    164.9741     21.5385   4.7876899956e+01   4.1414369006e+01    0.2387444    0.2008984 -29.87 0.0005687025    1.294    0.227
       131  -8.4418    132.0567     17.9871   5.2509451057e+01   5.0052107987e+01    0.2029704    0.1799456  44.40            0    1.045    0.043
       132  -9.2452     91.2242    247.0543   1.1462292663e+02   1.2062275778e+01    0.5868071     0.266813  70.09  0.002502244    3.531    0.717
       133  -8.2835     88.7292    242.3688   1.1465586703e+02   1.3240590212e+01    0.3214524    0.1420411  58.94  0.001285428    2.330    0.571
       134  -7.0215    234.3320    239.6974   8.6829140107e+01  -8.7437661382e+00    0.1015765   0.08923104  43.43 0.0003095479    1.655    0.396
       135  -8.0301    250.5459    238.0807   8.3776112607e+01  -1.0771589769e+01    0.1528487   0.09790583 -21.75 0.0003964026    1.494    0.331
