#   1 NUMBER                 Running object number                                     
#   2 MAG_AUTO               Kron-like elliptical aperture magnitude                    [mag]
#   3 X_IMAGE                Object position along x                                    [pixel]
#   4 Y_IMAGE                Object position along y                                    [pixel]
#   5 X_WORLD                Barycenter position along world x axis                     [deg]
#   6 Y_WORLD                Barycenter position along world y axis                     [deg]
#   7 A_WORLD                Profile RMS along major axis (world units)                 [deg]
#   8 B_WORLD                Profile RMS along minor axis (world units)                 [deg]
#   9 THETA_WORLD            Position angle (CCW/world-x)                               [deg]
#  10 FWHM_WORLD             FWHM assuming a gaussian core                              [deg]
#  11 ELONGATION             A_IMAGE/B_IMAGE                                           
#  12 ELLIPTICITY            1 - B_IMAGE/A_IMAGE                                       
         1 -10.3184     10.3103     18.8259   1.1203271862e+02   6.9334444005e+01      1.13417    0.4373379 -14.72  0.003680952    7.215    0.861
         2 -10.9314     37.0675     39.6450   1.0838078133e+02   6.3668775273e+01    0.7820284    0.5583618 -27.71  0.001399425    1.170    0.145
         3 -11.2619     24.0311     32.2306   1.1104414480e+02   6.6154185524e+01     1.347275    0.5595959 -29.84  0.003498268    2.342    0.573
         4 -10.9687     21.9564     53.8484   1.1902202585e+02   6.2688174903e+01    0.8859205    0.4959395 -74.38  0.003550485    4.853    0.794
         5 -10.2370     46.2649     30.0050   1.0117374005e+02   6.4003275348e+01     0.462639    0.2839789 -45.12 0.0009086973    1.995    0.499
         6  -9.0905     95.8309     16.7712   7.9984605451e+01   5.7309289700e+01    0.3466743    0.1613614 -32.89  0.001657915    2.353    0.575
         7 -10.1569     64.5692     13.1384   8.7775513626e+01   6.3358927824e+01    0.3365139    0.2615011  11.31  0.001852799    1.075    0.069
         8  -9.6286     62.9677     21.1639   9.1561315640e+01   6.2733214465e+01    0.4558034    0.2366708 -44.72  0.001449604    2.820    0.645
         9  -9.7545    228.8197     23.5221   6.0299162279e+01   2.6176595055e+01    0.3083372    0.2077363 -40.75   0.00106453    1.531    0.347
        10  -9.7299    198.0537     19.7905   6.2769503250e+01   3.3682409885e+01    0.6359125    0.2846647 -78.27  0.002280862    3.812    0.738
        11  -9.2156     73.6071     19.5888   8.7430794110e+01   6.1152429746e+01    0.3095256    0.1942377 -41.15  0.001314239    2.030    0.507
        12  -9.7104     73.2349     13.7612   8.5250128232e+01   6.1831038572e+01    0.4390094    0.2035907  -8.08  0.001923746    3.208    0.688
        13  -9.9917     51.4967     14.0016   9.2707967135e+01   6.5288473199e+01    0.6169071    0.2999127  18.52  0.003038212    2.552    0.608
        14  -9.8542    152.1594     27.9971   7.1564921969e+01   4.3686671838e+01    0.3310665    0.2309129  -4.39  0.001721699    1.946    0.486
        15 -10.8470    248.7863     10.5754   5.5964484956e+01   2.3426336977e+01    0.5433016    0.3302063 -37.13  0.003015736    1.783    0.439
        16  -9.0885    112.0835     15.5742   7.5635385488e+01   5.4072489557e+01    0.2372349    0.1671456 -36.21 0.0006666718    1.643    0.391
        17  -9.1404    114.0968     10.0475   7.3324054217e+01   5.4149906827e+01    0.2676099    0.1583926  34.32 0.0003234664    1.679    0.404
        18  -9.6963      2.1862     14.1436   1.1401595523e+02   7.0609144094e+01    0.4802203    0.1775137 -51.39  0.002362602    3.437    0.709
        19 -10.3081      6.2903      4.9969   1.0818283182e+02   7.1525559637e+01    0.4029164    0.2811195   3.29  0.002074699    1.219    0.180
        20  -8.7288      2.5312      3.4894   1.0937643910e+02   7.2017127166e+01    0.2010422    0.1049129 -40.78  0.001066804    1.860    0.462
        21  -9.2161    125.0165     13.7752   7.2306893031e+01   5.1420564457e+01    0.2835292     0.177332 -34.14 0.0009922037    1.813    0.448
        22  -9.5300     85.2636     13.2330   8.1510011522e+01   5.9700683675e+01    0.3497045    0.2354328 -55.75  0.001663452    2.548    0.608
        23 -10.8601     37.3102      9.7130   9.6353219621e+01   6.7702437828e+01    0.7011169    0.2491783 -38.40  0.002256328    3.179    0.685
        24  -8.1716     80.5487     12.2852   8.2483381329e+01   6.0668106198e+01    0.2167118    0.1058049 -31.47  0.001131086    2.227    0.551
        25 -10.0244     24.5716     11.1521   1.0238033474e+02   6.9027220652e+01     0.654999    0.1655998  34.93  0.002876824    3.995    0.750
        26  -8.9770     19.7737      8.6131   1.0341536803e+02   6.9837756501e+01    0.2334415    0.1542542  12.60 0.0005391663    1.318    0.241
        27  -9.7434     18.2147      3.9682   1.0204453241e+02   7.0549352317e+01    0.2753153    0.2633659  82.16   0.00151789    2.409    0.585
        28  -9.1256    101.8439      8.8519   7.5646386385e+01   5.6831652133e+01     0.248179    0.1743371 -17.44 0.0009818922    1.573    0.364
        29  -9.1013    127.1362      8.8137   7.0314124139e+01   5.1396474630e+01    0.2108297    0.1438378  44.82 0.0007400301    1.305    0.234
        30  -8.8275    125.6745      5.1586   6.9427738663e+01   5.2032465986e+01    0.2455796    0.1677772  38.35  0.001142153    1.399    0.285
        31  -8.6035    110.3108      5.9972   7.2756018406e+01   5.5304993465e+01     0.298207    0.1149194  -8.87  0.001103874    4.534    0.779
        32  -9.3846     96.5860      4.7518   7.5416402536e+01   5.8245836938e+01    0.3421974    0.2244216 -40.48  0.001576799    1.941    0.485
        33  -9.0827     78.2606      4.1159   7.9936239194e+01   6.1823599566e+01    0.3387589    0.1954544   4.11  0.001525645    1.980    0.495
        34  -7.8215    143.2992      5.5978   6.6533322474e+01   4.8002442654e+01    0.1292746   0.08769927 -66.93 0.0006995103    1.827    0.453
        35  -9.0082    115.0380      4.3969   7.1234883001e+01   5.4424193366e+01    0.2066688    0.1645655 -47.48 0.0006373025    1.559    0.358
        36  -9.1966     88.2063      3.8203   7.7146655657e+01   5.9974962576e+01    0.3693718    0.2563726  33.93  0.001444964    1.215    0.177
        37  -9.5694     63.8939      2.9073   8.3754526465e+01   6.4444136952e+01    0.2762066    0.2002497 -45.16  0.001718133    2.112    0.527
        38  -8.8843    104.9232      2.0128   7.2538214056e+01   5.6756440064e+01    0.1895424    0.1541046  44.38 0.0006178048    1.012    0.012
        39  -8.3732    135.8188      1.5750   6.6551643346e+01   5.0044373822e+01    0.2444844   0.09551159  60.71 0.0008235623    2.014    0.503
        40  -9.7270    133.3919     11.6507   7.0043547624e+01   4.9733300844e+01    0.5236958    0.1708518 -44.19  0.001906802    4.251    0.765
        41 -10.9488    133.7395    109.4329   9.9170988613e+01   3.4280296013e+01    0.8959993     0.388708 -48.28  0.003193133    2.324    0.570
        42 -12.7769     30.6623    245.7860   1.4492624653e+02   1.9569207033e+01     1.683135    0.7204154  36.92  0.008990773    2.534    0.605
        43 -10.1948     78.0900    113.1053   1.1565728190e+02   4.3847964443e+01    0.5206503    0.3309385 -77.61   0.00182738    2.291    0.564
        44  -8.0526    167.2301    113.9654   9.2344173316e+01   2.5766990530e+01    0.2081416    0.1283178 -44.02 0.0004204891    1.593    0.372
        45  -9.3760     14.2666    111.6423   1.3445082617e+02   5.1218275873e+01    0.3532082    0.1952814  84.45  0.001491693    2.586    0.613
        46  -8.3866    158.5969    111.7609   9.3732725540e+01   2.8218777863e+01    0.2184393    0.1456401 -53.55 0.0004587842    1.561    0.359
        47 -10.7042     63.0074     95.9260   1.1607627863e+02   4.9863875705e+01    0.7330698    0.4289425 -72.63  0.001691175    2.659    0.624
        48  -9.5030     59.1102    109.6632   1.2057437080e+02   4.7288280783e+01    0.4082283    0.2708604  89.13  0.001789133    2.334    0.572
        49 -10.7998    109.0341    101.2459   1.0360452245e+02   4.1131555681e+01    0.9598719    0.7089723 -81.07   0.00433706    1.951    0.487
        50 -10.9631     44.6941    102.3953   1.2342391026e+02   5.0626435148e+01    0.7507231    0.4405136  80.05  0.002896217    3.886    0.743
        51  -8.1457     40.1565    107.1186   1.2584158340e+02   5.0030305930e+01    0.1714508    0.1438183 -84.99 0.0004377239    1.324    0.245
        52 -10.7607     20.9583    101.4932   1.3067301457e+02   5.3007134941e+01    0.8359492    0.4372644  80.16  0.003146549    4.540    0.780
        53  -8.5369    165.8417    104.0487   9.0086565660e+01   2.8126887092e+01    0.3136352    0.1946434 -47.79 0.0005587271    1.608    0.378
        54  -9.5172    149.4342    103.3644   9.3667726043e+01   3.2067135683e+01    0.3965401    0.2895161 -62.09  0.001030708    1.556    0.357
        55 -10.6318    139.4634    102.2503   9.5797324357e+01   3.4546976327e+01    0.8246577    0.3820272 -42.06  0.002053777    2.153    0.536
        56  -8.4304     13.9926    105.1953   1.3346320127e+02   5.2689450794e+01     0.192154    0.1100409 -32.62 0.0005194067    1.944    0.486
        57  -9.2157      6.4344    103.8221   1.3549894023e+02   5.3487619884e+01    0.2751776    0.1728656  77.71  0.001468077    2.111    0.526
        58  -8.5264    249.4865    104.5152   7.5273074713e+01   9.2889478520e+00    0.1392691     0.119837 -53.83 0.0008103376    1.005    0.005
        59  -7.4669    195.3039    104.7394   8.4229966448e+01   2.1081735733e+01    0.1497555    0.1156372 -80.51            0    1.518    0.341
        60  -8.6051     91.3228    103.6100   1.0935503191e+02   4.3854908729e+01    0.2766723    0.1274408 -48.60  0.001094041    2.035    0.509
        61 -10.5091     65.7466    110.9263   1.1884569962e+02   4.6127312454e+01     0.437974    0.3392215  76.64  0.001201821    1.687    0.407
        62  -9.4480     81.4327    100.3737   1.1147702740e+02   4.6199929642e+01    0.3744728    0.2567161 -70.96  0.001130725    1.914    0.477
        63  -8.1047     81.9764     94.3844   1.0971466605e+02   4.7411598594e+01    0.3230609    0.1715144 -20.80  0.001059688    3.924    0.745
        64  -8.7494    158.9010    101.1555   9.0874444497e+01   3.0332190169e+01    0.2398554    0.2065099 -78.98 0.0005163839    1.274    0.215
        65  -9.3966     94.2933     97.3387   1.0679624861e+02   4.4703306801e+01    0.3010243    0.2455115 -61.41  0.000591166    1.330    0.248
        66  -9.4177    130.6131     96.5213   9.6467554916e+01   3.7675498775e+01    0.4668754     0.231656  28.19  0.001453761    3.654    0.726
        67 -10.5139    240.8073     95.6069   7.4561537130e+01   1.2622297929e+01    0.3173172    0.2769495  60.07  0.001865045    1.279    0.218
        68  -8.7160    164.2182     94.6431   8.7950431026e+01   3.0372093610e+01    0.2576402    0.2029538 -54.68 0.0007024464    1.296    0.228
        69  -9.9732    139.2756     93.0231   9.3302348310e+01   3.6465583974e+01    0.6186614    0.3916864 -62.04  0.001974038    2.060    0.515
        70  -9.4084    140.4525     83.1986   9.0233109040e+01   3.8095325998e+01    0.4640589     0.239683 -46.07  0.001459741    2.005    0.501
        71  -9.8513    139.9372     75.8906   8.8243394303e+01   3.9548984670e+01    0.6843676    0.2492182 -43.40  0.002256388    2.825    0.646
        72 -11.2947     24.5242     78.8153   1.2470374752e+02   5.7612832814e+01    0.7168425    0.5943002 -46.97  0.002903302    1.065    0.061
        73  -8.9152     42.4234     76.7775   1.1793540407e+02   5.6359347659e+01    0.2938807    0.1311001 -51.16  0.001164019    1.917    0.478
        74  -9.1490    157.1235     92.0160   8.8811402160e+01   3.2552781019e+01    0.4248995    0.2045553 -28.77  0.001441244    2.906    0.656
        75 -10.6802     32.0779     64.5933   1.1828603974e+02   5.9793589147e+01    0.7859163    0.3235539 -29.06  0.002302408    3.225    0.690
        76 -10.2908      4.1431     89.8999   1.3384016020e+02   5.6656719880e+01     0.505721    0.2808185 -81.13  0.001734503    2.090    0.522
        77  -8.7217     95.7131     91.1997   1.0466657668e+02   4.5744367090e+01    0.4027698    0.2439908 -11.99  0.001492071    3.065    0.674
        78  -9.2621    112.4730     89.4512   9.9334012023e+01   4.2908273635e+01    0.4732073    0.2368658  30.46  0.001730808    2.710    0.631
        79 -10.7193    149.8330     88.0395   8.9380380764e+01   3.5020107790e+01    0.5212724    0.4605596  86.01  0.001827106    1.230    0.187
        80 -10.6912    149.8245     80.6922   8.7317662369e+01   3.6393072860e+01    0.5958401    0.3336693 -47.18  0.001924316    1.866    0.464
        81 -10.3505     36.9585     80.9121   1.2090901669e+02   5.6068927631e+01    0.6045063     0.304875 -17.26  0.002528573    3.280    0.695
        82  -7.8404    174.6678     89.2936   8.4327129001e+01   2.8903887438e+01    0.1568386    0.1173217 -80.64 0.0003345361    1.636    0.389
        83 -10.1588     85.2669     86.6158   1.0652916459e+02   4.8498331579e+01    0.4193683    0.3267821 -85.44 0.0009534511    1.922    0.480
        84  -9.5183     87.2077     78.7680   1.0362497270e+02   4.9735452098e+01    0.7510134    0.3568184  26.26  0.002723992    3.012    0.668
        85  -9.0844     64.9389     85.8582   1.1279517414e+02   5.1750114490e+01    0.5749593    0.3120251  -4.51  0.001914706    4.597    0.782
        86  -8.7097    163.4426     87.0224   8.6060955814e+01   3.2007508721e+01     0.232719    0.1475864 -42.07 0.0005096596    1.578    0.366
        87 -10.4095     48.0199     84.7058   1.1810987222e+02   5.4111551063e+01    0.4629588    0.3351329  88.65  0.001654352    2.274    0.560
        88  -9.3865     59.0526     77.7931   1.1249554733e+02   5.4185785795e+01    0.2739789    0.2091489 -75.23    0.0014803    1.880    0.468
        89  -9.5180     50.0569     76.9058   1.1532081866e+02   5.5479703682e+01     0.670052    0.2879347  14.55  0.002362356    4.480    0.777
        90 -10.8184     54.8533     70.8520   1.1191796134e+02   5.6089494133e+01    0.5794259    0.4256402  65.94  0.001172466    2.350    0.574
        91 -10.5841     62.9725     60.8802   1.0599506017e+02   5.6853821974e+01     0.762024    0.2356342  34.90   0.00223744    3.439    0.709
        92  -9.4513    242.8075     84.8001   7.1911483010e+01   1.4052249478e+01    0.2180861    0.1540178  13.03 0.0009585728    2.887    0.654
        93  -8.8794    125.7886     83.7870   9.4090201582e+01   4.1242247273e+01    0.4718493    0.2771593   6.25  0.001321647    5.257    0.810
        94 -10.2716    103.8632     82.6252   9.9784429149e+01   4.5953131157e+01    0.4569957     0.278103 -50.14 0.0009588497    1.745    0.427
        95  -9.5865    104.5287     72.2915   9.6457015549e+01   4.7768207714e+01    0.7186583    0.2685161 -32.02    0.0023431    3.555    0.719
        96 -11.2507    154.9322     56.4285   7.9265985104e+01   3.9239229637e+01    0.6816158    0.5144324 -84.23  0.003408521    1.614    0.380
        97  -9.7057    157.5264     83.1682   8.6287474688e+01   3.4126200254e+01    0.5405076    0.2363381 -35.83  0.001638329    2.454    0.593
        98 -10.9007    162.2283     71.5013   8.2042415164e+01   3.5066485134e+01    0.6717373     0.310037 -50.34    0.0023569    2.516    0.603
        99 -10.5805    156.8892     75.3601   8.4246144899e+01   3.5678123925e+01    0.6423207    0.3520074 -37.18  0.002086465    1.886    0.470
       100  -9.5891    156.5134     70.0160   8.2818714439e+01   3.6685470698e+01    0.3002549     0.249352 -32.56 0.0008494777    1.278    0.218
       101  -9.1139    179.9482     82.2695   8.1432154252e+01   2.8920101898e+01    0.2475799    0.2145218 -36.96 0.0003505472    1.207    0.172
       102  -8.3516    170.4740     83.5271   8.3643126291e+01   3.0970844413e+01    0.1521994    0.1426072 -84.01 0.0002036734    1.047    0.044
       103  -8.7803    119.0481     80.5452   9.4922894900e+01   4.3293667438e+01    0.3278385      0.22174 -61.68 0.0008341804    1.941    0.485
       104  -7.9938    119.9946     76.0041   9.3310453925e+01   4.3936618855e+01    0.2785419    0.1929682  -7.88 0.0006910263    2.019    0.505
       105  -9.1743     74.1721     80.3196   1.0821877838e+02   5.1540724058e+01    0.3150277    0.2191139 -62.28 0.0008882053    1.801    0.445
       106  -9.9604     55.1089     63.1861   1.0949020458e+02   5.7499660944e+01    0.4606037    0.2444582  19.98  0.001712784    2.270    0.559
       107  -9.8026      5.0938     79.0826   1.3146449428e+02   5.8883560312e+01    0.4508041    0.2050827 -22.15  0.002235416    2.855    0.650
       108  -8.9744    184.2529     78.0620   7.9521278245e+01   2.8625647699e+01    0.2940621    0.2295781 -48.42 0.0006713382    1.263    0.208
       109  -9.9833    157.6279     63.4049   8.0710774253e+01   3.7506122834e+01     0.530446     0.242765 -44.60  0.002091851    2.299    0.565
       110  -9.4432    127.2086     75.1066   9.1156965527e+01   4.2543634072e+01    0.3292546    0.2358373 -58.44 0.0007354324    1.678    0.404
       111 -10.1034     81.3968     72.5012   1.0354392738e+02   5.1909456772e+01    0.5197979    0.4276046  20.44  0.001185931    1.230    0.187
       112  -9.2678     84.2338     64.2657   1.0003761442e+02   5.2928417388e+01    0.6127718    0.3205963  19.88  0.002375312    3.066    0.674
       113  -9.1946    115.0755     72.8905   9.3689672367e+01   4.5532274335e+01     0.411315    0.2339664 -39.78  0.001377726    1.768    0.434
       114 -10.2381    235.9327     72.2831   7.0069533675e+01   1.7596870396e+01    0.3520327      0.24413  68.81   0.00052692    1.486    0.327
       115 -10.4525    239.9650     68.2340   6.8666775416e+01   1.7369879366e+01    0.3367965    0.2474713 -46.18  0.001029249    1.254    0.202
       116 -10.2340     16.0022     70.8004   1.2580425937e+02   5.9887294266e+01    0.4247221    0.1850781 -56.27  0.001417646    1.844    0.458
       117  -9.6159    208.0128    249.6308   1.1173860570e+02  -8.4748436105e+00    0.2927517    0.1025422  38.76  0.001255945    2.495    0.599
       118  -7.3811    104.7278    249.7196   1.3178803560e+02   8.4705173560e+00    0.1064179   0.09798749  14.28 0.0001886266    1.495    0.331
       119 -10.0976     91.8676    113.0791   1.1160973879e+02   4.1631094802e+01    0.5405061    0.3677091 -80.57  0.001592092    2.177    0.541
       120 -10.1889      4.7900     42.0276   1.2245269380e+02   6.6014584728e+01    0.5593354    0.2577136 -60.58  0.002593786    2.467    0.595
       121 -10.3175      8.6781     47.0976   1.2233974542e+02   6.4876335547e+01    0.6659589    0.1951308  24.37   0.00314284    3.674    0.728
       122 -10.0384     14.4118     44.8839   1.1933301261e+02   6.4871559023e+01    0.3811707    0.1819234 -32.58  0.001416073    1.806    0.446
       123  -9.7723      6.9128     32.5150   1.1853692507e+02   6.7484041169e+01    0.2492215    0.1549266 -11.29 0.0008875818    1.498    0.333
       124 -10.3741      7.1997     28.4583   1.1702138176e+02   6.8114593217e+01    0.3427667    0.2896771 -70.98  0.001827516    2.005    0.501
       125  -9.6820    147.0441     69.3836   8.4702693505e+01   3.9031820294e+01    0.3922079    0.2636684 -62.24  0.001240565    1.892    0.471
       126  -9.0658    129.5609     68.8208   8.8671299082e+01   4.3126586232e+01    0.4137684    0.2365394  22.29  0.001502044    3.059    0.673
       127  -9.1241    130.8484     64.6620   8.7090956927e+01   4.3537673121e+01    0.3660009    0.2393555 -47.29  0.001530449    1.665    0.399
       128  -9.7457     94.7504     68.4338   9.8125171090e+01   5.0320317100e+01    0.3535489    0.2391476 -49.26  0.000829873    1.632    0.387
       129 -10.4827     34.1633     91.2766   1.2433128885e+02   5.4136354582e+01    0.6716519    0.2476751 -59.38  0.002301802    2.388    0.581
       130  -9.9354    141.9312     47.8544   7.9442052479e+01   4.3565364869e+01    0.6119902    0.2707701 -27.16   0.00159359    2.747    0.636
       131  -9.6083    138.1017     65.2051   8.5520011616e+01   4.1803045677e+01    0.5996219    0.2240027 -39.50  0.001318099    2.723    0.633
       132  -9.5890    138.8654     56.4660   8.2716304343e+01   4.3014133031e+01     0.617672    0.2245059 -43.00  0.001641743    2.983    0.665
       133  -9.2768    120.9298     65.8585   8.9961455601e+01   4.5517570026e+01     0.338407    0.2507228 -50.86  0.001040127    1.514    0.339
       134  -7.9498    122.3336     61.2945   8.8178678461e+01   4.5967413341e+01    0.2362658     0.174797   1.20 0.0007051821    1.713    0.416
       135  -9.6845    109.8266     64.0827   9.2384633025e+01   4.8143783147e+01     0.386976    0.2565224 -41.61 0.0006499881    1.559    0.359
       136  -9.0060    110.6295     58.1560   9.0267306153e+01   4.8950353666e+01    0.3960648     0.223477  30.26  0.001544801    2.115    0.527
       137  -9.7672    164.2597     60.7707   7.8645238691e+01   3.6328092795e+01    0.3460458    0.1606023 -41.55  0.001263799    2.194    0.544
       138  -9.3073     96.5001     58.8060   9.4494030901e+01   5.1641343385e+01     0.619562    0.4119017 -11.75  0.003011236    1.861    0.463
       139 -10.7477    169.1276     69.6890   8.0158347914e+01   3.3708752409e+01    0.6501938    0.2423284 -45.29  0.002274377    2.807    0.644
       140 -10.3447     85.1311     48.1463   9.4346808338e+01   5.5406311850e+01    0.3852033    0.3117002 -77.52 0.0009611099    2.058    0.514
       141  -9.2389     80.0367     46.2630   9.5299500881e+01   5.6578858878e+01    0.2003614    0.1590444   3.31  0.000293039    1.210    0.174
       142 -10.0418     72.9491     59.0368   1.0199383321e+02   5.5687644973e+01     0.500563    0.2440191 -49.86  0.001549211    2.445    0.591
       143  -9.6621     77.7624     50.4348   9.7490687475e+01   5.6322935531e+01    0.6835339    0.3089686  35.56  0.003061966    2.250    0.556
       144 -11.9660    248.4779    235.7810   1.0195647883e+02  -1.2543653557e+01     0.239262    0.2064718   9.54 0.0004168323    1.171    0.146
       145  -9.5705    146.5112     59.0384   8.1792123958e+01   4.0835636285e+01    0.3588388    0.2119601 -42.35  0.001216563    1.773    0.436
       146  -9.5990    147.3267     54.8897   8.0393909731e+01   4.1277239161e+01    0.4019597    0.1787546 -31.68  0.001582757    2.495    0.599
       147  -9.0565    130.0503     58.1428   8.5285001946e+01   4.4763151555e+01    0.2432411    0.2069919 -59.01 0.0006433211    1.341    0.254
       148  -9.2148     87.3365     58.4289   9.7151273437e+01   5.3384067965e+01     0.244448    0.2042808 -45.43 0.0006952022    1.340    0.254
       149  -9.3869    118.6006     54.5945   8.7014978151e+01   4.7827338456e+01    0.6065095    0.3927261 -15.60  0.002169348    1.933    0.483
       150  -8.8350    121.0557     46.8737   8.3917540259e+01   4.8428744756e+01     0.265386    0.1882871 -38.88 0.0004826779    1.513    0.339
       151 -10.2849     49.8775     54.4126   1.0855691743e+02   5.9724349093e+01    0.4898249    0.3282769 -66.28  0.002465859    2.667    0.625
       152 -10.1109     55.4566     43.8179   1.0286415145e+02   6.0744107837e+01    0.8549562    0.4230509  -1.48  0.002592808    6.406    0.844
       153  -9.7450    167.7995     55.2022   7.6430313899e+01   3.6324935022e+01    0.3113678    0.1880934  52.17  0.001450805    1.582    0.368
       154  -9.9239    173.3298     51.6899   7.4477893048e+01   3.5502427747e+01    0.6319168    0.3620461 -86.40  0.002448157    2.813    0.645
       155  -9.8319    167.7439     49.5367   7.4877841883e+01   3.7167674917e+01    0.4227745    0.3030123  37.12  0.001335926    1.617    0.381
       156  -9.8236    162.5114     53.5263   7.6953767957e+01   3.7852919626e+01    0.3412434    0.2426954 -85.88  0.001642218    1.736    0.424
       157  -9.8296    163.5038     50.0347   7.5788656516e+01   3.8121770627e+01    0.2827465    0.2189635 -26.64  0.001279532    1.464    0.317
       158  -8.6066    130.7962     53.8063   8.3764585213e+01   4.5258432285e+01    0.2465113    0.1439647  20.81 0.0009518704    2.837    0.648
       159  -8.7424    105.0829     53.0396   9.0122953602e+01   5.0879006078e+01     0.266905    0.1813753 -46.55 0.0006292752    1.685    0.407
       160  -8.5498    105.8160     48.8056   8.8512701670e+01   5.1365111057e+01    0.3281014    0.3069634   1.05  0.002027273    1.062    0.059
       161  -8.6330     43.8733     53.9350   1.1062904737e+02   6.0523364916e+01    0.1947632    0.1389696 -21.57 0.0004904416    1.256    0.204
       162  -8.7706    157.4221     49.2289   7.6708425578e+01   3.9700950857e+01    0.1994708    0.1261577 -48.04 0.0008367801    1.712    0.416
       163  -9.7164    149.4783     47.7322   7.7840033028e+01   4.1807333996e+01    0.4296848    0.1384381 -33.32  0.001499173    3.300    0.697
       164  -9.8360    130.5458     45.7488   8.1308733266e+01   4.6475850088e+01    0.8767817    0.3750481 -18.47  0.002575023    4.520    0.779
       165  -9.1877    139.3371     40.5437   7.7771677805e+01   4.5160829227e+01    0.4671128    0.2977305 -52.84  0.001715905    1.908    0.476
       166  -8.8458    132.8627     36.0815   7.7765006214e+01   4.7219870877e+01    0.3554447    0.2500067 -57.96  0.001401093    1.801    0.445
       167 -10.5759    133.9657     31.0590   7.5963655036e+01   4.7575746900e+01    0.3184333    0.2459945   8.24   0.00178313    1.547    0.354
       168  -8.8483    111.7729     47.1470   8.6363743537e+01   5.0376614503e+01    0.2651874     0.207149 -23.52 0.0007283825    1.336    0.251
       169  -8.2028    209.8540     44.8241   6.7212323414e+01   2.7711618064e+01    0.1898497     0.171853  70.81 0.0004727757    1.179    0.152
       170 -10.1252     69.7854     40.6904   9.6683488177e+01   5.9094680977e+01    0.8140329    0.4672115 -20.39  0.002872695    1.889    0.471
       171 -10.0731     76.0327     31.9681   9.1396158978e+01   5.9257427991e+01    0.3088192    0.2577849  62.58  0.001141912    1.686    0.407
       172  -9.9810    153.0289     41.5504   7.5336786575e+01   4.1806016798e+01    0.3798933    0.2507711 -87.26  0.001248034    2.048    0.512
       173  -9.4509    104.9561     39.9133   8.5741280684e+01   5.2783097198e+01    0.5267698    0.2610053 -27.39  0.001915373    2.206    0.547
       174  -9.4727    110.2561     33.7071   8.2248598778e+01   5.2479461424e+01    0.3894943    0.2453484 -34.09  0.001234162    1.712    0.416
       175 -10.5190     89.1676     38.0970   8.9572873584e+01   5.6105768729e+01    0.7251586    0.2904236  38.23  0.002969716    2.495    0.599
       176  -8.7305    191.0303     41.6388   6.9028480633e+01   3.2629300213e+01    0.2184497    0.1946209   4.31 0.0005896937    1.479    0.324
       177  -8.5830     53.2149     39.2024   1.0201600926e+02   6.1754675026e+01    0.1681093     0.155686 -69.60   0.00112751    1.711    0.416
       178  -8.9955     49.7783     36.3250   1.0223593416e+02   6.2640326076e+01    0.2795345     0.190546 -20.65  0.001003416    1.310    0.237
       179  -8.7949    219.1897     37.6954   6.4420183256e+01   2.6524899141e+01    0.2229409     0.192147  61.50 0.0006749271    1.303    0.232
       180  -9.1931    143.9167     36.5040   7.5615879637e+01   4.4609778321e+01    0.2446804    0.1966078 -70.73 0.0005762623    1.459    0.314
       181  -8.7906    118.8651     34.8554   8.0529517361e+01   5.0495479615e+01    0.2621759    0.1801163 -33.14 0.0008152502    1.574    0.365
       182  -9.1719     59.9128     33.6991   9.7520651065e+01   6.1600003045e+01    0.2751007    0.2127998 -34.48 0.0009878891    1.398    0.285
       183  -9.3339    101.0393     32.1090   8.4091125765e+01   5.4571081375e+01    0.2794949    0.1750124 -38.41  0.000854063    1.791    0.442
       184  -8.6349    173.5829     32.2111   6.9200777100e+01   3.8055850754e+01    0.2270718    0.1825065  36.85  0.001091072    1.447    0.309
       185  -9.8804    172.8087     26.4072   6.7775434716e+01   3.8935371712e+01    0.4705011    0.2860244 -78.60  0.001777215    2.058    0.514
       186  -9.1493    188.8191    234.6942   1.1300741902e+02  -3.0327700516e+00    0.2381884    0.1805227 -80.44   0.00125079    2.216    0.549
       187  -9.1820     42.4391     28.0349   1.0189845968e+02   6.4761729678e+01    0.2447433    0.1422084 -11.84 0.0003693895    1.829    0.453
       188  -9.3051    190.9848     29.1545   6.5919731696e+01   3.4250217759e+01     0.488442    0.2341209 -77.58  0.001755991    3.619    0.724
       189  -8.7558     92.3091     20.8066   8.2397896400e+01   5.7586099991e+01    0.4097579    0.1451392  38.69   0.00158003    2.842    0.648
       190  -9.3441     14.6373    234.6115   1.4691619715e+02   2.3584635237e+01    0.1900874    0.1477954 -82.32  0.001413407    1.298    0.230
       191  -9.4302     72.2126     26.1098   9.0408462293e+01   6.0637347908e+01    0.4818163    0.2425708  41.54  0.002518433    1.835    0.455
       192  -9.4347     79.4989     23.8117   8.7228779417e+01   5.9644102350e+01     0.440909    0.2065111  29.39  0.001756574    2.408    0.585
       193  -9.1686     84.8524     22.0913   8.4979089436e+01   5.8863026899e+01    0.2550769    0.2133613  43.99 0.0009980542    1.228    0.186
       194 -11.7720     49.9457    225.2234   1.3979567465e+02   2.1374976283e+01     1.254538    0.5681245  61.15  0.006106299    2.172    0.540
       195 -10.0525    161.4598    214.2677   1.1516853626e+02   5.5072554208e+00     0.245476    0.2165577  50.00 0.0002512576    1.085    0.078
       196  -8.3352    144.3289     26.0161   7.2396199996e+01   4.5753875315e+01    0.1757149    0.1718682 -44.61 0.0007173808    1.146    0.127
       197  -8.9941    128.4149     25.8004   7.5461854367e+01   4.9434601217e+01    0.2340911    0.1951668 -73.69 0.0007081067    1.465    0.317
       198  -8.8096     10.9721    207.1826   1.4569597019e+02   2.9673711774e+01    0.2306769    0.1760883  17.87  0.001353591    2.091    0.522
       199  -8.4881    111.6067     21.5822   7.7791829675e+01   5.3571626043e+01    0.2892053    0.1106911 -32.58  0.001248985    2.785    0.641
       200  -8.6133     22.0459    203.6972   1.4330416636e+02   2.9312959355e+01    0.2501592    0.1785398 -36.90  0.001364176    2.323    0.570
       201  -9.5604    118.9352     21.6145   7.6138814512e+01   5.1987555594e+01    0.2125633    0.1880972 -37.99 0.0006332048    1.302    0.232
       202  -8.9967    102.9759     21.1059   7.9715961706e+01   5.5424524330e+01    0.2646824    0.1713045 -35.60 0.0007968039    1.754    0.430
       203 -10.0221    192.3394    194.9558   1.0512274402e+02   3.4633285787e+00    0.9462382    0.4601326 -62.89  0.002740799    5.319    0.812
       204  -8.2988    162.8017    199.3460   1.1223250845e+02   8.2388508440e+00    0.2204779    0.1744036  59.18 0.0006080183    1.346    0.257
       205  -9.3861     40.8967     20.5660   9.9514785533e+01   6.5947277420e+01    0.1930089    0.1355651 -19.11 0.0003827382    1.228    0.186
       206  -8.3761     46.9729     19.5327   9.6713198888e+01   6.5279843906e+01    0.1967952    0.1320021  -2.44 0.0007742926    1.368    0.269
       207  -8.1879    230.7777    168.5784   9.2186718141e+01   1.2076453071e+00    0.3215488    0.1557715 -57.34  0.001099836    3.613    0.723
       208  -7.6947    179.2908    164.3328   1.0158045440e+02   1.2290641012e+01    0.1539171     0.120933  -6.04 0.0007020936    1.631    0.387
       209  -9.0791    189.7003     15.4484   6.2724211870e+01   3.6133541469e+01    0.2830372     0.207287  89.27 0.0008325289    1.234    0.190
       210  -9.2489    132.9876     17.5095   7.1935095582e+01   4.9266348599e+01    0.1993524     0.113064  60.37 0.0004320164    1.537    0.349
       211 -10.4457     17.1616     61.8214   1.2310366244e+02   6.1566290087e+01    0.5150472    0.3277861 -38.15  0.003143091    1.253    0.202
       212  -8.5245    175.0549    151.8967   9.9750439798e+01   1.5862118759e+01    0.2227656    0.2163837 -66.26 0.0003061127    1.029    0.029
       213  -8.7280    134.0000    148.5097   1.0863825764e+02   2.5334473815e+01    0.4468555    0.1590297 -51.85  0.001420767    2.853    0.649
       214  -8.6200    133.3718    144.1656   1.0781797218e+02   2.6479643725e+01    0.3544497      0.14586 -50.16  0.001218807    2.394    0.582
       215 -10.2926    221.6826    146.1899   8.9017717821e+01   7.1940257810e+00    0.2591961    0.2401587  62.86 0.0005244755    1.194    0.163
       216  -9.5069     66.7668    144.3169   1.2536888438e+02   3.8020739375e+01    0.4596576     0.290872  62.53  0.002166002    1.936    0.484
       217  -8.1503    112.2124    134.0362   1.1096491708e+02   3.3059129614e+01    0.2987513    0.1954248  69.56  0.001210121    2.171    0.539
       218  -9.9392    135.0765    131.8083   1.0449496613e+02   2.8992305661e+01    0.5318545    0.3763004 -35.17  0.002367284    1.549    0.354
       219  -7.9345    161.3517    130.3334   9.7773421764e+01   2.3596587379e+01    0.1638116    0.1278932   1.68 0.0007046466    1.782    0.439
       220  -8.9829     91.2446     26.3981   8.4741247873e+01   5.7172159377e+01    0.2629454    0.1908178 -40.17 0.0008152629    1.644    0.392
       221  -9.6324     98.3096    128.5662   1.1348042070e+02   3.6900888207e+01    0.5367877    0.3420397  81.33  0.002037879    2.786    0.641
       222  -9.2667     66.3282    128.8816   1.2254223377e+02   4.1819507046e+01    0.3270391    0.2709059  73.85  0.001823181    1.359    0.264
       223  -8.3868    141.7947     12.5914   6.8844908509e+01   4.7720880145e+01    0.1761192    0.1117918  75.15 0.0003661669    1.577    0.366
       224 -10.0043     71.0289    125.9062   1.2058785421e+02   4.1877811558e+01    0.5216822    0.3485792 -85.16  0.001656016    1.985    0.496
       225 -10.1174     58.2464    124.7419   1.2402288404e+02   4.3866647494e+01    0.6134645    0.3726068  80.54  0.002579097    2.732    0.634
       226  -9.4594    240.3213    127.9726   8.1772821964e+01   6.8991071060e+00    0.2350814    0.2089317  57.73 0.0002143028    1.260    0.206
       227  -7.7431    226.2835    127.5904   8.4029403163e+01   9.8194386864e+00    0.1553291    0.1066189 -66.32 0.0001463945    1.802    0.445
       228 -10.0654    117.1198    125.5305   1.0764019649e+02   3.4105311340e+01    0.5492218    0.3784806  86.36  0.001439208    2.270    0.559
       229  -8.3867    112.4755    126.0513   1.0901412093e+02   3.4886986810e+01    0.2413422    0.1463203 -49.99  0.001028976    1.582    0.368
       230  -8.8144     63.5379     26.5822   9.3504436251e+01   6.1987310199e+01    0.4615087    0.1776174  43.63   0.00212716    2.574    0.612
       231  -9.9616    135.0908    121.8876   1.0204514467e+02   3.1243791490e+01    0.5959975    0.2673328 -50.28   0.00189848    2.259    0.557
       232 -10.0648    130.3347    118.9063   1.0250959425e+02   3.2921568366e+01      0.49902    0.3210545 -72.09  0.001363839    2.291    0.564
       233  -9.4383     27.2644    122.9362   1.3255934721e+02   4.7588330519e+01    0.4878598    0.2589099  72.07  0.002079442    3.183    0.686
       234  -9.0872     41.2217    121.7729   1.2836998491e+02   4.6524081796e+01    0.4420195    0.2057352 -74.74  0.001802544    2.631    0.620
       235 -10.1819    140.4839    118.0538   9.9712340804e+01   3.0931667658e+01    0.5365688    0.3121948 -57.37  0.001246196    1.957    0.489
       236  -9.7431    127.8098    102.7090   9.8900745266e+01   3.6990995551e+01     0.389523    0.3197519 -70.37 0.0009371093    1.401    0.286
       237 -11.3820    121.0140    108.9651   1.0238495183e+02   3.7064512637e+01     1.583786    0.5388998 -45.40   0.00492148    2.864    0.651
       238 -10.1910    123.2633     91.5995   9.7008947038e+01   4.0249896989e+01    0.5074328    0.4567035   4.12   0.00125634    1.202    0.168
       239  -9.9439    108.4359    114.4226   1.0724291625e+02   3.8334923997e+01    0.5342203    0.3478955 -77.72  0.001581676    2.454    0.593
