#   1 NUMBER                 Running object number                                     
#   2 MAG_AUTO               Kron-like elliptical aperture magnitude                    [mag]
#   3 X_IMAGE                Object position along x                                    [pixel]
#   4 Y_IMAGE                Object position along y                                    [pixel]
#   5 X_WORLD                Barycenter position along world x axis                     [deg]
#   6 Y_WORLD                Barycenter position along world y axis                     [deg]
#   7 A_WORLD                Profile RMS along major axis (world units)                 [deg]
#   8 B_WORLD                Profile RMS along minor axis (world units)                 [deg]
#   9 THETA_WORLD            Position angle (CCW/world-x)                               [deg]
#  10 FWHM_WORLD             FWHM assuming a gaussian core                              [deg]
#  11 ELONGATION             A_IMAGE/B_IMAGE                                           
#  12 ELLIPTICITY            1 - B_IMAGE/A_IMAGE                                       
         1 -11.8228     60.3095     47.1925   8.0911171878e+01   6.0181741451e+01     1.438517    0.9309801  24.41   0.00768728    1.605    0.377
         2 -11.4335     75.8893     43.6486   7.3816682060e+01   5.8258701138e+01     1.025003    0.4336384 -21.42  0.003410998    3.872    0.742
         3 -12.5784     38.2210     88.2457   1.0210762314e+02   5.4313178370e+01     2.983023    0.5965136 -55.20  0.009787424    3.440    0.709
         4 -11.4321     83.3555     18.9085   6.0996391452e+01   6.0215614299e+01    0.9962209    0.5051051  42.46  0.004890184    1.781    0.439
         5 -11.0108     65.7741     20.2965   6.7401608237e+01   6.3323421429e+01    0.5670573    0.4191648 -57.83  0.003021186    2.446    0.591
         6 -11.7829     51.0168     10.0120   6.8020604142e+01   6.6991617820e+01     1.279064    0.6612138   7.38  0.005990531    2.529    0.605
         7 -12.5032     20.2990     65.3079   1.0305011206e+02   6.1004030409e+01     3.149731    0.8038946 -46.68   0.01240496    2.761    0.638
         8 -12.0054    106.4242     32.7365   6.0163640113e+01   5.3805311222e+01     1.255977    0.6724669   8.71 0.0004859099    3.179    0.685
         9 -11.9003    128.8303     20.5989   5.0503636419e+01   5.0118255796e+01     1.569038    0.4718666  44.81  0.005452825    3.267    0.694
        10 -12.5907     52.0613     22.4839   7.3645541569e+01   6.5275757790e+01     3.293678     1.480658  -9.09   0.01007917    5.765    0.827
        11 -13.3742     70.2240     31.3283   7.0712777485e+01   6.1096814850e+01     1.490945    0.7756851  47.15  0.007141105    2.135    0.532
        12 -12.0302     55.1696     66.5085   8.9765861843e+01   5.7201758758e+01     1.557358    0.6493821 -45.74  0.006626301    2.052    0.513
        13 -10.8828    163.7148     52.9199   5.4444358484e+01   3.7750783103e+01     1.872429    0.7330773 -40.45   0.00696444    2.520    0.603
        14 -11.6005    149.3575     65.2271   6.1172715533e+01   3.9275215870e+01     1.138347    0.6210764 -35.42  0.004816311    1.789    0.441
        15 -12.1530    102.0710     54.2317   6.9472279052e+01   5.1587180602e+01     1.681652     1.163304 -24.29  0.008390536    1.424    0.298
        16 -11.0078     23.4379     28.5977   8.9214850744e+01   6.7916952901e+01    0.8753511    0.3047369 -38.44  0.004006703    2.337    0.572
        17 -12.0122      4.1300     26.9042   9.8197785961e+01   6.9766341391e+01       1.0078     0.293183 -41.18  0.004676341    2.427    0.588
        18 -11.4809     12.2015     25.2747   9.3403093344e+01   6.9478205344e+01    0.4183465     0.207037 -25.19 0.0008585804    1.865    0.464
        19 -11.9969     30.5597     24.7281   8.4124826540e+01   6.7801075907e+01     1.030837    0.3769188 -34.71  0.004002748    2.392    0.582
        20 -11.9103     17.0621     38.1596   9.6009475172e+01   6.6767806469e+01      1.05478    0.6746155 -21.03  0.006477854    1.407    0.290
        21 -12.8516     18.6771     15.6208   8.5738007493e+01   7.0470696504e+01      1.61577    0.5494657 -47.79  0.006704232    3.669    0.727
        22 -12.2555     25.1871      8.5172   7.8827327643e+01   7.0773179781e+01    0.6951836    0.3271499 -37.01  0.001772516    2.017    0.504
        23 -13.3501      5.2016      9.8722   9.0252981335e+01   7.2550799015e+01     0.645978    0.4835132 -23.17  0.002471016    1.107    0.097
        24 -11.9615     10.3801      3.5577   8.4056844493e+01   7.3022202263e+01    0.3739493    0.2780178  15.14  0.001443922    1.409    0.290
        25 -12.1773      3.0060      2.9596   8.8007808508e+01   7.3758839034e+01    0.3973348    0.2435322  15.00  0.002721011    1.613    0.380
        26 -11.4220    214.5691     25.1153   3.9608229894e+01   2.9285556742e+01     1.279266    0.7976079 -18.44  0.006662314    1.943    0.485
        27 -10.7467    226.8433      6.9505   3.4242380716e+01   2.8528884389e+01    0.6137521    0.3654393  23.37  0.002883782    3.349    0.701
        28 -11.0067    216.9431      3.5269   3.4234653730e+01   3.1025981766e+01    0.4018332    0.2996579 -64.19  0.001227081    1.198    0.165
        29 -10.1837    204.7544     23.6136   4.0263084307e+01   3.1694006042e+01    0.7557004    0.3077475 -19.97  0.002940364    3.314    0.698
        30  -9.8722    205.3744     15.6863   3.8197769988e+01   3.2410464376e+01    0.4185947    0.3165218  43.77  0.002479832    1.555    0.357
        31 -10.8169    208.5318      4.3770   3.5128868097e+01   3.2820299183e+01    0.5032747    0.3379588 -56.94  0.002599033    1.393    0.282
        32  -9.6265    221.1880     13.7219   3.6256755153e+01   2.9062915100e+01     0.280691    0.2263532  75.01  0.001039988    1.229    0.186
        33 -10.6346    213.2794     11.7619   3.6489253552e+01   3.1024442805e+01    0.5524975    0.3326502  83.68  0.002539682    1.628    0.386
        34  -9.8460    241.7177     24.1423   3.6875859613e+01   2.3506732773e+01    0.5116538    0.1726048 -47.86  0.002211768    2.575    0.612
        35 -13.1498    115.4810     14.8604   5.1147342773e+01   5.3762932676e+01     1.614111     1.118839  30.43  0.008872602    1.408    0.290
        36 -10.6646    157.4825      5.9650   4.0996651863e+01   4.4647389238e+01    0.7349122    0.3236649 -17.49  0.003242339    2.674    0.626
        37 -11.2071    176.9594     21.3786   4.2972059928e+01   3.8496285568e+01     1.024374     0.462114 -24.90  0.004480749    2.381    0.580
        38 -10.2325    181.7638     15.7156   4.0777326871e+01   3.7932519614e+01    0.5574987    0.2580781  53.65  0.002553772    2.085    0.520
        39 -11.1187    161.7913     18.0503   4.4079746483e+01   4.2494380454e+01    0.7732441     0.541853  -4.76  0.004120104    1.731    0.422
        40 -11.3670    169.4666     14.1205   4.1856361418e+01   4.1032343858e+01    0.7161674    0.4594222  60.00  0.003105724    1.432    0.302
        41 -11.0419    154.2329     17.5611   4.5052930911e+01   4.4366427179e+01     0.475092    0.3314062  31.81 0.0004216638    1.593    0.372
        42 -11.2344    149.4450     15.9706   4.5291323938e+01   4.5673884120e+01    0.6998749    0.4551115 -14.16  0.001767194    1.749    0.428
        43 -11.0999    164.1728      5.9040   4.0119919765e+01   4.3051369517e+01     1.009398    0.6403702  47.62  0.005472197    1.564    0.361
        44  -9.5449    232.6234     17.8218   3.6226241091e+01   2.6139561026e+01    0.4125035    0.1532515 -48.75   0.00184731    2.416    0.586
        45 -10.6082    247.4262     18.7987   3.5261455240e+01   2.2942692985e+01    0.4451484    0.2578455  89.36  0.001775278    1.796    0.443
        46 -12.7817     91.4240     19.2026   5.8782096670e+01   5.8556651770e+01     3.389261    0.9329828 -19.90   0.01008812    5.326    0.812
        47 -10.1917    233.4967     10.5067   3.4524256262e+01   2.6740447648e+01    0.4343704    0.2052999 -61.05  0.002157953    2.131    0.531
        48 -10.4009    234.0173      6.9722   3.3708333811e+01   2.6995864273e+01    0.2499479    0.2267823 -20.94 0.0007843223    1.360    0.265
        49 -10.0912     41.8473      3.4951   6.8404242468e+01   6.9127159205e+01    0.5333795     0.195891 -24.44  0.002485168    2.609    0.617
        50  -9.2373     36.6227      5.9907   7.2031349640e+01   6.9609412184e+01    0.2154797      0.16537  15.68 0.0007783048    1.170    0.145
        51  -9.8671     39.2594      9.2795   7.2582258434e+01   6.8848481766e+01    0.3249182    0.1685563  29.17  0.001193642    1.826    0.452
        52 -10.0538     31.3906     12.0225   7.7616307196e+01   6.9552435466e+01    0.2682454    0.1698282 -19.66 0.0008036321    1.312    0.238
        53  -8.9555     82.5388      8.5404   5.6669495882e+01   6.1424247521e+01    0.2115313    0.1534112  55.71     0.000665    1.463    0.317
        54  -9.9043     77.7245      9.0509   5.8303354515e+01   6.2329975501e+01    0.2946286    0.2115359  37.47 0.0005817189    1.217    0.178
        55  -9.4507     77.7703      4.4832   5.6201328542e+01   6.2732352698e+01    0.3429858    0.1829813  27.75  0.001315746    1.822    0.451
        56 -10.8542    139.4652      4.6484   4.3145596533e+01   4.9054434083e+01    0.5715796    0.3110977 -13.38  0.002354755    2.132    0.531
        57 -10.6534    132.7002      4.4838   4.4162291215e+01   5.0665564413e+01     0.438966    0.4160835 -21.29   0.00208072    1.171    0.146
        58 -10.9525    243.6150      3.6174   3.2323744749e+01   2.5342995505e+01    0.4967256    0.2454004 -44.35  0.002278657    1.690    0.408
        59 -10.0350    250.1078      7.0482   3.2607968806e+01   2.3675777318e+01    0.2851267    0.1978463 -53.56  0.001204516    1.187    0.158
        60  -9.7204    248.8633      1.9472   3.1642073171e+01   2.4449190985e+01    0.2415002    0.1901487 -56.56 0.0008211902    1.073    0.068
        61 -10.7275    183.1050      4.9742   3.7691249642e+01   3.8633716339e+01     0.555806    0.3540115 -86.62  0.002311169    1.611    0.379
        62  -9.5885    189.2870      4.6522   3.6973416627e+01   3.7213085969e+01    0.3163348    0.1285565 -44.81  0.001290297    2.420    0.587
        63  -9.6055     67.5288      5.9741   6.0056211847e+01   6.4556539330e+01    0.2803277    0.1852036 -12.72 0.0007504521    1.446    0.309
        64 -10.6278     71.6049      3.9856   5.7811916690e+01   6.3971329498e+01    0.4140708    0.3324636 -49.15   0.00257156    1.821    0.451
        65  -8.9971    145.5118      4.7627   4.2279395063e+01   4.7607746105e+01    0.2298036    0.1175695 -28.96  0.001119337    2.061    0.515
        66  -9.5680     84.3671      3.5884   5.3962232072e+01   6.1482512129e+01    0.3157421    0.1886678   8.71 0.0009831442    1.774    0.436
        67 -11.0220    200.4556      6.0680   3.6262926429e+01   3.4496343230e+01    0.5928255    0.2814102 -38.65   0.00297382    1.978    0.495
        68 -12.5559    105.4420      8.6270   5.0927023220e+01   5.6573699178e+01     1.078962    0.7539294  30.59  0.006168463    1.333    0.250
        69  -9.2594    113.1360    107.3519   8.3176499878e+01   3.8856087960e+01    0.3313246    0.2477165 -53.12 0.0006517596    1.354    0.261
        70  -8.8677    110.7797    104.3885   8.3024592518e+01   3.9969732662e+01    0.3043434    0.1515993  35.88  0.001060565    2.220    0.549
        71  -8.8167    117.6244    107.1766   8.1875438183e+01   3.8023641855e+01    0.2360835    0.1372262 -36.22 0.0009573824    1.737    0.424
        72 -11.0078     72.1793     66.3989   8.3538360226e+01   5.4787930054e+01     1.901246     1.111076  -4.64  0.007517536    2.866    0.651
        73 -12.2402     43.7173     53.3898   8.9797359350e+01   6.1238773431e+01     1.055683    0.4165676  34.15  0.001916253    2.831    0.647
        74  -8.7373    235.6743    249.3585   8.5887197269e+01  -9.0822098804e+00   0.09670495   0.09120733  33.66 0.0007043884    1.779    0.438
        75  -8.9705      3.8750    246.2625   1.2778807423e+02   2.1918968578e+01    0.1785316    0.1070282 -58.82  0.001231615    2.184    0.542
        76 -11.9465     51.4063     98.5099   1.0003293430e+02   5.0508817314e+01     1.861156    0.7129892 -49.12  0.006603352    2.150    0.535
        77  -8.9024     55.9862    237.9955   1.1830093174e+02   1.7959381362e+01    0.1402885    0.1125761  69.07 0.0007736434    1.016    0.016
        78  -9.0631     21.1288    232.6367   1.2420613346e+02   2.2800262295e+01    0.1798155    0.1164684  77.29   0.00071668    1.245    0.197
        79  -8.9636     12.3965    231.7475   1.2567371957e+02   2.3818457172e+01    0.2039365   0.09686725  49.47  0.001272129    1.730    0.422
        80  -8.5806    226.8740    231.6252   8.4496666503e+01  -5.6651722191e+00    0.1545896    0.1014118  37.44 0.0003599391    1.615    0.381
        81  -8.7826    202.1771    228.8766   8.8583746046e+01  -1.7018569770e+00    0.1737879    0.1514394  22.07 0.0003645644    1.196    0.164
        82  -9.0627    248.6592    226.6726   7.9815014161e+01  -7.9723328446e+00    0.1281668    0.0746049   1.26 0.0007051451    1.736    0.424
        83 -11.6216     30.4028     72.8595   1.0110234390e+02   5.8528966264e+01    0.9723344    0.3461236 -44.57  0.003686389    2.266    0.559
        84 -12.2965     32.6519     59.1471   9.6246826537e+01   6.1261579859e+01    0.7891404     0.577664  36.27  0.001713636    1.730    0.422
        85  -8.9516     41.1733    221.7632   1.1979984221e+02   2.2832104553e+01    0.1438475    0.1267494 -70.79 0.0005305539    1.331    0.249
        86 -10.3579    239.7224    206.5262   7.7688229156e+01  -4.0129434686e+00    0.3249529   0.09605714 -40.36  0.001226606    3.578    0.721
        87 -11.5338     86.4859     51.8397   7.3420033972e+01   5.5012439611e+01    0.5063103    0.4062381  58.94 0.0004748955    1.657    0.396
        88  -9.9151    233.6260    199.8284   7.7493831994e+01  -2.1310684699e+00    0.1746721    0.1101512 -38.79 0.0009445655    1.664    0.399
        89 -11.6149     80.0146     33.4513   6.8258372300e+01   5.9040802503e+01    0.3696722    0.3053569  32.55 0.0003262465    1.204    0.170
        90 -12.3849     56.2009     38.3746   7.8972756487e+01   6.2277984553e+01    0.5965581    0.3499318 -10.86  0.002877637    2.036    0.509
        91 -11.7947     49.3868     39.5511   8.2204364562e+01   6.3044279896e+01    0.5025677    0.3341599   5.17 0.0008936072    1.592    0.372
        92 -12.0275    144.5995    100.6959   7.2988780655e+01   3.3773939690e+01    0.9002299    0.4468393  28.49  0.002891328    3.301    0.697
        93  -9.4527     38.7637    102.9156   1.0518624706e+02   5.0787650487e+01    0.2918637    0.2235848  -3.61  0.001482968    1.588    0.370
        94  -9.5374    133.5076    102.0088   7.6161202198e+01   3.5894601067e+01    0.3335574    0.2641166 -48.82 0.0007835521    1.272    0.214
        95  -9.3371    132.3237     98.0131   7.5318550152e+01   3.6982822288e+01    0.3236466    0.2565099 -37.20  0.001201018    1.201    0.167
        96 -10.2072     74.8592    102.3442   9.3337504484e+01   4.6537199976e+01    0.5186177    0.2750725  25.93  0.002115617    2.288    0.563
        97 -11.0417     75.3997     94.7972   9.1155041405e+01   4.8205585007e+01    0.6975085    0.4076872 -34.05  0.002243126    1.785    0.440
        98  -9.7754     82.5765     87.1941   8.6645724220e+01   4.8786193021e+01    0.5912984    0.2295736 -46.45  0.001649546    2.324    0.570
        99  -9.4990     63.8610    101.6383   9.6692723363e+01   4.8234689056e+01    0.5414617     0.438839  42.80  0.002991193    1.434    0.303
       100 -11.9106      3.2704     89.0634   1.1443010799e+02   5.6670821959e+01     1.582827     0.315659 -71.39  0.001825972    5.312    0.812
       101 -11.0956      7.3718     85.6084   1.1241791284e+02   5.7256103645e+01    0.4547273    0.3463123 -88.41  0.000656379    1.449    0.310
       102 -10.0681    156.2030     96.7615   6.9109995881e+01   3.1978124364e+01    0.3866724    0.2502424 -29.52            0    1.590    0.371
       103  -9.7405     88.0380     96.9231   8.7719764233e+01   4.5722143291e+01    0.3919397    0.2779139  47.21  0.001890006    1.638    0.389
       104 -10.4038    116.9911     94.4285   7.8404814283e+01   4.0917459489e+01    0.5526516    0.4461156  23.41  0.002469417    1.338    0.252
       105  -8.8922    189.1020     93.9980   6.1475859681e+01   2.5006655971e+01    0.2430846    0.1825796   6.47   0.00111814    1.730    0.422
       106  -8.7994    126.4905     93.4835   7.5525579353e+01   3.9156742683e+01    0.2397738    0.1866127   2.85 0.0007196466    1.544    0.352
       107  -9.6127    122.9910     91.9842   7.6021180247e+01   4.0198889974e+01    0.3194892    0.2277534  58.80  0.001436399    1.721    0.419
       108  -8.8197    103.8410     92.4175   8.1597711367e+01   4.3911734334e+01    0.3003806    0.1853613  21.97  0.001235303    2.116    0.527
       109  -9.0356    107.0000     86.9167   7.9000479825e+01   4.4472568821e+01     0.504844    0.1327179 -42.15  0.001132956    3.607    0.723
       110  -8.6881    108.9742     83.7288   7.7433033737e+01   4.4741618669e+01    0.2078259    0.1745126  -0.64 0.0004409574    1.263    0.208
       111  -9.8108     66.2634     88.8472   9.2538382425e+01   5.0876410664e+01    0.4204983    0.3085808 -64.93   0.00107888    1.543    0.352
       112  -8.6093    134.2424     93.3487   7.3453569586e+01   3.7528632228e+01    0.1563941    0.1179858 -10.69 0.0002056246    1.574    0.365
       113  -8.0695    187.2978     89.6339   6.0632274463e+01   2.6195557120e+01    0.1584012    0.1133989 -63.53 0.0007031961    1.725    0.420
       114  -8.9528    112.4462     88.2707   7.7837281579e+01   4.3118717873e+01    0.2965603    0.1409543 -36.86  0.001113427    2.090    0.522
       115 -10.0421     90.4627     87.3917   8.4182873394e+01   4.7417101915e+01    0.5149612    0.3606082  38.51  0.001402523    1.543    0.352
       116  -9.8151    146.5128     86.4741   6.8365308748e+01   3.6158683297e+01    0.4312355    0.2715569  45.09  0.001879426    1.635    0.389
       117  -9.9013    146.5471     82.9922   6.7308381118e+01   3.6807083837e+01     0.412877    0.3059114 -18.74  0.001393895    1.481    0.325
       118  -9.3578    133.3251     85.2976   7.1262290424e+01   3.9328738255e+01    0.5617035    0.2999859 -18.50  0.001561206    3.182    0.686
       119  -9.6284    134.0193     79.9461   6.9429459413e+01   4.0199812990e+01    0.4199597    0.2153859  54.95  0.001613796    2.245    0.555
       120 -10.0825    119.1450     86.2875   7.5342714180e+01   4.2161333880e+01    0.3584675    0.3094099   9.49   0.00142661    1.218    0.179
       121  -8.9381    156.4875     84.5393   6.5492004751e+01   3.4238348062e+01    0.3277452    0.1914031 -27.73   0.00115523    1.842    0.457
       122 -11.5146    161.3011     81.9376   6.3670521464e+01   3.3595457060e+01    0.4217257    0.2889458  56.16  0.001928133    1.560    0.359
       123  -8.3928     72.6989     84.3159   8.9059130768e+01   5.0960209021e+01     0.152506     0.129533 -28.73  0.000423003    1.067    0.063
       124  -8.4688     75.9353     84.0000   8.7878319857e+01   5.0537285326e+01    0.2478616    0.1644882  38.47 0.0004564083    1.676    0.403
       125 -10.4836     98.9087     76.2635   7.8051505623e+01   4.8193427918e+01    0.6173167    0.3753852 -42.86  0.002587403    1.572    0.364
       126  -9.8393    102.2568     81.8430   7.8827551640e+01   4.6432419325e+01    0.4277599    0.2864461  17.58  0.001890763    1.888    0.470
       127 -10.5587    106.0728     77.5924   7.6328433510e+01   4.6544793373e+01    0.4163011    0.3313411  44.63  0.001258831    1.354    0.262
       128 -10.0790    123.1869     79.7965   7.2207762200e+01   4.2590919885e+01     0.368974    0.2590106  29.33  0.001347732    1.571    0.363
       129  -9.1334     11.5909    192.5362   1.2342942832e+02   3.1916738137e+01    0.2117602   0.07209991  43.73  0.001036982    2.617    0.618
       130 -10.9403      9.9144     76.7096   1.0976332421e+02   5.9152973175e+01    0.2434756    0.1483451 -57.04 0.0003361383    1.241    0.194
       131 -10.5178      5.3069     77.1036   1.1154301910e+02   5.9317117924e+01    0.3171023    0.2378809  55.66 0.0006995494    1.797    0.444
       132 -10.3697      3.7564     72.7974   1.1125619745e+02   6.0368163548e+01    0.3122164    0.1494565 -56.48 0.0009802043    1.498    0.332
       133  -9.6935    188.8386     77.5509   5.7035267348e+01   2.7916059809e+01    0.5126337    0.2119457  40.13  0.001703061    3.335    0.700
       134  -8.8042    169.6150     78.1871   6.0843974401e+01   3.2310840735e+01    0.2138208    0.1418564 -22.94 0.0004154165    1.651    0.394
       135 -10.8958    145.4988     76.1262   6.5451358260e+01   3.8302689665e+01    0.5541283    0.3835397  14.12 0.0005608644    1.964    0.491
       136 -10.7758    139.6094     69.5911   6.4782635107e+01   4.0806869956e+01    0.7895176    0.7010045  69.62  0.002564424    1.277    0.217
       137 -10.6484    131.5508     56.9905   6.2576945953e+01   4.4741291526e+01     1.147327    0.7148531   5.82   0.00457986    2.498    0.600
       138 -10.1846    136.6238     33.2640   5.3355363679e+01   4.6868003508e+01    0.6247104    0.3355202  20.94  0.001846439    2.953    0.661
       139  -9.3138    124.0119    205.9985   1.0083320262e+02   1.4752171382e+01    0.1901535    0.1761016  51.02            0    1.029    0.028
       140 -10.9802    155.7551     43.5601   5.3017933156e+01   4.0976557164e+01     1.130193    0.9152756  32.00  0.006087141    1.304    0.233
       141 -10.9486    149.0450     34.6316   5.1402355409e+01   4.3736132005e+01     1.222274     0.282654  55.37  0.003899524    3.527    0.716
       142  -8.9508     11.4219    184.7523   1.2290326319e+02   3.3640789024e+01    0.1823995    0.1326676 -63.50 0.0006883699    1.397    0.284
       143 -10.5964    142.1827     44.6045   5.6034458887e+01   4.4085787235e+01    0.5255208    0.3086101  24.25  0.000677967    2.368    0.578
       144  -9.9211    143.8168     58.1667   6.0136674650e+01   4.1709476652e+01    0.2553298    0.2270639  21.70 0.0003748643    1.143    0.125
       145 -12.1315    147.2140     53.7995   5.7989496297e+01   4.1573865994e+01    0.3583456    0.3077185  44.75 0.0002317841    1.148    0.129
       146 -11.5288    145.7697     48.4105   5.6541630224e+01   4.2702121927e+01    0.3521403    0.2909819  35.97 9.560023e-05    1.214    0.176
       147 -10.1432    136.3446     41.7960   5.6327666985e+01   4.5845937868e+01    0.5604312    0.3741591 -59.78  0.002113345    2.028    0.507
       148  -8.5567    202.4589     76.9843   5.4578684053e+01   2.4873709154e+01    0.1944947    0.1266569  -4.93 0.0004471682    2.335    0.572
       149  -9.4145    102.2540     69.0466   7.4631961185e+01   4.8940799521e+01    0.3671003    0.2508939   3.26  0.001322366    1.927    0.481
       150  -9.5575    127.0952     70.0561   6.8035134068e+01   4.3547034756e+01     0.339798    0.2835752  80.31  0.001485112    1.562    0.360
       151 -11.3209    116.9243     70.5235   7.0904183713e+01   4.5665845321e+01     1.109893    0.6779414  17.31  0.004366704    2.451    0.592
       152 -10.5858    110.0898     68.9061   7.2284136037e+01   4.7389639260e+01       0.6145    0.3610533  49.52   0.00203674    1.848    0.459
       153  -9.0776     92.6696     76.6232   8.0110660265e+01   4.9277387583e+01     0.332171     0.239967  24.60   0.00157938    1.502    0.334
       154  -9.2344     70.0336     76.3438   8.7541670081e+01   5.3077350135e+01    0.2818014    0.2182837 -24.47  0.001231238    1.225    0.183
       155 -10.0755    116.4411     64.8789   6.9139463303e+01   4.6779149563e+01    0.6892103    0.3310722  28.81  0.002328278    3.233    0.691
       156  -9.3021    167.3295     73.3383   5.9882258900e+01   3.3677842388e+01    0.3293845    0.2298231  18.55  0.001335387    1.930    0.482
       157  -8.9548    170.0639     70.4861   5.8503185684e+01   3.3505310012e+01    0.2988498    0.1712554  38.95 0.0009427167    2.014    0.503
       158  -9.8616    139.9681     52.1101   5.9002376525e+01   4.3536633137e+01    0.3859101    0.2751603  47.45  0.001211242    1.371    0.270
       159  -8.9424    177.5436     68.7319   5.6582605162e+01   3.2015371018e+01    0.2892042    0.1454888 -28.50  0.001142061    2.093    0.522
       160  -8.3267      8.0260    185.7854   1.2367953833e+02   3.3695803400e+01    0.1448191    0.1089414  88.84 0.0002248402    1.028    0.027
       161  -8.7537    131.9804     67.0188   6.5803362122e+01   4.2987636479e+01    0.2377218    0.1745663  15.87 0.0007823061    1.630    0.386
       162  -8.6117     87.8471     65.1098   7.7784230211e+01   5.2396981739e+01    0.2084443    0.1546455 -17.32 0.0006390187    1.364    0.267
       163  -9.5635    207.5132     61.4606   4.9720012216e+01   2.6126446524e+01      0.30122    0.2206742 -46.82 0.0006077909    1.280    0.219
       164 -10.1595    173.0744     46.9925   5.1014957856e+01   3.6327325392e+01    0.9332481    0.4228056  77.54  0.003039795    3.861    0.741
       165  -8.6180    181.9874     61.0008   5.3580712291e+01   3.2166507894e+01    0.2545626    0.2019664   0.38  0.000400587    1.530    0.346
       166  -9.9124    179.4370     44.4238   4.9238961126e+01   3.5140663928e+01    0.6691632    0.3003047 -15.77  0.002270928    3.672    0.728
       167  -9.1166    182.2063     37.7205   4.6903019482e+01   3.5342030658e+01    0.2719119    0.2508304 -37.42  0.001203865    1.100    0.091
       168 -10.4669    181.4041     32.5192   4.5540403290e+01   3.6171518432e+01    0.6194453    0.4000483 -71.58  0.002890826    1.879    0.468
       169 -10.4628    193.1959     54.1629   4.9868018592e+01   3.0514360267e+01    0.5534965    0.3538174  -7.00  0.002438222    2.257    0.557
       170 -10.8483    184.7494     55.9392   5.1683385063e+01   3.2260992251e+01     0.418453    0.3491275 -68.00 0.0003545558    1.273    0.215
       171 -10.3530    183.5367     51.5266   5.0626574414e+01   3.3183094837e+01    0.3946304    0.3135129  87.15  0.001132727    1.385    0.278
       172  -9.3418    199.8092     59.7626   5.0395688141e+01   2.8152644105e+01    0.3174467    0.2025414  38.88 0.0009958664    1.908    0.476
       173 -10.7225      3.1368     56.2355   1.0775889348e+02   6.4021623350e+01    0.4187129    0.3370902  43.80  0.002857345    1.733    0.423
       174  -9.9056      4.1797     51.6169   1.0611183158e+02   6.4939139660e+01    0.2383309    0.1604798 -40.10 0.0009301287    1.147    0.128
       175  -9.7569    174.3134     56.6138   5.3637601391e+01   3.4659228753e+01    0.5147848    0.2662289 -13.01  0.001815789    3.205    0.688
       176 -10.3498    120.9150     54.3624   6.4322803149e+01   4.7553016740e+01    0.5241033    0.4237328  -8.70  0.002756004    1.271    0.213
       177 -10.1683    116.6943     49.5109   6.3702551376e+01   4.9233735623e+01      0.43055    0.3057377 -29.99  0.001312282    1.393    0.282
       178  -9.4861     11.8576     56.2443   1.0407406756e+02   6.3522870474e+01    0.2229341    0.1553007  27.82  0.001394518    1.802    0.445
       179  -8.2511    198.3267     54.3471   4.9158165839e+01   2.9283351543e+01    0.1435536    0.1078757  21.49 0.0007049846    1.751    0.429
       180  -8.5249      9.5680     52.4654   1.0400278467e+02   6.4455432129e+01    0.1273485   0.08905075 -40.51 -9.945242e-06    1.091    0.084
       181  -8.7817    228.0754     49.6835   4.4121817045e+01   2.3204136066e+01    0.1753866    0.1568359  88.72 0.0005049829    1.148    0.129
       182  -8.4323      1.6701    177.9881   1.2445123415e+02   3.5925612265e+01    0.1994191   0.06574925  80.58 0.0007047162    4.287    0.767
       183  -8.2462     70.2977    174.3654   1.0849066749e+02   2.9712957352e+01    0.1368361   0.09820381 -37.74 0.0007032257    1.723    0.420
       184  -9.3454    246.3097    171.6650   6.9622157425e+01   2.3805022126e-01    0.1224766    0.1017619 -53.02 0.0004789078    1.678    0.404
       185 -11.4934     32.4018    166.3990   1.1657441568e+02   3.5949866217e+01    0.3321983     0.217156 -61.83 0.0002876486    1.385    0.278
       186 -10.1009     36.6748     27.1371   8.2386292650e+01   6.6702761136e+01    0.2366928    0.1824402 -21.23 0.0003509533    1.088    0.081
       187  -8.0678     16.7286    169.2896   1.2049051841e+02   3.6697408426e+01    0.1212256   0.07613942  73.20  0.000181075    1.510    0.338
       188 -11.5291     15.3544     31.1149   9.4176030992e+01   6.8197826848e+01    0.4173276    0.2279693 -19.49 0.0005888159    1.800    0.445
       189  -8.7696     18.6687    165.3086   1.1968000739e+02   3.7458176474e+01    0.1287841   0.07727575  69.49 0.0004413628    1.666    0.400
       190  -9.5512      2.4586    160.9797   1.2301305734e+02   3.9724804551e+01     0.188508    0.0931424 -78.17  0.001026764    1.584    0.369
       191 -10.0338     22.9076    159.2263   1.1807435048e+02   3.8524758666e+01     0.236678    0.1855082 -60.74  0.001519422    1.250    0.200
       192 -10.4780     19.0526    158.4638   1.1892026372e+02   3.9034800695e+01     0.283532    0.1797882 -32.03  0.001476779    2.266    0.559
       193  -9.1477    248.6834    154.6719   6.5631506720e+01   2.5560132323e+00    0.1397674   0.09342267  -4.65 0.0007045579    1.678    0.404
       194  -9.4999    188.4382     57.4991   5.1529201895e+01   3.1156141263e+01     0.280717    0.2186448 -50.15 0.0006236106    1.269    0.212
       195  -8.6681     23.9813     46.0000   9.5618660832e+01   6.4691961778e+01    0.1790299    0.1555214   6.33  0.001222918    1.312    0.238
       196  -8.8338     21.7612     49.3038   9.7708513053e+01   6.4229076089e+01    0.1751855    0.1441699 -43.93 0.0004099677    1.177    0.150
       197  -9.7096    207.2672     46.0604   4.5741652091e+01   2.8352759845e+01    0.4206072    0.1705764  60.37  0.001735768    2.442    0.590
       198  -8.9722    193.1751     44.4261   4.7203249779e+01   3.1860805871e+01    0.2565512    0.1866622 -74.79 0.0008927708    1.547    0.354
       199  -9.9544    118.5168     42.2228   6.0611823377e+01   4.9886326160e+01     0.412066    0.2963836 -21.62  0.002118081    1.408    0.290
       200  -9.0598    219.6466     42.9210   4.3440362503e+01   2.5961142846e+01    0.1883955    0.1471838 -41.57 0.0005332291    1.181    0.153
       201  -8.5846    202.5240     41.9489   4.5278665538e+01   2.9992512252e+01    0.1836313    0.1192762   4.40 0.0008089548    2.496    0.599
       202  -8.6006    197.1805     42.0770   4.6015891339e+01   3.1225168422e+01    0.1801897    0.1448756 -63.37 0.0003540961    1.243    0.195
       203  -9.1803    166.8041     42.0665   5.0594366885e+01   3.8502681302e+01    0.3142275    0.2064546  38.01  0.001503764    1.698    0.411
       204  -9.4273    173.0837     39.6999   4.8859589229e+01   3.7289637582e+01    0.4061047    0.2414267  27.05  0.001725243    2.439    0.590
       205  -8.4979    250.2894     40.3505   3.9693003101e+01   1.9773376354e+01    0.1147997    0.0966181   9.84 0.0007025935    1.667    0.400
       206  -9.6319    214.9420     39.0285   4.3015151960e+01   2.7519317902e+01    0.3269587     0.183461  69.15  0.001572039    1.833    0.455
       207  -9.7824    192.3325     36.3225   4.5106755533e+01   3.3100893957e+01    0.4247292     0.203141 -23.70  0.001800451    2.367    0.578
       208 -10.4265    193.3697     32.4489   4.3920691430e+01   3.3328331371e+01    0.4152451    0.2723541 -44.51  0.002177479    1.475    0.322
       209 -10.6517    227.0864     27.7653   3.9007899289e+01   2.6200335104e+01    0.4649332    0.3806766 -66.47  0.001929926    1.093    0.085
       210 -11.6554     14.2273    151.9632   1.1942969935e+02   4.0964538282e+01    0.4051985    0.3185743  41.82 0.0005036774    1.466    0.318
       211  -9.5295      8.0148    151.7246   1.2091193666e+02   4.1486010610e+01    0.2201173    0.1589935 -73.89 0.0005232011    1.110    0.099
       212 -10.1100     31.5019    151.3012   1.1505029741e+02   3.9647201712e+01    0.2985975    0.2343335  -9.64  0.001215568    1.779    0.438
       213  -9.4403    202.0927     33.8808   4.3216764408e+01   3.1109256664e+01    0.4972829    0.3462593   6.96  0.002485089    2.120    0.528
       214  -9.7363     45.5571    150.5744   1.1133707205e+02   3.8411494181e+01    0.2610293    0.1960911 -46.75 0.0006882581    1.398    0.284
       215 -12.4543     22.2941    145.9418   1.1675692462e+02   4.1756938359e+01     1.133331    0.6730792  87.88   0.00478527    1.674    0.403
       216 -11.3905     34.1471    110.6095   1.0816668268e+02   4.9356793189e+01    0.9265211    0.5843449  -7.28  0.004678071    2.239    0.553
       217 -12.5933     44.1304    123.7843   1.0750701761e+02   4.5157271512e+01     1.278601    0.9225978 -24.34  0.006916708    1.707    0.414
       218 -13.5032     12.0103    126.3103   1.1712458894e+02   4.7281626341e+01    0.9030752    0.3951448 -79.41 0.0006673259    2.111    0.526
       219 -10.5941    222.8652     34.5428   4.1042748458e+01   2.6309787620e+01    0.4597918    0.2937492  36.19  0.001339479    2.227    0.551
       220  -9.8803    219.7912     32.3777   4.0841150021e+01   2.7257273770e+01    0.2874771    0.2079996  53.22 0.0009866543    1.536    0.349
       221  -9.3702    124.6588     35.5878   5.6751198018e+01   4.9372997649e+01    0.3328138    0.1990702  52.48  0.001587358    1.583    0.368
       222  -8.8544    119.9973     35.5217   5.7813923980e+01   5.0445051950e+01    0.1915384    0.1803701 -87.39  0.001126268    1.263    0.208
       223 -10.4783    245.8286     33.3689   3.8557386429e+01   2.1555287980e+01    0.4826906    0.2516717  58.05  0.001875415    2.131    0.531
       224 -11.7948     23.6953    129.6241   1.1430770495e+02   4.5605181305e+01    0.9453287    0.4808823  10.34  0.004465376    2.929    0.659
       225 -10.4281    235.6022     32.7137   3.9345680668e+01   2.3772074250e+01     0.447557    0.3295827   3.02  0.001515338    2.053    0.513
       226  -9.9702    237.7866     26.0488   3.7635727171e+01   2.4107417077e+01    0.2591904    0.2177112 -78.50 0.0004090535    1.108    0.097
       227  -8.8418    207.1467     33.6411   4.2554876619e+01   2.9968985692e+01    0.1859602    0.1111758  56.44 0.0008829064    1.717    0.418
       228  -9.5831    172.3338     31.2037   4.6469849523e+01   3.8513010717e+01    0.3966085    0.2360976  35.50  0.001822902    2.067    0.516
       229 -11.1025    167.4032     29.0370   4.6567704999e+01   3.9957094853e+01    0.3350291    0.2628961 -13.00 0.0005877916    1.429    0.300
       230  -9.5515    147.5829     23.8751   4.8158432913e+01   4.5319101025e+01    0.2971794    0.2199159  54.72 0.0007894515    1.252    0.201
       231  -8.8182    145.6593     28.6937   5.0079535053e+01   4.5249717620e+01    0.4252602    0.1985923  48.59  0.001323284    2.013    0.503
       232  -9.3740    150.7591     29.1638   4.9323038172e+01   4.3969222974e+01    0.3162598    0.2234578  40.67  0.001200475    1.430    0.301
       233  -9.4672    153.4861     24.5612   4.7386394075e+01   4.3822794530e+01    0.3504965    0.2517864 -17.12   0.00179213    1.529    0.346
       234  -8.4450    186.2884     27.3690   4.3440848150e+01   3.5603942772e+01    0.1356513   0.09953383  28.13 0.0007022503    1.709    0.415
       235  -8.2153    134.3370     27.3400   5.1775218229e+01   4.8099742488e+01    0.1500928   0.09570193  28.93 0.0007050824    1.760    0.432
       236 -12.8175     10.7230    108.8801   1.1513699604e+02   5.1563396679e+01      1.38858    0.9131362 -45.05   0.00829906    1.437    0.304
       237 -11.0771     15.7377    100.5129   1.1223685249e+02   5.3240564541e+01    0.6698032    0.3041231 -75.74  0.003037225    2.200    0.545
       238 -10.3193     40.3971    146.6037   1.1213324473e+02   3.9921888732e+01    0.2801478    0.2623542  -3.85 0.0009396856    1.334    0.250
       239 -10.1270     38.0320    143.2287   1.1228889391e+02   4.0985122695e+01    0.2666411    0.1946351  35.78 0.0008331507    1.566    0.361
       240  -9.6649      5.0210    147.1138   1.2120473773e+02   4.2783091758e+01    0.1834192    0.1689578  57.34 0.0005049962    1.302    0.232
       241  -9.3592     10.4450    145.1804   1.1967403106e+02   4.2861037247e+01    0.2722507    0.1409016 -53.86  0.001127409    1.795    0.443
       242 -10.2958      6.4182    142.4766   1.2040944161e+02   4.3786077036e+01    0.2708752    0.1911299  89.83 0.0009037306    1.218    0.179
       243  -9.7010     35.9611    145.7716   1.1318696429e+02   4.0566059302e+01    0.2030897    0.1950879 -59.95 0.0004381909    1.200    0.167
       244  -9.0529    189.0200     19.3171   4.0904777451e+01   3.5839109914e+01    0.2320799     0.168818  41.75 0.0003274835    1.559    0.359
       245  -8.7473    198.5749     23.2869   4.0861198890e+01   3.3163715211e+01    0.1612139    0.1272155 -14.77 0.0004817167    1.483    0.326
       246  -8.3361    140.0121     23.4711   4.9368675688e+01   4.7175433744e+01    0.1977334    0.1261064  60.71 0.0003972361    1.472    0.321
       247 -10.7478     30.1625    143.0096   1.1434834279e+02   4.1783640123e+01     0.493552    0.1748955 -62.00  0.002117018    2.186    0.542
       248  -9.7536    229.9987     19.9928   3.6942149336e+01   2.6461473927e+01     0.307992    0.2663925  44.76  0.002030485    1.438    0.304
       249 -10.0059     55.0178    133.4178   1.0605245133e+02   4.1575313721e+01    0.3420355    0.2954694  80.10   0.00201054    1.227    0.185
       250  -9.0652     37.8882     21.7819   7.9384757278e+01   6.7362914337e+01    0.2437431    0.1669154   4.73  0.001492211    1.349    0.258
       251  -9.9636      3.4033    136.1950   1.2054214384e+02   4.5476327571e+01    0.3184996    0.2076915  10.70   0.00192832    2.124    0.529
       252  -8.7453     47.4333    139.2976   1.0915461057e+02   4.0977569902e+01    0.2676271    0.1084763 -60.59  0.001091169    2.026    0.506
       253 -11.4419     87.9250     57.5232   7.5055787006e+01   5.3767478445e+01    0.5066973    0.3331383  35.79  0.002516497    1.553    0.356
       254  -9.8700    198.3163     16.6058   3.9154806989e+01   3.3943315191e+01    0.2436371    0.2003113  60.01 0.0005812126    1.244    0.196
       255  -9.2528    193.9615     14.9213   3.9180875263e+01   3.5132567853e+01    0.2485488    0.1580952 -76.31  0.001299398    1.698    0.411
       256  -9.9156     70.3396     16.9610   6.4282001843e+01   6.2904033168e+01    0.2693703    0.1705304  29.95 0.0006102372    1.440    0.305
       257 -12.8236     21.3320     88.8376   1.0817034923e+02   5.5609511537e+01     1.723043    0.9740489 -74.99  0.008691601    1.863    0.463
       258  -9.1821    239.4864     15.4292   3.5143974955e+01   2.4953234972e+01    0.2721145    0.1646244 -72.14 0.0009161753    1.621    0.383
       259  -9.7563    243.7207     13.0069   3.4301472194e+01   2.4339316635e+01     0.317358     0.127825  60.61  0.001541715    2.602    0.616
       260 -10.9620     66.5019    134.5590   1.0300100899e+02   3.9872179968e+01    0.3685215    0.2763369 -89.80 6.619882e-05    1.521    0.342
       261 -11.1564     65.1341    128.2631   1.0218002057e+02   4.1603481933e+01    0.5724854    0.3953745 -52.94  0.002942031    1.280    0.219
       262  -9.1988     65.9640     12.6942   6.3790260293e+01   6.4165302973e+01    0.2920043     0.149198  42.29  0.001504659    1.793    0.442
       263 -11.2185     61.3916    120.4768   1.0171823188e+02   4.3996511494e+01    0.9996071    0.3937067 -53.09  0.003085254    2.126    0.530
       264 -10.6478     68.4020    119.7802   9.9461839097e+01   4.3256429107e+01    0.6613371    0.2400519 -47.44  0.002415655    2.508    0.601
       265  -8.9704     37.3366     12.6996   7.5199182059e+01   6.8687422347e+01    0.2260918    0.1521198  33.78  0.001168292    1.589    0.371
       266 -10.2148     68.5259    116.0197   9.8598669708e+01   4.4156642245e+01    0.4047637    0.3655938 -88.87  0.002317391    1.223    0.182
       267  -9.0133     73.1008    129.4707   1.0011410003e+02   4.0237500681e+01    0.2170826    0.1724946 -59.05 0.0003662092    1.133    0.117
       268  -9.7653     55.9077    126.0394   1.0444840209e+02   4.3294230578e+01    0.3231563    0.1791884 -61.01 0.0007718418    1.563    0.360
       269 -10.3018     91.1521    121.4183   9.3100143650e+01   3.9478903728e+01    0.4980505    0.3714983 -46.03   0.00154661    1.235    0.190
       270 -11.5128     75.5692    120.0326   9.7370118832e+01   4.2198578883e+01    0.2508151    0.2452981  33.43  0.001471948    1.138    0.121
       271 -10.2938     20.3188    118.0378   1.1361404227e+02   4.8691512669e+01    0.3299112    0.2712667  71.94  0.001734452    1.349    0.259
       272 -10.1841    116.4644    116.4296   8.4679883882e+01   3.6163084947e+01    0.3193519    0.2755759  24.42  0.000719838    1.239    0.193
       273  -8.6153    104.4919    115.9384   8.7906584308e+01   3.8496315802e+01    0.2359544    0.1433178 -49.00  0.001015371    1.539    0.350
       274  -9.1982     98.0152    115.5179   8.9664164487e+01   3.9733311718e+01    0.3063028    0.2243145  26.56  0.001137834    1.536    0.349
       275  -8.9005     99.2982    112.3504   8.8481257707e+01   4.0252220127e+01     0.233904    0.1703698 -16.77 0.0008892207    1.708    0.415
       276  -9.1443    108.7686    114.3086   8.6271160779e+01   3.8095989832e+01    0.2379566    0.1988343  65.41 0.0005543233    1.451    0.311
       277  -8.6182     84.7890    113.3747   9.3042220504e+01   4.2418695025e+01    0.1859729     0.142069  14.37 0.0002505716    1.562    0.360
       278 -12.4528     35.0861    118.4728   1.0927784420e+02   4.7350040294e+01     1.722912    0.8841599 -10.35  0.006684426    3.909    0.744
       279  -7.8941    193.4648    111.4800   6.5253056836e+01   2.0822802974e+01    0.1527759    0.1404133 -36.04 8.606463e-05    1.045    0.043
       280  -8.8158    185.0749     23.6545   4.2568431879e+01   3.6308792764e+01    0.2088924    0.1774875  -9.56 0.0003211307    1.358    0.264
       281  -9.3191    129.3533    108.7021   7.9126055332e+01   3.5327517119e+01    0.3808918    0.2630584 -77.07  0.001311756    2.430    0.588
       282  -8.9739     74.4818    107.0238   9.4639110389e+01   4.5487235561e+01    0.2540818    0.1452351 -22.10 0.0009622337    2.770    0.639
       283 -10.2046     61.3522    109.2739   9.9304833461e+01   4.6731498929e+01    0.4987033    0.2182995  24.81  0.001960514    2.896    0.655
