#   1 NUMBER                 Running object number                                     
#   2 MAG_AUTO               Kron-like elliptical aperture magnitude                    [mag]
#   3 X_IMAGE                Object position along x                                    [pixel]
#   4 Y_IMAGE                Object position along y                                    [pixel]
#   5 X_WORLD                Barycenter position along world x axis                     [deg]
#   6 Y_WORLD                Barycenter position along world y axis                     [deg]
#   7 A_WORLD                Profile RMS along major axis (world units)                 [deg]
#   8 B_WORLD                Profile RMS along minor axis (world units)                 [deg]
#   9 THETA_WORLD            Position angle (CCW/world-x)                               [deg]
#  10 FWHM_WORLD             FWHM assuming a gaussian core                              [deg]
#  11 ELONGATION             A_IMAGE/B_IMAGE                                           
#  12 ELLIPTICITY            1 - B_IMAGE/A_IMAGE                                       
         1 -14.9222      8.6653    145.2676   1.4463724623e+02   4.3804327117e+01     8.912474     2.830592  89.63   0.03193579    4.433    0.774
         2 -11.9498      2.8708     47.9011   1.3219597618e+02   6.5541858265e+01    0.5256464    0.1666548 -61.72  0.002496984    2.350    0.575
         3 -13.3868    197.3710     25.9985   6.8620805541e+01   3.2491668580e+01     1.611169     1.415496  10.27  0.007400941    1.356    0.263
         4 -13.3945    211.7934      7.8774   6.2113946570e+01   3.0858582738e+01    0.9767216    0.8547813  65.08  0.004304022    1.184    0.156
         5 -12.3088      3.4408      7.1074   1.1825171673e+02   7.3040878190e+01    0.8472099    0.2631274 -47.81  0.004258472    2.464    0.594
         6 -10.8216     17.9780      4.4858   1.0911336494e+02   7.2230002216e+01    0.2489761    0.1768541  48.83  0.001558505    2.617    0.618
         7 -10.8226     21.5158    244.4290   1.4861286484e+02   2.3004638668e+01    0.3124202    0.1128397  56.24  0.001364357    2.015    0.504
         8 -10.7827    237.5673    248.3262   1.1205307632e+02  -8.4778378864e+00    0.2873276    0.2026436 -51.60   0.00179947    2.763    0.638
         9 -10.3917    138.5695    250.1710   1.2932073265e+02   6.4459492906e+00    0.2673466    0.1355564  36.73  0.001010815    1.756    0.430
        10 -11.7432    145.1867    248.1042   1.2791972866e+02   5.7147525979e+00    0.4155051    0.3309721 -11.41  0.002803335    1.869    0.465
        11 -10.8743    139.1956    245.6615   1.2869901315e+02   7.0066399994e+00    0.2174888    0.1639305 -54.90  0.001332933    1.673    0.402
        12 -11.4713    124.0980    250.0488   1.3184332057e+02   8.6779296987e+00    0.5394647    0.1197919  43.22  0.002116715    3.359    0.702
        13 -10.6532     98.4011    249.6307   1.3626529541e+02   1.2529051210e+01    0.2113936    0.1715954  50.81  0.001583236    1.176    0.150
        14 -11.8402     34.9234    245.7834   1.4656551780e+02   2.1316923044e+01    0.5084513    0.3881868 -89.18  0.004176379    1.322    0.243
        15 -10.5003      3.1363    248.1969   1.5157019134e+02   2.4222490649e+01    0.2687293     0.161258 -88.26  0.002156261    1.425    0.298
        16 -11.2262     11.7849    239.6700   1.4991015315e+02   2.4811321345e+01    0.3875729    0.1328078  64.93  0.002179701    2.415    0.586
        17 -10.2726     22.0519    237.6200   1.4819193105e+02   2.4113759247e+01    0.2784957     0.171479 -47.70  0.001734751    3.227    0.690
        18 -14.2765    104.0807    229.3824   1.3327311007e+02   1.5032507658e+01     6.271214          nan  44.43   0.01297194   11.603    0.914
        19 -10.4771    151.5255    229.4973   1.2445245483e+02   7.4643374063e+00    0.2700244    0.1011982  42.07  0.001215999    2.182    0.542
        20 -10.2144    248.4782    249.4474   1.1045778180e+02  -1.0110373063e+01    0.3102427     0.106567  33.15  0.001554872    2.419    0.587
        21 -10.2884    173.9109    222.4157   1.1927923964e+02   4.7839984962e+00    0.3025525    0.2238989  62.91  0.001798065    1.643    0.392
        22 -12.3558      9.6808    206.9413   1.4866205256e+02   3.0948259175e+01    0.6392905    0.4044541  34.37  0.003454164    1.905    0.475
        23  -8.9253    152.6506    212.9878   1.2192904608e+02   9.9180325738e+00    0.1612278    0.1528935  57.11 0.0004234689    1.124    0.111
        24 -11.6801     60.5889    200.2168   1.3864867767e+02   2.6633346923e+01    0.2509726    0.2198805 -72.59 0.0005677919    1.337    0.252
        25 -10.7918     16.7480    198.1411   1.4688075584e+02   3.1984615246e+01     0.233421    0.1461724  60.54  0.000355502    1.307    0.235
        26  -9.4743    191.9548    192.9211   1.1098379830e+02   6.1435499445e+00    0.4346862    0.2393975 -66.00  0.001316905    6.415    0.844
        27 -11.9125     66.9727    191.6603   1.3649534722e+02   2.7533617749e+01    0.2505236    0.2141389 -73.81 0.0004406276    1.260    0.206
        28 -10.5278      6.3310    188.5234   1.4823067186e+02   3.4862325358e+01    0.2031467    0.1322869  83.10 0.0007858127    1.148    0.129
        29 -13.2031     63.9376    176.8998   1.3548905567e+02   3.1045264233e+01    0.4656467    0.2634597 -48.04  0.001714108    2.266    0.559
        30 -10.7489     77.3225    178.4985   1.3275792853e+02   2.8865884699e+01    0.2244869    0.2000022  89.54 0.0003733985    1.106    0.095
        31  -9.4235     98.6777    175.5167   1.2762108468e+02   2.6258436573e+01    0.2793884    0.1727078  69.11 0.0008326258    1.879    0.468
        32 -11.7734     85.0536    169.2697   1.2978250790e+02   2.9725930288e+01    0.6273948    0.5744632  12.76   0.00392218    1.451    0.311
        33 -12.5089     48.7589    216.6193   1.4230079566e+02   2.4914491603e+01    0.6595663    0.6493567 -53.37  0.003741969    1.590    0.371
        34 -10.0290     97.5258    153.1241   1.2429713003e+02   3.1334155034e+01    0.3124177    0.2534422 -50.91 0.0009072285    1.307    0.235
        35  -9.3805    100.3249    148.9850   1.2288164422e+02   3.1795396899e+01    0.2139225    0.1977169  24.27 0.0004629065    1.276    0.217
        36 -11.9905     86.0855    152.3703   1.2694517642e+02   3.3325723571e+01    0.2896589    0.2424495 -49.79 0.0006443156    1.313    0.239
        37 -12.1014     67.4640    143.6317   1.3015112707e+02   3.8012757609e+01    0.6639379     0.407726  65.81  0.003259564    1.861    0.463
        38  -8.7274    134.0000    145.9470   1.1416619379e+02   2.6282154088e+01    0.2426668   0.08339863 -49.06 0.0008056698    2.965    0.663
        39 -12.8562     33.9197    234.5640   1.4609009158e+02   2.3361676938e+01    0.2628444    0.2173873  81.64 0.0007578934    1.277    0.217
        40  -9.8552    109.4334    137.6769   1.1843714377e+02   3.2750105887e+01    0.4542327     0.304576 -17.57  0.001513115    2.729    0.634
        41 -10.7038     32.4484    132.2827   1.3744971016e+02   4.4677826861e+01    0.3373976     0.177688  53.62  0.001360493    2.070    0.517
        42 -10.0706     55.5735    130.7517   1.3117751826e+02   4.2521080248e+01     0.324475    0.2133269 -59.23   0.00178672    1.364    0.267
        43 -10.2742     96.4627    135.3052   1.2126094606e+02   3.5544626521e+01    0.2446491     0.231217 -38.21 0.0003835162    1.190    0.160
        44  -8.8794    106.6919    124.2779   1.1627589112e+02   3.6267863536e+01     0.176325    0.1637447  -8.44 0.0003211006    1.254    0.202
        45  -9.3574    167.9839    112.9952   9.8552200562e+01   2.5784878321e+01    0.2423069    0.2216104 -80.98 0.0009204712    1.205    0.170
        46 -10.1299    157.8453     76.3500   9.0535245031e+01   3.5129108931e+01    0.2720217    0.2118438 -47.71 0.0009707646    1.317    0.240
        47 -13.8198     38.8061    227.9147   1.4485625594e+02   2.3995467534e+01     0.677353    0.4814408  63.85  0.002420477    1.076    0.071
        48  -9.1314     38.9954     65.4934   1.2268187640e+02   5.9141198843e+01    0.2026049    0.1623938  77.06  0.001220232    1.719    0.418
        49 -11.8451     11.3252     54.2506   1.3033196403e+02   6.3757113640e+01    0.5374177     0.262661  22.02  0.002279011    2.476    0.596
        50 -11.8250    173.3087    248.0368   1.2295540773e+02   1.2967483230e+00    0.5248969    0.2081081  50.13  0.002443058    2.561    0.610
        51 -10.9631    152.5917    249.1639   1.2673877221e+02   4.4054878437e+00    0.2808176    0.1504324  34.74  0.001337473    1.690    0.408
        52 -10.9883    132.5039    246.4853   1.2998027033e+02   7.9250206511e+00    0.1796148    0.1506649  76.41  0.001301357    1.296    0.228
        53 -10.2432     29.6048    250.2490   1.4763984496e+02   2.1162134196e+01    0.2672911    0.1168032  53.28  0.001754164    1.642    0.391
