#   1 NUMBER                 Running object number                                     
#   2 MAG_AUTO               Kron-like elliptical aperture magnitude                    [mag]
#   3 X_IMAGE                Object position along x                                    [pixel]
#   4 Y_IMAGE                Object position along y                                    [pixel]
#   5 X_WORLD                Barycenter position along world x axis                     [deg]
#   6 Y_WORLD                Barycenter position along world y axis                     [deg]
#   7 A_WORLD                Profile RMS along major axis (world units)                 [deg]
#   8 B_WORLD                Profile RMS along minor axis (world units)                 [deg]
#   9 THETA_WORLD            Position angle (CCW/world-x)                               [deg]
#  10 FWHM_WORLD             FWHM assuming a gaussian core                              [deg]
#  11 ELONGATION             A_IMAGE/B_IMAGE                                           
#  12 ELLIPTICITY            1 - B_IMAGE/A_IMAGE                                       
         1 -12.0982    171.2057     60.7196   6.9496454592e+01   3.4459854158e+01     2.078662     0.931673 -54.96  0.006452847    3.678    0.728
         2 -11.6284     95.0042     40.2917   8.1022772319e+01   5.5421869281e+01    0.7384821    0.6786295 -29.34  0.001663883    1.156    0.135
         3 -10.4501    215.2630     28.8753   5.3687235056e+01   2.7799104605e+01    0.5410228    0.2076197 -53.17  0.001929931    3.179    0.685
         4 -11.0292    219.8751     34.5034   5.4642547643e+01   2.6005627685e+01    0.8851808     0.415264 -31.84  0.003886501    2.000    0.500
         5 -10.3757     16.5630     41.7426   1.1219040346e+02   6.5959632536e+01     0.484194   0.06925215 -46.86  0.001678887    3.994    0.750
         6 -11.5709    131.1085     11.3847   6.0568160620e+01   5.0887023271e+01    0.5203859     0.438347 -21.58   0.00118195    1.260    0.207
         7 -10.0533    142.0506     12.0724   5.8806854156e+01   4.8109038391e+01    0.3056956    0.2264175 -14.70 0.0008138366    1.461    0.316
         8  -8.8917    143.9123      2.0015   5.4933754706e+01   4.8546483796e+01    0.2882338    0.2335231  51.34   0.00141329    1.120    0.107
         9  -8.6432    235.9407    145.8487   7.9783030499e+01   5.8182294282e+00     0.211744    0.1681416   2.20  0.000598557    1.223    0.183
        10 -12.0616    112.5733    245.2812   1.1998569472e+02   1.1169627252e+01    0.7126457    0.5874822  48.59  0.003243034    1.090    0.082
        11 -10.2640    113.8093    237.3345   1.1894579111e+02   1.2246710992e+01    0.2583284    0.1999639  55.76  0.001088436    1.085    0.078
        12  -9.9608     88.7242    249.3052   1.2455939985e+02   1.3859232211e+01    0.2490142    0.1374417  54.24  0.001579176    1.454    0.312
        13 -10.3106     73.8417    250.1627   1.2718220397e+02   1.5670551768e+01    0.3407801    0.1896032  32.44  0.002082136    2.042    0.510
        14  -8.5181     69.5252    146.5192   1.1694640898e+02   3.6820459229e+01     0.133505    0.1180839 -87.90 0.0001556109    1.011    0.011
        15  -8.5020     73.6523    142.3201   1.1522365643e+02   3.7225912504e+01    0.1436289   0.09631661  72.66 0.0007048979    1.735    0.424
        16  -8.3798    245.2499    132.9909   7.5395375100e+01   6.0277722683e+00    0.1793584    0.1051072 -31.08 0.0003414503    1.536    0.349
        17  -8.1732    234.4694    132.0896   7.6947883983e+01   8.2310754657e+00    0.2103728    0.1267051 -30.36 0.0007880417    1.533    0.348
        18  -8.2615    249.4748    128.4881   7.3721628021e+01   5.9116496570e+00    0.1368475    0.1177788 -14.02 -2.402878e-05    1.013    0.013
        19  -8.5762    250.0262    117.5030   7.1142548776e+01   7.4506848601e+00    0.1854912    0.1352261  47.49 0.0005683745    1.528    0.346
        20  -8.6806    203.6144    111.7190   7.7497882422e+01   1.8071554820e+01    0.2956577    0.2223259   9.12 0.0006687393    1.612    0.380
        21  -9.5890    245.1628    100.9881   6.8005017804e+01   1.0901082968e+01    0.2413806    0.1430967 -52.78  0.001098997    2.022    0.506
        22  -8.5952    206.9048     82.4387   6.9292122893e+01   2.2244958363e+01    0.2640752    0.2072257 -24.62 0.0004031821    1.271    0.213
        23 -10.0814    133.0346     82.0448   8.4695141320e+01   3.9873064278e+01    0.3501927     0.274114 -46.47 0.0005546684    1.294    0.227
        24  -9.5513    122.9601     82.3876   8.7457820999e+01   4.2010038119e+01    0.3413961    0.2107402 -54.53  0.000553873    1.880    0.468
        25  -9.8729    158.4333     80.1203   7.8026665653e+01   3.4323430467e+01    0.3173401     0.216764  73.55  0.001336322    1.949    0.487
        26 -11.4962    140.1609     40.5346   6.9275930313e+01   4.5203938374e+01     1.175652    0.5994528  65.79  0.004633262    2.288    0.563
        27  -9.4130    188.1270    233.4158   1.0476430443e+02   1.3016927054e+00    0.1992307    0.1633673 -67.54  0.001062882    1.929    0.482
        28 -11.8192     99.6371     71.1439   9.0627931281e+01   4.8988634742e+01    0.7502514    0.4810342  20.38  0.003270488    2.078    0.519
        29 -12.3133     59.1461     58.4596   1.0013816970e+02   5.8185208230e+01    0.9933997    0.6924895 -23.96  0.004691282    1.485    0.327
        30 -11.6272     78.1622     48.7266   8.9820732841e+01   5.7132563106e+01     1.156609    0.6446177  10.59  0.004264389    3.483    0.713
        31 -10.9553    135.6812     62.6078   7.7848531630e+01   4.2832408308e+01    0.8134953    0.3358832 -28.91    0.0027622    2.818    0.645
        32 -12.6843     64.7374     62.8440   9.9523082690e+01   5.6516722458e+01     1.282885    0.8761286 -18.43  0.005082175    1.705    0.414
        33  -9.5923    143.1173     79.1492   8.1292282059e+01   3.8124484267e+01    0.2395231    0.2119056  10.56 0.0008053939    1.208    0.172
        34 -10.6251     97.3628     54.3111   8.5570685975e+01   5.2602833997e+01    0.3889014    0.2781116 -49.31   0.00117565    1.549    0.354
        35 -10.5833    124.0287     67.2162   8.2358457505e+01   4.4677925443e+01    0.3870683    0.3348371   4.22 0.0005458079    1.226    0.184
        36 -10.6052    128.5015     47.6582   7.4500428521e+01   4.6955737853e+01    0.3656946     0.284363 -23.09  0.001010611    1.303    0.232
        37  -9.4534     87.9973    230.4835   1.2302259147e+02   1.7078553292e+01    0.1867312    0.1180399 -59.00  0.001173693    1.859    0.462
        38 -10.0733    115.8378    220.4334   1.1666859224e+02   1.4768859501e+01    0.3226095    0.1745164  48.91  0.001752923    1.583    0.368
        39 -10.0716     11.8551    206.8455   1.3523013424e+02   3.0325972213e+01    0.2913553    0.2367323  13.72  0.002209545    1.995    0.499
        40 -11.0253    183.1940     77.3796   7.2125142898e+01   2.8781846572e+01    0.8301281    0.4679726  65.78  0.002666119    2.125    0.529
        41  -8.9176    140.0031     28.9326   6.5215178254e+01   4.6767149079e+01    0.2104251    0.1983027  35.35  0.000359554    1.008    0.008
        42 -11.1644    249.3425    186.1118   8.5819176247e+01  -2.2146519702e+00    0.5978441    0.3411977 -14.48  0.003163109    1.813    0.448
        43  -8.6413     79.1350     23.2393   7.9041720068e+01   6.0998939273e+01    0.2239504    0.1655862  -9.18 0.0006685799    1.296    0.229
        44  -7.7095    190.1904     36.8683   5.9130519924e+01   3.3042681966e+01    0.1911095    0.1072765 -31.54 0.0008404761    1.759    0.431
        45  -8.0458     84.7843     21.1681   7.6272370087e+01   6.0188196890e+01    0.1838928    0.1678901 -24.17 0.0003779232    1.221    0.181
        46  -9.9940     75.0316     17.3188   7.7757236010e+01   6.2541476082e+01    0.2210877    0.1900979 -13.16 0.0002601005    1.132    0.117
        47  -7.8562      2.8225     18.3882   1.1098728846e+02   7.1326702377e+01    0.1471564    0.0886118 -12.16 0.0004817483    1.708    0.414
        48  -8.2771    189.9075     15.4519   5.2932339924e+01   3.5597827344e+01    0.2026177     0.180622 -36.21 0.0006912609    1.165    0.142
        49  -8.3619    235.5683    163.1751   8.3557010477e+01   3.2804552121e+00    0.1859867    0.1159639 -18.61 0.0005677139    1.615    0.381
        50  -8.0744    200.6809     13.3751   5.1116130684e+01   3.3111329678e+01    0.1511005    0.0892478 -59.62 0.0007029976    1.807    0.447
        51  -9.9214    248.4301    156.6771   8.0035400728e+01   1.9666509531e+00     0.257352    0.1128557 -35.85  0.001148593    2.135    0.532
