#   1 NUMBER                 Running object number                                     
#   2 MAG_AUTO               Kron-like elliptical aperture magnitude                    [mag]
#   3 X_IMAGE                Object position along x                                    [pixel]
#   4 Y_IMAGE                Object position along y                                    [pixel]
#   5 X_WORLD                Barycenter position along world x axis                     [deg]
#   6 Y_WORLD                Barycenter position along world y axis                     [deg]
#   7 A_WORLD                Profile RMS along major axis (world units)                 [deg]
#   8 B_WORLD                Profile RMS along minor axis (world units)                 [deg]
#   9 THETA_WORLD            Position angle (CCW/world-x)                               [deg]
#  10 FWHM_WORLD             FWHM assuming a gaussian core                              [deg]
#  11 ELONGATION             A_IMAGE/B_IMAGE                                           
#  12 ELLIPTICITY            1 - B_IMAGE/A_IMAGE                                       
         1 -15.4251    240.6361    119.6439   7.2406631296e+01   7.8501742887e+00     6.557246     5.234799  58.78   0.03534231    1.452    0.311
         2 -12.7422    206.8870     14.4446   4.9222595260e+01   3.1184061870e+01     1.059015    0.6415349  -6.34  0.001657863    2.181    0.542
         3 -16.7239    242.6393     33.6766   5.0403891937e+01   1.9925959000e+01     6.720481     2.107147  56.18   0.01495586    3.137    0.681
         4 -14.7508    247.8983      7.4673   4.3393072425e+01   2.1737269005e+01     1.070234    0.6274905 -13.49  0.005186868    2.183    0.542
         5 -10.9952    154.7235     26.6053   6.0919653580e+01   4.3481814657e+01    0.5652227    0.3107171 -14.92  0.002328569    2.151    0.535
         6 -13.8899    214.1743     21.2836   5.0298572277e+01   2.8528093866e+01     1.973936     1.221718  30.36  0.008758611    2.201    0.546
         7 -15.2047    223.2822     63.5118   6.0767645139e+01   2.0558940834e+01      4.28603     1.909976  74.93   0.01384954    3.647    0.726
         8 -10.8066    171.6161     17.0871   5.4779441100e+01   4.0182977780e+01    0.4385289    0.2498633 -14.75   0.00190033    2.034    0.508
         9 -10.0767    189.1562     16.6779   5.2105487994e+01   3.5591793030e+01    0.3014886    0.2235671  11.97 0.0004902984    1.661    0.398
        10  -9.6795    165.2145     13.8334   5.4705542512e+01   4.2215633957e+01    0.4025595    0.2020388 -11.93  0.001251092    2.478    0.596
        11 -15.0836    237.3997     16.0419   4.6442716932e+01   2.3304177777e+01     1.760818    0.8399164 -28.82  0.006468378    2.029    0.507
        12 -10.1449     79.3533     12.3128   7.4040984407e+01   6.2195897154e+01    0.4580819    0.1205199 -26.54  0.001498256    4.143    0.759
        13 -10.6499     92.2943     11.9890   6.9887959412e+01   5.9752229123e+01    0.3141824    0.2597363 -19.32 0.0009237348    1.190    0.160
        14 -10.1120    113.4822      2.8364   6.0401779080e+01   5.6138079369e+01    0.3514681    0.2298272  40.91  0.001832383    1.379    0.275
        15 -12.0618    119.4279      9.7170   6.1897846688e+01   5.4092282913e+01    0.6953485    0.4748427  32.16  0.003071163    1.417    0.294
        16 -10.0712    118.9872      3.0055   5.9250908872e+01   5.4848444475e+01    0.3165797    0.2211678  31.98 0.0006807118    1.353    0.261
        17 -10.6878    128.9607      9.0295   5.9552838814e+01   5.1897804434e+01    0.4720778    0.2048547 -17.54  0.001699226    2.540    0.606
        18 -12.2133    216.4674      7.0551   4.6131289449e+01   2.9501897590e+01    0.3712698    0.2550155 -16.90  0.001173681    1.658    0.397
        19  -9.4432    187.3289      6.2824   4.9167019880e+01   3.7154228482e+01    0.4726298    0.2341668 -44.31  0.002023373    2.103    0.525
        20  -9.7662    181.8698      2.8351   4.8786705024e+01   3.8919709560e+01    0.3405821    0.2704467 -51.00  0.001456511    1.313    0.238
        21 -10.5107    142.3703      7.1757   5.6240357402e+01   4.8766772092e+01    0.4278366    0.2703344  46.56  0.001342849    1.454    0.312
        22 -15.6326    213.8473     72.5849   6.4719732419e+01   2.1512088640e+01     10.04343     5.290769  89.21   0.01931309    5.184    0.807
        23  -9.9922    136.5773      5.4753   5.6674924278e+01   5.0375280182e+01    0.3348846    0.1424569  55.52  0.001385244    2.022    0.505
        24  -9.4794     79.2975      4.2690   7.0271258064e+01   6.3144418115e+01    0.2586126    0.1479324 -22.74 0.0007489317    1.645    0.392
        25  -8.3335    207.1770      2.6943   4.5875038949e+01   3.2322051685e+01    0.3952953    0.1708946  40.65  0.001463612    3.154    0.683
        26  -9.0775    171.9895      2.6350   5.0008471983e+01   4.1535490590e+01    0.2550849    0.1757102 -48.10 0.0006647832    1.566    0.361
        27  -9.7257    137.4449      1.4508   5.4990513211e+01   5.0522947460e+01    0.2732601    0.1253403  63.33 0.0006903559    1.999    0.500
        28 -10.4063    195.1483    158.4569   8.9525245585e+01   1.1160631762e+01    0.4661101    0.2246031  58.01  0.001744694    2.807    0.644
        29 -11.0367    191.7076    151.8561   8.8803214122e+01   1.3012151926e+01    0.5858486     0.319343 -50.72  0.002040761    2.255    0.557
        30  -9.2495    159.3316    158.5177   9.6848119736e+01   1.8512898032e+01    0.2898609    0.2160383 -77.26  0.001421956    1.785    0.440
        31 -10.7697    203.6880    152.6412   8.6630264978e+01   1.0364661280e+01    0.3579115    0.3042873 -41.93  0.001395515    1.283    0.221
        32  -8.3034     89.7179    153.9684   1.1146884218e+02   3.2078964009e+01    0.1478648    0.1088661 -66.40 0.0002305385    1.290    0.225
        33 -10.0916    134.1750    148.2789   1.0032971087e+02   2.5543003612e+01    0.6455393    0.2380676 -54.97  0.002251998    3.108    0.678
        34  -9.6070    133.0000    141.4655   9.9229292319e+01   2.7192353523e+01     0.530167    0.1758881 -55.92  0.001630525    3.862    0.741
        35  -9.1857    246.0567    243.4709   9.5654729210e+01  -8.9218512555e+00    0.1572044    0.1298464  27.71 0.0003606114    1.283    0.221
        36 -11.3534    151.9834    144.3215   9.5537596167e+01   2.2786100562e+01    0.5031979    0.3685767 -56.90   0.00249713    1.475    0.322
        37  -9.9257    144.1539    145.8984   9.7607961523e+01   2.4062695272e+01    0.2271518    0.1963142  82.95 0.0009208946    1.245    0.197
        38 -10.0539    140.0810    229.9650   1.1170807386e+02   9.7319457820e+00    0.1950902    0.1481685  54.15   0.00032781    1.068    0.064
        39 -10.3264    198.7151    144.4291   8.5787853294e+01   1.2810826193e+01    0.3068901    0.2464088 -83.23  0.001515582    1.786    0.440
        40 -11.4179    178.9948    142.7925   8.9403377646e+01   1.7357445780e+01    0.5577037    0.3882416 -67.99  0.002481637    2.067    0.516
        41  -9.5196    192.2973    144.1266   8.6989884678e+01   1.4243974483e+01    0.2599482    0.2045008  53.90  0.000416443    1.312    0.238
        42 -11.0313    156.4533    140.2360   9.3671040773e+01   2.2670181635e+01    0.7707945    0.4596658 -80.05  0.002453416    4.225    0.763
        43 -14.7696    241.0433     45.9190   5.3727453743e+01   1.8716008479e+01     1.487246    0.6991425 -59.14  0.004642902    2.896    0.655
        44 -12.1356    189.0210    138.7258   8.6427659297e+01   1.5920990131e+01    0.6941951    0.4311457  36.62   0.00181467    1.660    0.398
        45  -8.2253     90.2803    139.6529   1.0898872293e+02   3.5140266756e+01    0.1403125   0.09748627  83.33 0.0007011649    1.640    0.390
        46  -9.6984    166.2743    135.9416   9.0562419704e+01   2.1416172778e+01    0.3435122    0.2266054 -28.82 0.0009468145    1.795    0.443
        47  -9.7687     32.9908    218.7960   1.2909590740e+02   2.6520280001e+01    0.1303409     0.123439  -3.35  0.001071271    1.995    0.499
        48 -11.4696    190.9431    132.0847   8.4495644148e+01   1.6697165963e+01    0.5205507     0.306717  47.36   0.00212964    1.657    0.397
        49 -11.5720    135.2502    124.3871   9.4979229097e+01   3.0355329509e+01     1.302872    0.5598446 -59.44  0.004132297    3.465    0.711
        50 -10.4258    129.0858    115.3320   9.4337465342e+01   3.3546581363e+01    0.5660314    0.3244912 -72.19  0.001896773    3.151    0.683
        51 -11.1158    159.6705    129.3266   9.0488123807e+01   2.4158093591e+01    0.6537449    0.4296248 -20.12  0.002727556    2.177    0.541
        52 -12.2485     57.5045    153.4664   1.1866790525e+02   3.6638721894e+01    0.6251551    0.3741733  86.28  0.001744621    1.714    0.417
        53 -10.1218    153.0354    127.5168   9.1558201064e+01   2.5961553513e+01    0.3169209    0.2544984  11.60  0.001195204    1.582    0.368
        54  -9.5143    171.1924    126.2241   8.7222616431e+01   2.2220239786e+01    0.2132035    0.1837707 -89.97 0.0007262401    1.377    0.274
        55  -9.7554    163.5155    122.0153   8.7883195656e+01   2.4764313762e+01    0.2801515    0.2414383 -76.15 0.0007037887    1.334    0.251
        56 -11.1801    159.1538    115.7387   8.7303786141e+01   2.6994465018e+01    0.4494211    0.3390219 -71.15 0.0008050941    1.683    0.406
        57  -9.1967    140.6691    121.5813   9.3030293269e+01   2.9824135267e+01    0.2489504    0.1836705 -70.81  0.000807874    1.644    0.392
        58 -11.1715    167.2967    114.5663   8.5187304711e+01   2.5375875402e+01    0.5617011    0.4928799  39.88  0.001624689    1.141    0.123
        59 -10.8190    174.0464    114.2626   8.3640626077e+01   2.3878470575e+01    0.7530584    0.4868594 -86.34  0.002639264    3.185    0.686
        60 -10.4885    134.8307    108.9177   9.1324133483e+01   3.3724160723e+01      1.15197    0.2623325 -45.07  0.003084923    4.323    0.769
        61  -9.5329    133.8712     98.2071   8.8740862081e+01   3.6175276625e+01    0.2954167    0.2504581 -83.67 0.0006951166    1.379    0.275
        62  -9.9671    120.8843    110.8778   9.5312650661e+01   3.6147410593e+01    0.3224173    0.2985084  32.75  0.001775731    1.165    0.142
        63 -11.1190    124.0571    104.2777   9.2842939826e+01   3.6940176787e+01    0.5601612    0.4834401  80.71  0.002925755    1.297    0.229
        64  -9.2358    112.1494    108.1343   9.6898168765e+01   3.8425417169e+01      0.22955    0.2011845 -20.37   0.00101499    1.324    0.245
        65  -8.5740    141.4518    105.4870   8.8816069964e+01   3.3020525012e+01    0.1512396    0.1482468 -21.79 0.0001670249    1.045    0.043
        66  -9.9059    147.3359    101.9520   8.6459616143e+01   3.2442762421e+01     0.314464    0.2764336 -16.15 0.0006351436    1.249    0.200
        67  -9.4106    166.1568    100.0555   8.1613327393e+01   2.8467432184e+01    0.2278245    0.2039028   3.37            0    1.223    0.182
        68  -8.5669    150.6885    122.3306   9.0864591730e+01   2.7528533818e+01    0.1550188    0.1202405 -86.50 0.0006402152    1.672    0.402
        69 -10.4063    157.3770     96.2767   8.2552933290e+01   3.1270882276e+01    0.4739344    0.3430732  33.33  0.001816283    1.535    0.349
        70 -10.3858    140.7073     92.1656   8.5361995896e+01   3.5913689153e+01    0.3434038    0.2926415 -58.88   0.00125339    1.236    0.191
        71  -9.1911    193.8457     89.6004   7.2992506643e+01   2.3661648689e+01    0.4504798    0.2496741  -8.62  0.001410983    3.583    0.721
        72 -11.6573    155.0251     86.9128   8.0431566412e+01   3.3642388586e+01     0.455777    0.3420609 -30.51 0.0005862141    1.371    0.270
        73 -10.2366    208.3974     85.0251   6.9058080541e+01   2.0851243400e+01    0.5441267    0.3013332 -55.83  0.001665003    2.413    0.586
        74  -8.2744    197.5171     86.4098   7.1413005804e+01   2.3305307682e+01      0.15375    0.1476178  15.15 9.561799e-05    1.054    0.052
        75  -8.6207     74.6403     84.1745   1.0144821987e+02   4.9985737143e+01    0.2102935    0.1089536 -44.85 0.0009484803    1.780    0.438
        76 -10.0849      5.3128     82.5904   1.2251419533e+02   5.7128408801e+01    0.1790428    0.1052462  29.90  0.001139045    2.158    0.537
        77  -9.4283    127.2009     79.7627   8.5158235269e+01   4.1376028087e+01    0.2707399    0.1955341 -50.92 0.0006536096    1.424    0.298
        78 -10.6598    109.1741     75.7600   8.8844430953e+01   4.5893896958e+01    0.5142306    0.3549468  -4.62  0.001117031    2.212    0.548
        79  -9.3992    139.5902     78.4943   8.1617865388e+01   3.8866280006e+01    0.2730865    0.2626181  -7.70 0.0006339717    1.042    0.041
        80  -9.2095    159.5997     75.5646   7.6012706632e+01   3.4657166701e+01    0.3689641    0.1859682 -43.93  0.001396803    2.025    0.506
        81  -8.8700    114.9769     77.0000   8.7603177808e+01   4.4488290717e+01    0.2378441   0.08555898  45.81 0.0007986568    2.916    0.657
        82  -8.2520     83.4799     77.0000   9.6793896660e+01   5.0197148536e+01    0.2929327   0.08088258  39.11 0.0009449308    4.017    0.751
        83 -10.2124    108.7421     68.6468   8.6739684567e+01   4.7397563001e+01     0.357636    0.1796554  42.50 0.0008612599    2.107    0.525
        84 -10.1849    105.8986     59.9363   8.4687141917e+01   4.9629636534e+01    0.4401543     0.193782 -46.04  0.001361058    2.305    0.566
        85  -9.6452     10.2170    206.3602   1.3211446237e+02   3.1069474091e+01    0.1831724   0.09762009  55.13  0.001304908    1.501    0.334
        86 -10.8349    123.4246     58.5449   7.9338432298e+01   4.6216444751e+01    0.2982112    0.2851796 -38.30 0.0001631584    1.081    0.075
        87 -10.8062    124.0560     53.1619   7.7315779917e+01   4.7016204372e+01    0.3955811    0.2781352 -14.10  0.001035023    1.638    0.390
        88  -8.5748     72.5365     58.4711   9.4648695001e+01   5.5699594372e+01    0.1354913     0.118912 -36.69 0.0001007163    1.026    0.026
        89  -9.1397     14.6486     52.3257   1.1366735592e+02   6.3045021011e+01    0.1098468   0.08279545  81.21 0.0007048101    1.760    0.432
        90 -11.5359      2.9886     49.7911   1.1744425792e+02   6.4229154577e+01    0.3836083    0.1649051 -46.84  0.002185337    1.801    0.445
        91 -10.5593    102.0012     35.9633   7.7075399961e+01   5.4526908783e+01    0.3686953    0.1700454 -44.07  0.001479449    2.421    0.587
        92  -9.9913    106.4844     35.0557   7.5428201359e+01   5.3742476400e+01    0.2166741    0.1332432 -30.08 0.0008038434    1.567    0.362
        93  -9.2713    119.2982     33.3291   7.1291985200e+01   5.1208802105e+01    0.1507655    0.1059124  15.95 0.0002400578    1.638    0.390
        94 -10.5592    160.2767     29.2913   6.0800803590e+01   4.1710675342e+01    0.3202083    0.2371022 -24.42  0.001576163    1.397    0.284
        95  -9.1454    165.9304     27.8853   5.9302620813e+01   4.0413979431e+01    0.4588494    0.1394507 -40.53   0.00114997    3.426    0.708
        96 -10.8965    194.5063    198.0130   9.7154321674e+01   5.0196895634e+00    0.4236453    0.3115168  57.50  0.002430716    1.529    0.346
        97 -10.9127    179.2938     23.8001   5.5758895563e+01   3.7388803742e+01    0.5175493    0.4535252  77.43  0.001858021    1.127    0.112
        98 -10.5955    191.7260    192.7319   9.6757500069e+01   6.3203518349e+00    0.5655366    0.3238628 -63.98   0.00225574    3.865    0.741
        99 -10.5146    204.8144    190.2066   9.3878214624e+01   4.2558575988e+00    0.3000917    0.1980225  61.13  0.001499405    2.029    0.507
       100  -9.2551      2.3371     25.3352   1.1139280243e+02   6.9107729698e+01     0.121007   0.05692698 -37.60 0.0007051814    1.747    0.428
       101  -9.4954    159.5962     21.9056   5.8396480182e+01   4.2787052813e+01    0.2996048    0.2372117 -29.21 0.0004946441    1.308    0.235
       102 -12.8309    224.9911    174.4930   8.7217085542e+01   2.7412630104e+00     1.740337    0.8472821 -14.34  0.006394116    3.677    0.728
       103  -7.9929    195.2757     19.6903   5.2196941457e+01   3.3639737278e+01     0.148115    0.1031189 -60.62 0.0003228492    1.554    0.357
       104 -10.7657    230.8913    167.6117   8.4777883640e+01   2.6104645093e+00    0.4159754     0.276283 -38.03   0.00215732    1.637    0.389
       105 -10.4900    234.4978    177.5318   8.6143610947e+01   5.5139647807e-01    0.2515073    0.2070415  24.10 0.0006128703    1.068    0.064
       106 -10.8649    109.4865     28.9836   7.2196060888e+01   5.3988571085e+01    0.2608856    0.2061163  69.44   0.00118631    1.605    0.377
       107 -11.5374    234.9907    173.4095   8.5236800185e+01   1.0264572570e+00    0.4670025    0.3260493  38.04   0.00213114    1.327    0.247
       108 -13.1576     12.0974    178.9390   1.3023221892e+02   3.6095444633e+01    0.8128737    0.4726058  88.36  0.004123593    1.313    0.238
       109  -8.8224    177.4303     14.3477   5.3018726115e+01   3.8944410799e+01    0.1780638    0.1377996   6.38  0.000898629    1.510    0.338
       110 -12.3445     17.2358    177.3631   1.2917885014e+02   3.5938599271e+01    0.6306647    0.2491377 -85.94  0.002680446    2.233    0.552
       111 -10.6641    245.5711    182.2040   8.5164393528e+01  -2.0439968098e+00    0.4561852    0.2861633  58.24  0.001871819    2.387    0.581
       112 -10.3148    200.4769    174.6136   9.1758569970e+01   7.4478231748e+00    0.4872885    0.3097984   1.32  0.002170749    2.435    0.589
       113 -13.5133    188.0957     77.3692   7.0640131534e+01   2.7210004006e+01     3.964332     1.517066  49.46   0.01223547    2.580    0.612
       114 -12.8816    170.3596     74.2474   7.3283031724e+01   3.2221977723e+01     1.231518    0.6702502 -27.19   0.00172979    2.033    0.508
       115 -14.6809    242.4437    137.4174   7.6243230858e+01   4.7819099922e+00     4.765399     2.467742  53.79   0.02101761    2.216    0.549
       116 -11.1417    213.9750    167.5645   8.7824016669e+01   5.8913843889e+00    0.6645695    0.3697355  65.62  0.002446202    3.682    0.728
       117  -8.8407     90.4436    169.2148   1.1353804728e+02   2.8723570190e+01    0.1725295    0.1173441 -65.77 0.0009709486    1.436    0.304
       118  -8.9490    156.9801    168.4984   9.9248107436e+01   1.7103332325e+01    0.2077982    0.1279293  44.84 0.0003661141    1.491    0.330
       119 -12.4390     68.6338    144.7834   1.1495474061e+02   3.7127004593e+01     1.160988     1.002573  43.65  0.005394301    1.329    0.248
       120 -12.3624     43.9952    161.5993   1.2252146773e+02   3.6466380440e+01     0.489559    0.3823481  29.12  0.001143596    1.722    0.419
       121 -13.0234     51.2603    157.4988   1.2052179532e+02   3.6513876496e+01    0.9157001    0.6891925  58.98  0.002886113    1.269    0.212
       122 -11.4791     25.3777    164.3901   1.2661792547e+02   3.7809233725e+01    0.5437939    0.2172767 -74.04  0.002895329    2.044    0.511
       123 -10.2608    203.6776    165.4220   8.9318361757e+01   8.2750200721e+00    0.2800459    0.2364248  49.58 0.0004981084    1.225    0.184
