#   1 NUMBER                 Running object number                                     
#   2 MAG_AUTO               Kron-like elliptical aperture magnitude                    [mag]
#   3 X_IMAGE                Object position along x                                    [pixel]
#   4 Y_IMAGE                Object position along y                                    [pixel]
#   5 X_WORLD                Barycenter position along world x axis                     [deg]
#   6 Y_WORLD                Barycenter position along world y axis                     [deg]
#   7 A_WORLD                Profile RMS along major axis (world units)                 [deg]
#   8 B_WORLD                Profile RMS along minor axis (world units)                 [deg]
#   9 THETA_WORLD            Position angle (CCW/world-x)                               [deg]
#  10 FWHM_WORLD             FWHM assuming a gaussian core                              [deg]
#  11 ELONGATION             A_IMAGE/B_IMAGE                                           
#  12 ELLIPTICITY            1 - B_IMAGE/A_IMAGE                                       
         1 -10.4186     10.2793     18.7889   1.1087117914e+02   6.9665451761e+01     1.186684    0.4595765 -14.68  0.003679661    7.914    0.874
         2 -10.8416     23.0779     34.4383   1.1115137535e+02   6.6219387266e+01    0.7138086    0.4350979   7.51   0.00266144    1.670    0.401
         3  -9.7839     28.0328     22.5089   1.0441857741e+02   6.7465111040e+01    0.7794673     0.369242  -5.78   0.00336425    3.756    0.734
         4 -10.0571     69.7741     40.7362   9.5582905981e+01   5.9306229844e+01    0.9460596    0.3952051 -29.46  0.003483576    2.568    0.611
         5  -8.8743     46.4056     20.3520   9.6037785148e+01   6.5489035591e+01    0.3923818    0.1708361 -22.47  0.001912393    2.554    0.608
         6  -9.9775     51.9011     13.6716   9.1165764407e+01   6.5469048615e+01    0.5659809    0.2993388  21.61  0.003131434    1.952    0.488
         7  -9.6837     63.1753     21.5960   9.0462784912e+01   6.2843307112e+01    0.4005602    0.2314745 -44.48  0.001755981    2.429    0.588
         8 -10.0352     64.5987     13.3648   8.6637226618e+01   6.3501954560e+01    0.3131129    0.2160956  33.05 0.0002928258    1.242    0.195
         9  -8.8017    104.1191     14.7893   7.6149186929e+01   5.5919557152e+01     0.384854    0.1725904   1.71  0.001280579    5.415    0.815
        10  -9.3714     73.4042     19.4319   8.6256217630e+01   6.1369308333e+01    0.2982139    0.1966272 -37.23 0.0009334336    1.795    0.443
        11  -9.5945     73.5588     13.1776   8.3729003829e+01   6.1983711938e+01    0.4146192    0.1727377 -15.94  0.001855166    3.078    0.675
        12  -8.7155     96.7091     12.3095   7.7044613998e+01   5.7668007446e+01    0.3669007    0.1817573   3.50  0.001575143    3.296    0.697
        13  -8.9757     27.3799     15.8108   1.0189848206e+02   6.8413218458e+01    0.2428399    0.1231741 -34.91  0.001468047    1.825    0.452
        14 -10.7220    248.8084     11.1496   5.5494822395e+01   2.3445035760e+01    0.5673245    0.3343982 -39.74  0.003417608    1.735    0.424
        15  -9.2568    111.6051     15.1455   7.4569397942e+01   5.4303955763e+01     0.322152    0.2211847 -74.45  0.001223973    2.313    0.568
        16 -10.7555     37.0839      9.5931   9.5094940252e+01   6.7976256019e+01    0.6788769    0.2394746 -36.98  0.001950049    3.062    0.673
        17  -9.5888      2.1998     14.3310   1.1292795151e+02   7.0915118795e+01    0.4288746     0.173746 -50.72  0.002254816    3.046    0.672
        18 -10.3697      6.2332      4.9663   1.0691814318e+02   7.1837425341e+01    0.4905228     0.286326  11.78  0.001382874    1.549    0.355
        19  -8.8946      2.5516      2.8511   1.0779952828e+02   7.2404090450e+01    0.2198437   0.09889348 -36.58  0.001401149    1.885    0.469
        20  -9.8263    125.1437     13.5154   7.1230231474e+01   5.1487954289e+01    0.3072486    0.1804854 -29.68  0.001230879    1.916    0.478
        21  -9.4606     85.1357     13.0461   8.0331836781e+01   5.9869701893e+01    0.3386981    0.2329058 -55.84  0.001467475    2.391    0.582
        22  -8.1262     80.5741     12.4014   8.1358655380e+01   6.0786793888e+01     0.231978    0.1272105 -44.65  0.001175115    2.685    0.628
        23  -8.9326    133.7606     12.8678   6.9420677586e+01   4.9600784734e+01    0.2120803    0.1653751 -40.85  0.001169226    1.473    0.321
        24  -9.5251     31.0694     11.9906   9.8653776399e+01   6.8453195894e+01    0.1876648    0.1422317  17.85  0.001071591    1.236    0.191
        25  -8.9878    114.0588     10.0993   7.2335951805e+01   5.4231913869e+01    0.2328342    0.1585007  35.78  0.000406681    1.393    0.282
        26  -9.8051     24.8065     10.6220   1.0076035018e+02   6.9334251597e+01    0.3289194    0.1619801  28.10  0.002014092    1.920    0.479
        27  -9.6841     19.7856      8.6119   1.0211683192e+02   7.0112674266e+01    0.2489422    0.1892164 -32.54  0.001244435    1.556    0.357
        28  -9.7026     18.1934      3.9759   1.0072764363e+02   7.0819090492e+01    0.2868195    0.2664255 -48.15  0.001521535    2.130    0.531
        29  -9.1294    101.9988      8.4299   7.4392250479e+01   5.6927405302e+01    0.2047201    0.1619866 -42.01 0.0005727725    1.565    0.361
        30  -9.0224     68.1346      9.1814   8.3784915505e+01   6.3311049194e+01    0.1421582    0.1321649  29.11 0.0004640021    1.302    0.232
        31  -7.7092    110.2865      7.6757   7.2306089242e+01   5.5248736385e+01    0.1139664    0.0930299 -71.86 0.0003034595    1.604    0.376
        32  -8.2796    143.3156      5.9329   6.5745129082e+01   4.8022553243e+01    0.2029825   0.06317121 -46.15 0.0004731669    4.546    0.780
        33  -9.2418    125.4685      5.2346   6.8532059263e+01   5.2133804140e+01     0.274071    0.1548455  39.31  0.001241398    1.746    0.427
        34  -9.0515     78.2974      3.9138   7.8665169140e+01   6.1954956522e+01    0.3443187    0.1934236   4.27  0.001550815    2.098    0.523
        35  -9.5781    132.8726      4.8776   6.7126205443e+01   5.0499083992e+01    0.3294173    0.1245464  41.38  0.001364589    2.900    0.655
        36  -8.0914     97.6968      5.6710   7.4397925715e+01   5.8038818327e+01    0.1795782   0.09763972  43.92 0.0006209443    1.530    0.347
        37  -8.4147     95.8510      2.8777   7.3813094811e+01   5.8634402903e+01    0.1654678    0.1611286  64.18 0.0003796804    1.256    0.204
        38  -8.4024     89.1065      3.9051   7.5820133166e+01   5.9895899179e+01    0.3366794   0.09891988 -29.25   0.00144201    3.547    0.718
        39  -9.6152     63.9203      2.9832   8.2529814579e+01   6.4581347352e+01    0.2859801    0.2122188 -47.57  0.001727889    2.113    0.527
        40  -9.5489    114.1917      4.0612   7.0286044258e+01   5.4703536845e+01    0.3911834    0.1490277  61.42  0.001430589    2.235    0.553
        41  -8.6790    209.6757      3.6909   5.7230988069e+01   3.2801703806e+01    0.1168163   0.08500379  51.37 0.0005237694    1.652    0.395
        42  -8.9271    104.6723      2.0596   7.1557731733e+01   5.6882614835e+01    0.2385708    0.1425519  49.82  0.000743537    1.357    0.263
        43  -8.4161    136.7269      1.5919   6.5503609886e+01   4.9888838958e+01    0.1716169    0.1052978  76.33 0.0009370859    1.573    0.364
        44 -10.6220    120.9712    112.0184   1.0229859380e+02   3.6548104089e+01    0.8887932    0.5343115 -66.73  0.001833839    2.359    0.576
        45  -9.7679     12.0396    235.4272   1.4694864597e+02   2.3753132487e+01    0.2284409    0.1475459 -83.14 0.0005948078    1.287    0.223
        46 -12.7666     38.9932    247.5555   1.4311507210e+02   1.8214181028e+01     2.744779    0.5613993  39.80    0.0108177    3.999    0.750
        47 -10.4017    120.5681    104.0140   1.0026324223e+02   3.8381100545e+01    0.9016487    0.4361084 -30.36  0.002983365    3.116    0.679
        48  -7.2674      1.0000    115.9914   1.3827997138e+02   5.1445340828e+01    0.1997769   0.05329351 -69.10 0.0007903008    2.859    0.650
        49 -11.0068    133.6537    109.3227   9.8265699581e+01   3.4445466077e+01    0.9429647     0.384447 -47.90  0.002940448    2.460    0.594
        50 -10.0146     91.8274    113.0377   1.1072614631e+02   4.1860054049e+01    0.5129624    0.3509016 -81.19  0.001588785    2.157    0.536
        51 -10.2434     78.0777    113.0504   1.1478471003e+02   4.4106051763e+01    0.5056217    0.3110148 -73.57  0.001593867    2.241    0.554
        52  -9.4490     14.3204    111.6405   1.3378527556e+02   5.1563341731e+01    0.3735553    0.2131798  76.59  0.001824031    2.604    0.616
        53  -8.5446    158.9442    111.9902   9.2848016149e+01   2.8170704224e+01    0.2467559    0.1891576 -83.07 0.0004463966    1.634    0.388
        54 -10.3571     65.5501    110.1562   1.1788345572e+02   4.6603273449e+01    0.7383769    0.4828683 -73.76  0.001750336    1.884    0.469
        55  -9.6696     59.0295    109.3546   1.1970012801e+02   4.7655206885e+01    0.3336373    0.2328368 -74.09   0.00104904    1.646    0.393
        56 -10.5919     63.0539     96.3018   1.1526768596e+02   5.0059161321e+01    0.8313393    0.4863329 -76.35  0.001873724    3.133    0.681
        57  -8.0900     40.1486    107.1854   1.2508415602e+02   5.0336897233e+01    0.1733851    0.1442714 -85.01 0.0003994777    1.339    0.253
        58  -9.9317    146.8500     69.4845   8.3865519025e+01   3.9156714751e+01    0.4223326    0.3532165  64.97  0.001147337    1.193    0.162
        59 -10.9461    139.4540    102.8416   9.5059367659e+01   3.4539929625e+01    0.9439529     0.506667 -43.10  0.001835397    1.846    0.458
        60  -9.7579    138.9752     92.8964   9.2428760207e+01   3.6673821951e+01    0.5120532    0.3887645 -85.84    0.0014054    1.755    0.430
        61 -11.0492    140.4304     83.7089   8.9466472151e+01   3.8116237449e+01      1.38959    0.3539526 -38.38  0.003865054    4.184    0.761
        62  -9.2178    139.9334     75.9066   8.7324373068e+01   3.9656517151e+01    0.4029308    0.2075122 -44.87  0.001046859    2.010    0.502
        63  -7.7327    167.4890    114.4548   9.1562602541e+01   2.5672911237e+01    0.1571357    0.1504994 -75.61 4.515241e-05    1.015    0.015
        64  -9.5318     81.3823    100.6438   1.1065338129e+02   4.6390289142e+01    0.4317633     0.267978 -57.57  0.001105396    1.667    0.400
        65 -10.9861     44.5762    102.3752   1.2264855717e+02   5.0960791005e+01     0.723738    0.4327535  76.21  0.002866804    3.519    0.716
        66 -10.7161     20.8966    101.3985   1.2996116617e+02   5.3385295263e+01    0.8573227    0.4501074  78.57  0.003197605    4.617    0.783
        67  -8.6690    165.8673    104.2361   8.9273510113e+01   2.8157744587e+01    0.2727929    0.2014141 -54.98 0.0004697174    1.383    0.277
        68  -8.3191     14.2998    105.0493   1.3267583573e+02   5.3056662492e+01    0.1775065    0.1280649 -59.63 0.0005137359    1.088    0.081
        69  -9.2401      6.5270    103.8334   1.3483662710e+02   5.3843408148e+01    0.3487009    0.2023643  74.18  0.001416535    2.551    0.608
        70  -9.6386    149.3798    103.2490   9.2763849547e+01   3.2200570984e+01    0.3834621    0.2826993 -59.55 0.0008978136    1.471    0.320
        71  -8.6795     92.6171    103.5166   1.0803478347e+02   4.3867623741e+01    0.4029298     0.248219   0.24  0.001424524    3.443    0.710
        72  -8.2721     73.6469    102.8783   1.1361293715e+02   4.7094617384e+01    0.2049386    0.1256848 -61.40  0.000503923    1.746    0.427
        73 -10.9553    244.8992     98.9974   7.4045175153e+01   1.1243140649e+01    0.5638529    0.2123711 -50.64  0.002116272    2.629    0.620
        74  -7.8530    187.6344     99.3150   8.3533617313e+01   2.3980907895e+01     0.163235    0.1162839 -79.22 0.0007039215    1.769    0.435
        75  -9.4558     94.3204     97.2856   1.0584076900e+02   4.4921577268e+01    0.3099997    0.2467559 -70.21 0.0005110376    1.505    0.336
        76  -8.3443    158.8745    101.1931   9.0019453586e+01   3.0414959530e+01    0.2357998    0.2064281 -78.95 0.0004583465    1.215    0.177
        77  -8.6444    164.3259     94.5879   8.7049415327e+01   3.0436307495e+01    0.2833498     0.173225 -51.04 0.0007371273    1.692    0.409
        78 -10.3657     36.8059     81.1807   1.2016072154e+02   5.6364241953e+01    0.6525189    0.3177381 -18.34  0.002553296    3.711    0.731
        79  -8.1924     32.5910     95.4780   1.2498586037e+02   5.3704839451e+01    0.1700431    0.1474429 -55.58 0.0001087657    1.085    0.078
        80 -10.3167     34.4799     90.7797   1.2329834318e+02   5.4553704049e+01    0.5423147    0.2703397 -71.37   0.00167162    2.734    0.634
        81 -11.0175    149.8803     88.0037   8.8463557933e+01   3.5113653485e+01    0.6401881    0.4638523 -36.09   0.00280108    1.432    0.302
        82  -9.6903    149.8506     81.4656   8.6631438215e+01   3.6342248566e+01    0.4122745    0.2132309 -41.21  0.001180185    1.947    0.486
        83  -8.7356     95.8362     91.0180   1.0362712225e+02   4.5967171160e+01    0.4404056    0.2665472  -8.41  0.001559029    3.412    0.707
        84 -10.1850      4.3329     89.7064   1.3307191555e+02   5.7065003113e+01    0.5197207    0.2776475 -85.93  0.001882098    2.605    0.616
        85  -9.5446    157.4019     90.5630   8.7473128826e+01   3.2854592485e+01    0.3473832    0.2527387 -24.34  0.001581841    1.649    0.394
        86  -9.6538    112.1458     89.6052   9.8519280676e+01   4.3111972432e+01    0.5869454    0.3091197  31.86   0.00227792    2.382    0.580
        87 -10.1613     85.2359     86.5741   1.0556673615e+02   4.8743314945e+01    0.4472826    0.3341759 -79.19 0.0009510067    2.026    0.506
        88  -9.6051     87.2573     78.8357   1.0264415464e+02   4.9936075353e+01    0.7267176    0.3571025  25.18  0.002384917    3.021    0.669
        89 -10.8777     49.6758     82.0734   1.1594750107e+02   5.4781207481e+01      1.20853    0.7144057 -29.40  0.003929239    1.809    0.447
        90 -10.6783     55.2700     71.0416   1.1085169649e+02   5.6293419161e+01    0.5252951    0.3577579  56.11  0.001320527    2.283    0.562
        91  -8.8322     89.5002     52.8424   9.3549829820e+01   5.4085976622e+01    0.4063743    0.2424802  22.46  0.001898476    2.057    0.514
        92 -10.5750     88.8846     38.1655   8.8588383217e+01   5.6315695655e+01     0.739869    0.2843964  38.85  0.003040304    2.609    0.617
        93  -9.8941     54.8410     63.0897   1.0854051178e+02   5.7838610840e+01    0.3727864    0.2660537  -7.99  0.001588442    1.491    0.330
        94 -10.5098     63.3074     60.9151   1.0485235312e+02   5.7064035830e+01    0.7847579     0.214015  37.74  0.002811071    3.814    0.738
        95 -10.2477     85.0577     48.1096   9.3278880906e+01   5.5616752982e+01    0.3486406    0.3210778 -74.72 0.0009043267    1.485    0.327
        96  -9.9434     72.9956     59.0639   1.0093584458e+02   5.5913142632e+01    0.4917866    0.2473646 -48.76 0.0009856013    2.276    0.561
        97  -9.9661     78.5221     48.4173   9.5456794274e+01   5.6717253833e+01    0.7099791    0.4393895  11.13  0.003442159    2.112    0.526
        98 -10.4546     20.9462     84.1074   1.2636021346e+02   5.7148162698e+01    0.6952021    0.1205747 -49.47    0.0024864    3.562    0.719
        99 -10.6778     25.2898     77.9771   1.2340362984e+02   5.8078961236e+01       0.5845     0.464066  81.01  0.001953973    1.830    0.453
       100  -8.9640    163.5993     87.0644   8.5172945273e+01   3.2042753960e+01    0.3313403    0.1459835 -39.92  0.001217106    2.276    0.561
       101  -8.8071     65.2138     85.7036   1.1172704631e+02   5.2022545850e+01    0.5181422    0.2776558   0.37  0.001644867    5.043    0.802
       102  -8.8455    126.5523     83.3055   9.2806707378e+01   4.1305384130e+01    0.4963185    0.2952233  14.55  0.001637057    3.720    0.731
       103 -10.3676    103.7790     82.4893   9.8796673629e+01   4.6181004592e+01    0.5067896    0.2754765 -50.03 0.0009750325    1.976    0.494
       104  -8.5485    170.2479     83.9958   8.2965543401e+01   3.1013741868e+01    0.1993497    0.1276224 -40.51 0.0007287061    1.569    0.363
       105  -9.3799    157.7528     83.6826   8.5500206102e+01   3.4064775305e+01    0.3085756    0.1983358 -51.37 0.0007656361    1.636    0.389
       106  -8.3517     63.4944     82.0649   1.1127052384e+02   5.3010358945e+01    0.2006797    0.1219847 -48.36 0.0006680473    1.513    0.339
       107  -8.8282    118.9139     80.5612   9.4004200061e+01   4.3469508350e+01    0.2815568    0.2078748 -51.78 0.0006781864    1.456    0.313
       108  -9.0895     74.0544     80.1489   1.0723493044e+02   5.1847772500e+01    0.3422509    0.2077325 -58.42 0.0009809235    1.996    0.499
       109  -9.6187      7.7222     77.5146   1.2949946420e+02   5.9435039858e+01    0.3649064    0.1224777 -36.89  0.001583265    3.043    0.671
       110  -8.9581    184.3228     78.0393   7.8690697849e+01   2.8677649567e+01    0.2632356    0.2392238  47.67 0.0006428664    1.200    0.166
       111  -9.4055    166.0683     78.9654   8.2450598881e+01   3.2925481291e+01    0.2284312    0.2188441 -79.32 0.0006393443    1.021    0.021
       112 -10.9910    162.3800     71.7351   8.1207841574e+01   3.5070021424e+01    0.5954342    0.3522359 -38.99  0.001664227    1.727    0.421
       113  -9.6349    157.5073     63.4773   7.9875803235e+01   3.7604944092e+01    0.3683045    0.2329036 -52.52  0.001086299    1.740    0.425
       114 -10.2161    156.9577     75.6909   8.3441282025e+01   3.5690203708e+01    0.4443026    0.2898589 -34.70  0.001498004    1.623    0.384
       115 -10.6284    156.8820     69.7239   8.1774904669e+01   3.6731308374e+01    0.5593569    0.3568197 -27.77  0.001777963    1.827    0.453
       116  -9.5284    127.2131     75.1951   9.0229809895e+01   4.2657912890e+01    0.3541003    0.2705825 -63.39 0.0008106171    1.584    0.369
       117  -9.1579    129.5951     68.7867   8.7698977334e+01   4.3247500324e+01    0.4749607    0.2542993  25.88  0.001631567    3.386    0.705
       118  -9.5192    131.1288     65.0647   8.6192504268e+01   4.3525605045e+01    0.4826452    0.3722162 -88.70  0.002376228    1.724    0.420
       119  -8.7474    120.0335     75.9589   9.2321651712e+01   4.4082287793e+01    0.2297456    0.1747915  11.41 0.0005769614    1.646    0.392
       120 -10.1315    234.5434     74.4487   7.0053032574e+01   1.7615817453e+01    0.2682454    0.2361204  79.36  0.001613217    1.177    0.150
       121 -10.4808    238.9981     70.4411   6.8603917446e+01   1.7297983190e+01    0.3955053    0.2715969  81.93  0.001676891    1.523    0.344
       122 -10.2701    197.7289    247.7574   1.1267285778e+02  -6.6992079627e+00    0.3802613    0.2119778  55.53   0.00176225    2.650    0.623
       123 -10.2833     16.8306     60.8167   1.2208037737e+02   6.2146192890e+01    0.5135769    0.3101827 -46.91  0.003185528    1.308    0.236
       124 -11.9909    246.5481    237.6539   1.0191560496e+02  -1.2611067673e+01    0.2426399    0.2103179  -5.10 0.0007338303    1.162    0.140
       125  -9.6627    188.0591    233.7040   1.1226135813e+02  -2.8501895384e+00    0.2707863    0.1957415 -63.25  0.001451928    1.952    0.488
       126 -10.1932      4.9316     42.0359   1.2146544754e+02   6.6373183662e+01    0.5389934    0.2805985 -62.17  0.003017093    2.358    0.576
       127 -10.2196      8.4121     47.0543   1.2151756560e+02   6.5268673930e+01     0.631984    0.1947269  25.18  0.003043186    3.510    0.715
       128  -9.9991     14.3758     44.9426   1.1839639581e+02   6.5218599825e+01     0.404491    0.2167492 -25.01  0.001191843    1.760    0.432
       129  -9.8100      6.9196     32.5193   1.1751685438e+02   6.7836527205e+01    0.3081934     0.177107   4.51    0.0011312    1.800    0.445
       130 -10.1832      7.3000     28.4396   1.1591428837e+02   6.8457444709e+01    0.2890913    0.2672492  31.47  0.001010048    1.678    0.404
       131  -9.4295    115.2007     72.5239   9.2565158161e+01   4.5725143281e+01    0.4551725    0.2825485 -38.34  0.001863879    1.626    0.385
       132  -9.4169    120.7640     66.5209   8.9234291001e+01   4.5578483635e+01    0.3664561    0.3050262 -29.00  0.001070888    1.237    0.191
       133  -8.2618    121.9932     61.0379   8.7207005078e+01   4.6212712476e+01    0.2725112    0.1866569  -1.16  0.001156536    2.083    0.520
       134 -10.0122     81.5010     72.5475   1.0252007833e+02   5.2114966838e+01     0.485538    0.3830192  30.33   0.00109413    1.291    0.225
       135  -9.7192     84.3936     64.2350   9.8945365998e+01   5.3122191280e+01    0.8758032    0.4919089   9.41  0.003209925    3.602    0.722
       136  -9.4861    118.2788     54.8906   8.6198985926e+01   4.7981635033e+01    0.4471827    0.2948633 -30.66  0.001608958    1.600    0.375
       137  -9.3794    105.7666     71.4080   9.4834004026e+01   4.7857056772e+01    0.4802669    0.3582962   7.90  0.002389574    1.647    0.393
       138  -9.7770    109.8662     64.8088   9.1603962360e+01   4.8170847850e+01    0.6094518    0.2381072 -44.23   0.00227369    2.758    0.637
       139  -9.0760    111.3953     58.0221   8.9009365761e+01   4.8960794271e+01    0.4939969    0.2167069  38.07   0.00135185    2.531    0.605
       140  -9.8688    169.1767     71.4141   7.9770188418e+01   3.3481203318e+01    0.3025103    0.1784132 -54.53 0.0007557449    1.891    0.471
       141  -9.3402     96.6893     59.0339   9.3479549961e+01   5.1748426376e+01    0.6950261    0.3721327  -9.31  0.002264581    4.459    0.776
       142 -10.4209     31.8230     64.7187   1.1748341981e+02   6.0132210954e+01    0.8120929    0.3230201 -28.24  0.003068928    3.841    0.740
       143  -7.9023     23.4637     68.9922   1.2177592224e+02   6.0042419464e+01    0.1760174    0.1413126 -68.25 0.0005550713    1.472    0.321
       144  -9.8086     94.7237     68.3882   9.7105549177e+01   5.0528804520e+01    0.3715218     0.246267 -46.10 0.0008157818    1.585    0.369
       145  -9.5631    137.9452     65.3686   8.4670842866e+01   4.1918729224e+01    0.5516136    0.2285206 -39.20  0.001394101    2.463    0.594
       146  -9.6510    139.0875     57.1869   8.1950196869e+01   4.2951697005e+01    0.4894394    0.2290864 -48.35  0.001201714    2.541    0.606
       147 -10.2610    142.2153     48.1292   7.8541107247e+01   4.3548731393e+01    0.5971422    0.3125833 -31.59  0.001737422    2.084    0.520
       148  -8.5625    236.1630     63.8141   6.7509094199e+01   1.8964411906e+01    0.1659804    0.1625237  79.95 0.0005752254    1.297    0.229
       149  -8.8004    147.0272     63.9588   8.2214193347e+01   4.0026716344e+01    0.2741344    0.1964678   4.09 0.0008367184    2.066    0.516
       150  -9.0032    146.4904     59.0064   8.0875442799e+01   4.0936611925e+01    0.3234392    0.2121585 -58.79  0.000913432    1.866    0.464
       151  -9.2339    147.3297     54.5618   7.9387961051e+01   4.1412921199e+01    0.3977621    0.2098978 -30.38  0.001713214    2.124    0.529
       152  -9.8997    156.3263     57.0205   7.8272588325e+01   3.8895487683e+01    0.4075329    0.2711473  65.40  0.001389831    1.491    0.329
       153  -9.7591    152.2209     54.4287   7.8346443109e+01   4.0268707283e+01    0.3410888    0.2719479 -34.19  0.001832949    1.344    0.256
       154  -8.5945    164.5125     60.5056   7.7663740995e+01   3.6382936602e+01    0.1453206    0.1344788  84.79  0.000116578    1.031    0.030
       155 -10.9252     21.9914     53.7774   1.1803569091e+02   6.3047290904e+01    0.7669747    0.4609163 -76.78  0.003325337    4.287    0.767
       156  -9.0026    129.8102     58.2258   8.4408697818e+01   4.4917971082e+01    0.2430324    0.2177507  25.54 0.0005188743    1.140    0.123
       157  -8.6130     87.3878     58.5641   9.6133693718e+01   5.3554001679e+01    0.2420397    0.1906755 -57.06 0.0006891836    1.629    0.386
       158 -10.3870     50.1341     54.6188   1.0748303732e+02   5.9944752577e+01    0.3839412    0.3225907 -74.73  0.001729621    1.895    0.472
       159  -9.8335     55.5259     43.9156   1.0176381053e+02   6.0977507119e+01    0.7772359    0.3921492  -1.07  0.002591479    5.284    0.811
       160 -10.0838    173.3659     51.8286   7.3682983413e+01   3.5539867184e+01    0.5213892    0.3466978  88.80  0.002087256    1.776    0.437
       161  -9.7074    162.4957     54.5013   7.6368983133e+01   3.7785574019e+01    0.2803091    0.2038573 -49.72  0.001224603    1.437    0.304
       162  -9.7065    163.5921     50.7509   7.5116914336e+01   3.8068507790e+01    0.2693218    0.2224462 -44.95   0.00120157    1.265    0.210
       163  -9.8646    167.2903     49.9537   7.4230860460e+01   3.7286426727e+01    0.3223892     0.299765  64.50  0.001289602    1.070    0.066
       164  -9.0545    105.4194     51.8045   8.8590915124e+01   5.1150983602e+01    0.5510874    0.2636464 -29.63   0.00219343    2.299    0.565
       165  -8.9484    111.5672     47.1294   8.5393008612e+01   5.0555847127e+01    0.3165678    0.2493878 -15.63 0.0006953084    1.360    0.265
       166  -9.4279     44.3304     53.5314   1.0928608385e+02   6.0841611498e+01    0.2679552    0.1612338 -13.94 0.0005788708    1.922    0.480
       167  -7.8372    134.2881     52.3323   8.1548339013e+01   4.4787125431e+01    0.1424353    0.1062808  20.63  0.000701641    1.624    0.384
       168  -8.9521    157.7014     49.6748   7.5908239138e+01   3.9645040881e+01      0.33906    0.2000833 -66.43  0.001414349    2.439    0.590
       169  -9.1600    149.7864     48.2614   7.7034621383e+01   4.1740446952e+01    0.4614009    0.1943075 -34.27  0.001849131    2.512    0.602
       170  -9.7214    153.2957     41.5426   7.4400608513e+01   4.1816698026e+01    0.3702291    0.2606686 -68.98  0.001153072    1.732    0.423
       171  -9.8192    130.7268     45.8139   8.0327363988e+01   4.6526692232e+01    0.8235992    0.3637634 -18.53  0.002141662    4.057    0.754
       172  -8.7844    121.0074     46.8749   8.2938801641e+01   4.8555831727e+01    0.2202943    0.1914947 -32.37 0.0004159248    1.225    0.183
       173  -8.2088    162.1888     46.2092   7.4100661468e+01   3.9048458261e+01     0.192691    0.1558248 -83.99 0.0005608188    1.309    0.236
       174  -9.7594     31.8755     42.8905   1.1051964188e+02   6.4006062082e+01    0.7104131    0.3016543  43.51  0.003088897    4.032    0.752
       175  -9.9457     37.7434     42.1343   1.0790479967e+02   6.3496017587e+01    0.3287236    0.2666633  88.17  0.001746265    2.712    0.631
       176 -10.4356     35.8456     37.9755   1.0715695019e+02   6.4362384122e+01     0.447861    0.2531628 -14.09 0.0004186745    1.979    0.495
       177  -8.1644    209.8761     44.9169   6.6519189175e+01   2.7758160635e+01    0.1902445    0.1723913  64.29 0.0004246257    1.244    0.196
       178  -9.4710     72.4270     26.4878   8.9321730672e+01   6.0737301702e+01    0.4131913    0.3063386  18.03   0.00260058    1.220    0.180
       179 -11.7170     50.8069    225.6122   1.3911124032e+02   2.1220182439e+01     1.351347    0.5768149  60.17  0.006249604    2.354    0.575
       180  -9.9533     76.0300     31.9923   9.0267400261e+01   5.9439286628e+01    0.3644431    0.3481004 -34.29  0.001675989    1.351    0.260
       181  -9.6692     79.7685     23.7647   8.5980859118e+01   5.9760841314e+01    0.4654308    0.2164058  30.68  0.001733267    2.374    0.579
       182  -9.1084     84.6957     21.9426   8.3834812487e+01   5.9053874948e+01    0.2611016    0.2228463  51.51  0.001191328    1.301    0.231
       183  -8.6959    191.0388     41.8230   6.8311158397e+01   3.2663428547e+01    0.2104974    0.1933147 -58.40 0.0004809759    1.153    0.132
       184  -8.3172    122.7634     40.8158   8.0562633586e+01   4.8987140685e+01    0.3640841    0.1909918  15.27  0.001151123    4.867    0.795
       185  -9.1012    104.8733     41.0188   8.5096199574e+01   5.2789803966e+01    0.3417737     0.200079 -48.01 0.0009072507    2.177    0.541
       186  -8.2829    106.3286     36.3032   8.3098292589e+01   5.3100191837e+01    0.2491865    0.1754658  23.23 0.0009465877    1.517    0.341
       187  -8.9260    139.0793     40.4719   7.6872425622e+01   4.5315372836e+01    0.2886563    0.2143989 -77.95   0.00105798    1.723    0.420
       188  -9.6639    148.3905     41.4180   7.5296314377e+01   4.3001700284e+01    0.3883928    0.2817607  56.73  0.002081941    1.254    0.203
       189  -9.6593     49.6770     36.3318   1.0113200135e+02   6.2911733897e+01    0.3971861    0.2720788  43.38  0.002403603    1.822    0.451
       190 -10.0859    159.2698    215.9881   1.1518198677e+02   5.5010277839e+00    0.2322757    0.2246769  55.64 0.0002734928    1.056    0.053
       191  -8.0082     62.3211    209.3210   1.3510694740e+02   2.3251260851e+01    0.1205998    0.1003691 -41.85 0.0007044691    1.672    0.402
       192  -8.6941     42.4563     28.0168   1.0069837930e+02   6.5022955706e+01    0.1875752    0.1312103   0.27 0.0003408791    1.294    0.227
       193  -8.7420    219.0622     37.4845   6.3708870183e+01   2.6651295944e+01     0.219294    0.1968505  46.30 0.0007247186    1.448    0.310
       194  -8.9077    144.0307     36.6164   7.4715042460e+01   4.4646171441e+01    0.2428481     0.178111 -54.00 0.0006646182    1.552    0.356
       195  -8.8214    132.7447     35.9577   7.6799595952e+01   4.7350362380e+01    0.2449216    0.1999391 -33.29 0.0004308728    1.339    0.253
       196 -10.5538    133.9548     31.0574   7.5020015488e+01   4.7660277214e+01    0.3046566    0.2435918  13.22  0.001751258    1.458    0.314
       197  -8.7331    118.8140     34.8530   7.9538961087e+01   5.0612337165e+01    0.2664969    0.1680457 -38.03 0.0006801292    1.742    0.426
       198  -9.2685    110.3209     33.6307   8.1174073239e+01   5.2592493918e+01    0.3583682    0.1976058 -40.78  0.001211396    2.067    0.516
       199  -9.4764    100.7659     32.8414   8.3355509469e+01   5.4669448551e+01    0.4696829    0.2203438 -21.67  0.001704625    2.581    0.613
       200  -9.4247     59.9390     34.0417   9.6485203219e+01   6.1776911136e+01    0.2818004    0.2520075 -21.60  0.001020139    1.271    0.213
       201  -8.6780    159.0000     32.9693   7.0936109246e+01   4.1533764360e+01    0.3519574   0.07820953 -30.14  0.001059123    5.005    0.800
       202  -8.6422    153.0414     35.0003   7.2555362305e+01   4.2710902729e+01    0.1661379    0.1503067  67.46 0.0009995532    1.006    0.006
       203  -8.8935    177.9809     30.2978   6.7242837751e+01   3.7288784800e+01    0.2502846     0.168105 -64.78  0.001309285    1.605    0.377
       204  -9.8832    172.7914     26.4974   6.6999792833e+01   3.8986699496e+01    0.5236697    0.2882521 -73.41  0.001861182    2.499    0.600
       205  -9.1817    191.0354     29.2499   6.5188995091e+01   3.4285759993e+01    0.5096771    0.2426086 -73.28  0.001902572    3.362    0.703
       206  -8.9577    227.9201     25.7317   6.0214423940e+01   2.6176600783e+01    0.2763368    0.1761672 -38.98   0.00112745    1.634    0.388
       207  -8.8859     91.3983     26.2479   8.3538293976e+01   5.7299936556e+01    0.2513868    0.1994678 -51.90 0.0008267837    1.698    0.411
       208  -8.8706     92.3117     20.9547   8.1344750709e+01   5.7698367207e+01    0.4231965    0.1901887  29.32  0.001673116    2.872    0.652
       209  -8.8627     63.5730     26.6435   9.2335284332e+01   6.2177797610e+01    0.3834569    0.1383422  42.54  0.001488971    2.623    0.619
       210  -8.8569     10.7928    207.4590   1.4527289608e+02   2.9766351413e+01    0.2880816    0.1931913  17.45  0.001741394    2.501    0.600
       211  -8.2401     21.9580    203.5604   1.4280052175e+02   2.9487029896e+01     0.227791    0.1099454 -46.62  0.001031489    3.341    0.701
       212  -9.1835    144.1874     25.9246   7.1491903025e+01   4.5865389629e+01    0.1996879    0.1694406 -77.12 0.0007492393    1.292    0.226
       213  -9.6033    153.9737     26.6699   6.9998624243e+01   4.3471021219e+01    0.3938099    0.1104769  55.37  0.001438003    2.866    0.651
       214  -8.8881    128.7481     25.0276   7.4184569100e+01   4.9525172828e+01    0.4120816    0.2260959 -19.68  0.001614949    2.218    0.549
       215  -9.5852    118.6943     21.7651   7.5241454854e+01   5.2113004093e+01    0.2446287     0.218728 -22.93 0.0007673517    1.250    0.200
       216  -9.6412    199.4367     20.0369   6.1954746974e+01   3.3389971878e+01     0.463707    0.2650188 -87.46  0.001840213    1.813    0.448
       217  -8.8981    111.6288     21.1758   7.6619032507e+01   5.3706434428e+01     0.265902    0.1198769 -27.42  0.001236528    2.432    0.589
       218  -9.1191    102.9306     21.1382   7.8674165503e+01   5.5540677605e+01    0.2905555    0.1749679 -29.34  0.000984489    1.811    0.448
       219 -10.0938    192.2633    194.8939   1.0435957020e+02   3.4395047203e+00       0.9823    0.4679502 -62.38  0.002820779    5.313    0.812
       220  -8.3619    160.9777    201.0709   1.1218247711e+02   8.1872908989e+00    0.1722784    0.1627489  45.88 0.0004547574    1.009    0.009
       221  -8.3026    230.4318    168.0827   9.1406268941e+01   1.3559582326e+00    0.4224916     0.158838 -49.13  0.001474764    3.062    0.673
       222  -9.3830     40.9191     20.7859   9.8367268129e+01   6.6165199584e+01    0.1850228    0.1362455 -12.85 0.0003472699    1.143    0.125
       223  -9.2569    132.5091     17.5820   7.1108144083e+01   4.9437396492e+01    0.2493778    0.1935741  53.39 0.0008444689    1.116    0.104
       224  -8.5009     95.7551     16.9380   7.8969623000e+01   5.7422854292e+01    0.1865578     0.164863  35.25 0.0004283547    1.069    0.065
       225  -9.0557    177.0398    166.0381   1.0164092591e+02   1.2397939799e+01    0.2438519    0.1909524 -88.97 0.0006351422    1.687    0.407
       226  -8.5677    250.6599    159.3730   8.6084752559e+01  -6.9678407689e-01      0.23043    0.1120127 -42.31  0.001030495    1.818    0.450
       227  -8.9664    107.6312    158.6706   1.1662580488e+02   2.8105175551e+01    0.2312947    0.2278446  44.00 0.0004250115    1.131    0.115
       228  -9.1682    189.8968     15.5106   6.1982456630e+01   3.6137259083e+01    0.2814796    0.2006011  78.22 0.0008263122    1.203    0.169
       229  -8.2869    173.2597    153.5415   9.9706309012e+01   1.5913612820e+01     0.236097    0.1809652 -39.65 0.0005004688    1.313    0.238
       230 -10.2959    219.9676    148.2043   8.9026014256e+01   7.1639038058e+00    0.2550398    0.2446603  55.90  0.000360792    1.135    0.119
       231  -8.9552    133.5349    146.2342   1.0740844138e+02   2.6050259192e+01    0.5947148    0.1549154 -52.38    0.0015546    4.178    0.761
       232  -9.5834     66.9653    144.2492   1.2455920139e+02   3.8233805860e+01    0.4746228     0.320855  71.46  0.002283572    1.821    0.451
       233  -7.7047    106.0049    143.4619   1.1388569743e+02   3.2104287841e+01    0.2016884    0.1513653  42.29 0.0001298729    1.393    0.282
       234  -8.4637    112.1039    133.8614   1.1010242142e+02   3.3268853831e+01    0.3284128    0.2196077  80.33  0.001300879    2.313    0.568
       235  -9.7739    134.9437    131.3793   1.0356289762e+02   2.9222990188e+01    0.5316306    0.4238292 -32.76  0.002517392    1.374    0.272
       236  -9.6380     98.3614    128.6487   1.1263494698e+02   3.7056138186e+01    0.5612304    0.3530695  83.63  0.002061937    2.941    0.660
       237 -10.1084     46.2456     29.9596   9.9986083263e+01   6.4267218157e+01     0.376152    0.2372806 -47.25 0.0009083569    2.121    0.528
       238  -9.4266    238.6335    130.0181   8.1781408122e+01   6.8925234452e+00    0.2359293    0.2102455  54.86 0.0002788674    1.260    0.206
       239  -7.9585    141.5277     12.5047   6.7965618146e+01   4.7849394240e+01    0.1277587    0.1107463  70.52 0.0002021717    1.060    0.056
       240  -8.2780    224.3293    129.6357   8.4088906925e+01   9.8686330455e+00    0.2305362    0.1669387 -70.74 0.0007979607    1.703    0.413
       241  -7.4625    167.2599    130.7211   9.5679358262e+01   2.2242776403e+01    0.1522039    0.1221622 -80.84 0.0001672032    1.473    0.321
       242 -10.3016     15.9025     70.7992   1.2501967364e+02   6.0263248432e+01    0.5933034    0.2307768 -45.28  0.002304161    1.974    0.493
       243  -8.6389    160.4005    128.6744   9.6738967391e+01   2.4238990920e+01    0.3231926    0.1479818 -49.28  0.001142515    2.204    0.546
       244 -10.0236     58.2656    124.7540   1.2324407917e+02   4.4132617651e+01    0.5847427    0.3566549  78.64  0.002457722    2.700    0.630
       245 -10.0385    117.1019    125.4920   1.0676314112e+02   3.4263997468e+01    0.5784691    0.3954535  83.06  0.001642476    2.280    0.561
       246  -9.3873    117.2211    119.5827   1.0525850434e+02   3.5604558561e+01    0.2881798    0.2241053  16.80 0.0009325814    1.628    0.386
       247  -7.5595    171.5226    126.4497   9.3683542168e+01   2.2199134984e+01     0.157686    0.1505787 -73.44 0.0003568838    1.026    0.026
       248  -9.4782     27.4480    123.0443   1.3185316054e+02   4.7866409008e+01      0.51717    0.2672989  72.39  0.002080383    3.521    0.716
       249  -9.6141    134.9057    122.3072   1.0132084564e+02   3.1301736544e+01    0.4414234    0.2806017 -50.46   0.00147052    1.553    0.356
       250 -10.0924    130.4176    118.8850   1.0159803047e+02   3.3032876808e+01    0.5328676    0.3490053 -71.54  0.001316509    2.137    0.532
       251  -9.1484     41.2156    122.0902   1.2770239409e+02   4.6752835960e+01    0.4268432    0.2079304 -75.84  0.001589714    2.521    0.603
       252 -10.1742     70.1672    126.1990   1.2009216052e+02   4.2176715055e+01    0.5557418    0.5354163   4.75  0.001746455    1.175    0.149
       253 -10.1987    140.4545    118.7021   9.9006736459e+01   3.0900173512e+01    0.4956101    0.3292682 -56.12  0.001245141    1.583    0.368
       254  -9.8958    108.5829    114.6444   1.0636445478e+02   3.8430121108e+01    0.5178743    0.3396355 -74.11  0.001625318    2.206    0.547
       255  -8.8643    152.7760    115.9676   9.5312871788e+01   2.8737686824e+01    0.2255662    0.2094068 -52.71 0.0006154558    1.056    0.053
       256 -10.7550    108.6624    101.3381   1.0280855484e+02   4.1361768689e+01    0.9555973    0.7197174 -71.66  0.004507116    1.673    0.402
       257 -10.4912    127.2673    103.0875   9.8232577273e+01   3.7163564192e+01     0.630599     0.443592 -37.75  0.001886363    1.450    0.310
       258  -9.1545    129.9582     96.9787   9.5844029418e+01   3.7856264399e+01    0.3694076    0.2082611  29.98  0.001383942    2.450    0.592
       259 -10.1306    123.6108     91.3846   9.5919267788e+01   4.0364245949e+01    0.6250052    0.4831872 -32.12  0.001106322    1.346    0.257
