#   1 NUMBER                 Running object number                                     
#   2 MAG_AUTO               Kron-like elliptical aperture magnitude                    [mag]
#   3 X_IMAGE                Object position along x                                    [pixel]
#   4 Y_IMAGE                Object position along y                                    [pixel]
#   5 X_WORLD                Barycenter position along world x axis                     [deg]
#   6 Y_WORLD                Barycenter position along world y axis                     [deg]
#   7 A_WORLD                Profile RMS along major axis (world units)                 [deg]
#   8 B_WORLD                Profile RMS along minor axis (world units)                 [deg]
#   9 THETA_WORLD            Position angle (CCW/world-x)                               [deg]
#  10 FWHM_WORLD             FWHM assuming a gaussian core                              [deg]
#  11 ELONGATION             A_IMAGE/B_IMAGE                                           
#  12 ELLIPTICITY            1 - B_IMAGE/A_IMAGE                                       
         1 -15.2068    189.5208     33.3812   5.6300615323e+01   3.3845585662e+01     3.353178     1.938086  18.70   0.01259773    2.750    0.636
         2 -14.1526    212.3133      4.2141   4.4638099799e+01   3.1197977438e+01     1.910538    0.7044953  64.27  0.005559679    2.389    0.581
         3 -12.0139    220.2879     16.8610   4.7266170984e+01   2.7789809031e+01    0.3501723    0.2053439 -75.10  0.001451676    2.070    0.517
         4 -18.7939     36.3528    243.6144   1.2758886869e+02   2.2525014904e+01     5.796102     4.513197  61.78   0.05152204    1.362    0.266
         5 -10.8032    158.6309    202.1591   1.0313436978e+02   1.1468052127e+01    0.4524458    0.2223817 -70.99  0.001411083    6.650    0.850
         6 -11.4916    132.8732    202.9011   1.0798831532e+02   1.5842253017e+01    0.3291554    0.1967761  87.79  0.001590196    2.638    0.621
         7 -10.9530    135.8346    199.4668   1.0697653022e+02   1.5922488030e+01    0.2480978    0.1613695 -80.16   0.00134143    2.019    0.505
         8 -10.7512    141.6921    198.9461   1.0581131005e+02   1.4996084481e+01    0.1734381    0.1524611  74.86 0.0006665472    1.118    0.106
         9 -12.0314    112.9979    195.7714   1.1076625576e+02   2.0380618878e+01    0.4863143     0.348006   3.06   0.00228044    3.619    0.724
        10 -19.2001     18.0159    103.1675   1.1942707731e+02   5.1477513359e+01     15.71791    0.7787372 -69.06   0.02954521   14.736    0.932
        11 -10.8974     81.7643    195.7624   1.1657107325e+02   2.5090294416e+01    0.2925178    0.2287525 -68.43   0.00135942    1.393    0.282
        12 -11.9832    109.4381    189.6574   1.1066290912e+02   2.2074901113e+01    0.3304631    0.2436359  -9.32  0.001623443    3.236    0.691
        13 -11.6396    152.4759    192.9907   1.0290827817e+02   1.4083503528e+01    0.3638403    0.2240278  70.56  0.001772994    2.185    0.542
        14 -13.5505     71.1262    188.3927   1.1777639348e+02   2.7940264453e+01    0.6856599    0.5967584 -86.74  0.004428141    1.243    0.195
        15 -10.2922      7.6793    192.5728   1.2923736507e+02   3.4150771526e+01    0.1823887   0.07351301  44.58  0.001151682    2.224    0.550
        16  -9.6821     56.6608    188.6439   1.2046965909e+02   2.9737235952e+01    0.3352483    0.1732849 -73.71   0.00119344    1.753    0.430
        17 -11.3665     95.7319    188.1042   1.1309370250e+02   2.4500518035e+01    0.4567433    0.2367051  74.23  0.001668591    2.607    0.616
        18 -10.1691     99.6866    186.3423   1.1211778674e+02   2.4232414740e+01     0.268828    0.1541328  64.57   0.00143563    1.755    0.430
        19  -9.7685     61.0594    187.7854   1.1958288032e+02   2.9357668973e+01    0.1796582    0.1195315  72.47  0.001181532    1.261    0.207
        20 -12.2728    106.5887    210.4784   1.1367067702e+02   1.8790102617e+01    0.5418332    0.2584347  49.96  0.002084563    1.733    0.423
        21 -11.0950     94.9403    200.1152   1.1462652868e+02   2.2385225037e+01     0.308532    0.2050355  80.06 0.0008303743    1.468    0.319
        22 -11.5851    149.8114    181.2154   1.0156737010e+02   1.6615076877e+01    0.3524205    0.2195382 -86.58  0.001327393    2.829    0.647
        23 -11.4319     99.2453    196.9966   1.1348182657e+02   2.2308159198e+01    0.3270656    0.2421669  31.05  0.001857325    1.809    0.447
        24 -10.9188     99.4324    180.7220   1.1145175303e+02   2.5353356967e+01    0.2258793    0.1892536  72.47 0.0005466894    1.018    0.017
        25 -13.0216    107.1969    203.3664   1.1275756852e+02   1.9937779068e+01    0.6151823    0.3176542  58.10  0.003311516    1.775    0.437
        26 -10.4794      1.5854    210.5413   1.3107420004e+02   3.1495634301e+01    0.1273248   0.06893457  67.73 0.0009662865    1.317    0.241
        27 -11.9078    130.4075    212.7207   1.0968861342e+02   1.4617734948e+01    0.2546425    0.1889276  82.32  0.001077056    1.444    0.307
        28 -10.6431    201.6611    169.1702   8.9360192527e+01   8.5179584438e+00    0.4133014    0.2623135 -56.11  0.001955366    2.206    0.547
        29 -11.0583    204.5833    165.5541   8.8094144785e+01   8.4996583260e+00    0.4445584     0.339005 -47.58  0.001499977    1.527    0.345
        30 -10.5252    164.9520    171.5698   9.6919909751e+01   1.5439567230e+01    0.2251848     0.192725 -66.61 0.0004020967    1.318    0.241
        31 -10.8454    139.3092    168.2647   1.0152071132e+02   2.0955385164e+01    0.2802387    0.2451293 -42.04  0.001677879    1.333    0.250
        32  -9.5520     64.0835    170.5022   1.1722766532e+02   3.2396191805e+01    0.1608565    0.1058627  48.67 0.0003730742    1.485    0.327
        33  -9.5868    114.5074    169.4598   1.0682322595e+02   2.5126888221e+01    0.1856418    0.1233174  35.80 0.0006321848    1.719    0.418
        34  -9.8581    111.1967    168.3973   1.0734613552e+02   2.5893010730e+01    0.2439873    0.1640753  64.41 0.0007314772    1.468    0.319
        35 -11.7478    193.2006    165.4869   9.0239530940e+01   1.0821348152e+01     0.531692    0.3435268 -58.08  0.001546735    2.125    0.529
        36 -12.4942    194.6181    196.9718   9.5728806543e+01   5.6643458578e+00     1.185736    0.6850287 -68.99  0.004278047    5.183    0.807
        37 -10.5452     70.9061    179.1490   1.1684152312e+02   2.9773241917e+01    0.2574862    0.1606154  69.49  0.000802573    1.480    0.324
        38 -10.8064    159.5100    164.0013   9.6626007455e+01   1.7875763357e+01    0.2649048    0.2121941 -84.74  0.001091489    1.507    0.337
        39 -12.0737    204.0921    198.7593   9.4331379721e+01   3.6610679710e+00    0.3242891    0.2903778  86.66  0.002098601    1.503    0.334
        40 -10.3834      1.6300    161.5231   1.2845191866e+02   4.0565365526e+01    0.2431757   0.09197848  89.26  0.001307945    2.312    0.568
        41 -12.5241     97.6631    153.7130   1.0796309667e+02   3.1103055191e+01     0.575415    0.4273131 -37.77  0.003186438    1.830    0.453
        42 -11.1619    189.1062    155.0567   8.8921869201e+01   1.3423714734e+01     0.442341    0.3708904  69.77  0.002413084    1.373    0.271
        43 -11.5385    133.7670    145.0075   9.8464274203e+01   2.6602503992e+01     1.068908    0.2602187 -55.02  0.002760925    5.867    0.830
        44  -9.7519     87.3239    204.6653   1.1648382609e+02   2.2671693506e+01    0.2333817    0.1539648  69.35  0.000833375    1.311    0.237
        45 -10.3689    174.8063    148.9165   9.0508237919e+01   1.7522523618e+01    0.2556907    0.2022504 -68.65 0.0006300732    1.544    0.352
        46 -11.0023    143.7920    146.9800   9.6657774076e+01   2.4255463477e+01    0.3785042    0.1975197 -57.89  0.001588749    2.219    0.549
        47 -12.0911    108.4232    139.7399   1.0317596443e+02   3.2302195353e+01    0.5603883    0.3399508 -37.39  0.002573232    2.244    0.554
        48 -12.3993     96.8525    139.3146   1.0576253768e+02   3.4302043821e+01    0.2520196    0.2330969 -78.33 0.0004064734    1.099    0.090
        49 -10.4073     78.2006    134.4081   1.0927745217e+02   3.8165476973e+01    0.2134123    0.1514619  55.35 0.0006379487    1.435    0.303
        50 -11.3122    105.9120    130.7947   1.0207125691e+02   3.4655962334e+01    0.3741035    0.2843698 -74.98   0.00125612    1.332    0.249
        51 -11.3342    103.3597    125.9012   1.0171832922e+02   3.6151622028e+01    0.2818033    0.2381375 -26.10 0.0008763593    1.514    0.339
        52 -11.1082    115.5285    129.8889   9.9616099495e+01   3.3168170529e+01    0.3204053    0.2627653  -9.20 0.0006961307    1.756    0.431
        53 -11.1513    135.9417    127.8227   9.4412423094e+01   2.9726391020e+01    0.5177909    0.1672633 -51.17  0.001684217    3.282    0.695
        54 -10.3002    160.6026    127.7761   8.8858296744e+01   2.4589367286e+01    0.3015095    0.2312931 -79.57  0.001431493    1.679    0.404
        55 -10.7812    120.2159    124.1013   9.7291270625e+01   3.3550124667e+01    0.2924205    0.1895826 -40.25 0.0009723394    1.704    0.413
        56  -9.9176    135.0000    119.9622   9.2859670645e+01   3.1555203855e+01    0.2441296   0.08209176 -47.08 0.0008034447    2.949    0.661
        57 -10.2626    110.7093    119.0137   9.8493534362e+01   3.6378813364e+01    0.2195078    0.1949257  58.22 0.0006348864    1.150    0.130
        58 -11.3183     65.9823    114.5786   1.0887276535e+02   4.4183684867e+01    0.2557299    0.1696425 -64.41 0.0005753327    1.301    0.231
        59 -10.2231    167.9513    112.9184   8.3662841417e+01   2.5858839496e+01    0.3557843    0.2449005 -81.36  0.001434685    2.342    0.573
        60 -10.5196    135.0000    112.0411   9.0981541115e+01   3.3210095965e+01    0.4126949   0.08270879 -45.88  0.001048901    4.912    0.796
        61 -11.7332    120.4802    111.0191   9.4270259962e+01   3.6301344551e+01    0.4084095    0.3035058  73.39  0.002000392    1.638    0.390
        62 -10.2291    205.6144    110.1067   7.5280331954e+01   1.7584108049e+01    0.2841047    0.2141512  41.35 0.0006149666    1.329    0.247
        63  -9.8329     41.7019     91.9580   1.1124438901e+02   5.1909010181e+01    0.1709776    0.1306381 -65.32 0.0004356234    1.058    0.055
        64 -10.3395     51.8677     90.7217   1.0811428078e+02   5.1131779955e+01    0.2586299    0.1764165  37.23  0.001499395    1.732    0.423
        65  -9.1416    153.4509     80.4660   7.8063303628e+01   3.5456597233e+01    0.1529811    0.1483707  -4.06 0.0001965846    1.037    0.036
        66 -12.1112    166.4247     66.5581   7.0980662706e+01   3.4810975969e+01    0.5365159    0.3719532 -74.26 0.0005999437    2.119    0.528
        67 -13.5706    174.1575     48.5549   6.3770928895e+01   3.5738688783e+01    0.8021866    0.6790727   5.17  0.000870574    1.303    0.232
        68 -10.0410    169.1304    236.6943   1.0599120286e+02   4.6461067934e+00    0.1626395    0.1441564  68.71 0.0003392087    1.260    0.206
        69  -9.9266     87.8159    201.6016   1.1607977592e+02   2.3155338795e+01    0.2498861    0.1514755  62.45  0.001299571    1.427    0.299
        70  -9.1705     92.4334     14.4649   7.0548750356e+01   5.9290742341e+01    0.1312707    0.1150767  -0.91  0.000183024    1.044    0.042
