#   1 NUMBER                 Running object number                                     
#   2 MAG_AUTO               Kron-like elliptical aperture magnitude                    [mag]
#   3 X_IMAGE                Object position along x                                    [pixel]
#   4 Y_IMAGE                Object position along y                                    [pixel]
#   5 X_WORLD                Barycenter position along world x axis                     [deg]
#   6 Y_WORLD                Barycenter position along world y axis                     [deg]
#   7 A_WORLD                Profile RMS along major axis (world units)                 [deg]
#   8 B_WORLD                Profile RMS along minor axis (world units)                 [deg]
#   9 THETA_WORLD            Position angle (CCW/world-x)                               [deg]
#  10 FWHM_WORLD             FWHM assuming a gaussian core                              [deg]
#  11 ELONGATION             A_IMAGE/B_IMAGE                                           
#  12 ELLIPTICITY            1 - B_IMAGE/A_IMAGE                                       
         1  -9.4813    162.3883     31.8191   4.8200449127e+01   4.0848415124e+01    0.1791981    0.1314835  -5.24 0.0005512328    1.624    0.384
         2 -11.4705      2.1804     22.0230   9.7314780868e+01   7.0758672015e+01    0.3383852    0.1563352 -46.73 0.0005679046    1.659    0.397
         3 -11.0521     13.9470     16.0685   8.8427002753e+01   7.0849180908e+01    0.2606507    0.2124711  22.48  0.001142488    1.574    0.364
         4 -10.5434     15.2755      8.8836   8.4173869021e+01   7.1799785073e+01    0.3980539    0.1776884 -11.56  0.001521676    3.485    0.713
         5 -10.3517     86.0006     11.8197   5.7138756147e+01   6.0417947736e+01    0.2379006    0.1728915  -5.03  0.001228756    1.344    0.256
         6 -11.8327     66.7601     13.7945   6.4034252240e+01   6.3903401749e+01    0.3682118     0.252841  49.30  0.000571257    1.610    0.379
         7 -11.7463     30.3785      7.2613   7.5616502167e+01   7.0294992999e+01    0.6395234    0.3139575  34.01  0.003582405    2.033    0.508
         8 -11.3713     35.0366     12.6722   7.6237531604e+01   6.8997800576e+01    0.3193696    0.2537085  -6.26  0.001237343    1.095    0.087
         9 -11.5382     36.7394      8.2775   7.3188747510e+01   6.9322078866e+01    0.4870428    0.2474988  18.72  0.002339271    2.136    0.532
        10  -9.6579     99.7759     11.6426   5.3464426348e+01   5.7545104400e+01    0.2199646    0.1629602  60.24  0.001262555    1.398    0.285
        11 -10.4300    126.0005     11.0293   4.7633199386e+01   5.1689864659e+01    0.1949574    0.1685419  41.63  0.001198521    1.043    0.041
        12 -10.5716     22.4516      9.6725   8.0815889176e+01   7.0931925155e+01    0.3181731    0.1945583   1.13  0.001955044    1.544    0.352
        13 -10.2273      3.8312     10.7196   9.1441488669e+01   7.2524854021e+01    0.1802405    0.1225111 -34.21 0.0003166281    1.207    0.171
        14  -9.8660     93.0515      9.9570   5.4445215096e+01   5.9133004965e+01    0.2054094    0.1264888  26.67  0.001082079    1.582    0.368
        15 -10.6539     57.4003      8.7633   6.4949042390e+01   6.6076424593e+01    0.3412171    0.1991845 -23.18  0.001936453    1.631    0.387
        16 -11.4791     57.4100      3.0708   6.2090180329e+01   6.6641672638e+01     0.426809    0.2517558   8.98 0.0008849056    1.688    0.408
        17 -10.3763    134.9385     11.4674   4.6185034033e+01   4.9552050942e+01    0.2236405    0.1867252   5.80  0.001343328    1.287    0.223
        18  -9.6817    211.6257      6.9080   3.5471092745e+01   3.1881194827e+01    0.2281004     0.121704 -14.44  0.001098924    2.564    0.610
        19  -9.5371    204.4704      6.9985   3.6125592668e+01   3.3489725280e+01    0.1756824    0.1170051 -32.31 0.0004107463    1.531    0.347
        20 -10.8525     70.8265      6.3018   5.9151358649e+01   6.3910480973e+01    0.3021791    0.2128065 -19.50  0.001806884    1.426    0.299
        21  -9.5967    188.4668      6.5329   3.7550734336e+01   3.7233070453e+01    0.1246368     0.113222  78.07 7.815396e-05    1.067    0.063
        22 -10.1578    151.1055      5.9049   4.1845170134e+01   4.6178553052e+01    0.1884776    0.1623609 -72.61 0.0002695106    1.237    0.191
        23  -9.5382      2.6841      6.5728   9.0067036162e+01   7.3250812371e+01    0.1874578   0.09437546  11.93 0.0007893701    2.042    0.510
        24  -9.8338     74.7754      4.7535   5.7208408131e+01   6.3294601876e+01    0.1886132    0.1384249  24.76 0.0004349811    1.152    0.132
        25  -9.3667    120.5122      4.4311   4.6259876012e+01   5.3509106161e+01    0.1323466    0.1095941  42.42   9.2753e-05    1.068    0.064
        26 -10.7140    102.0398      2.4557   4.9206554221e+01   5.7820884732e+01    0.3129538    0.2458577  77.03  0.001288369    1.501    0.334
        27  -9.7753    176.1785      2.8051   3.7838308798e+01   4.0458455383e+01    0.1727521    0.1350462  48.44 0.0003626123    1.324    0.244
        28  -9.7516    129.9566      3.4656   4.4262166493e+01   5.1389030583e+01    0.1931619    0.1153948  64.81 0.0004047008    1.514    0.340
        29 -11.0794     80.4385      1.6989   5.4177839356e+01   6.2431068394e+01    0.2936155    0.1710322  56.45 0.0007943512    1.687    0.407
        30 -11.2659     20.5084      2.0825   7.7728318417e+01   7.2144353243e+01    0.4164568    0.1853906  40.07  0.002179394    2.857    0.650
        31 -10.4765     11.7737      1.9191   8.2372720904e+01   7.3107959017e+01    0.1794581    0.1390273  10.17   0.00045556    1.327    0.247
        32  -9.7506      1.3979      2.2214   8.8575443506e+01   7.3994670526e+01    0.1442408   0.08842819 -42.14 0.0009457702    1.640    0.390
        33  -9.6057    193.9959      2.0000   3.5835147775e+01   3.6357413162e+01    0.2107147   0.06436857  72.69 0.0008117299    3.007    0.667
        34  -9.6976     10.4338      6.4830   8.5584689742e+01   7.2606594724e+01    0.2571926    0.1989878  58.13  0.001465841    3.592    0.722
        35 -10.5268      6.1923    191.8036   1.2445979491e+02   3.2532777371e+01    0.1799975    0.1229961  76.75  0.001210251    1.191    0.160
        36 -12.5444      5.4732    240.2682   1.2726061175e+02   2.2863981762e+01    0.4766128    0.2967577  41.01  0.003377011    1.600    0.375
        37 -11.4905     14.0501    238.7974   1.2576258778e+02   2.2329149383e+01     0.217474    0.1271848  64.41  0.000701685    1.339    0.253
        38 -11.3488      3.1543    249.0016   1.2802018948e+02   2.1494870795e+01     0.417973    0.2263692  55.56  0.003009108    1.408    0.290
        39 -12.3122     17.5281    249.2644   1.2572066559e+02   2.0075447073e+01    0.4370087    0.2217026  31.71  0.002746063    2.268    0.559
        40  -9.7092      1.2818    191.1204   1.2538820784e+02   3.3077861584e+01    0.1660173   0.07840975 -89.09 0.0006185531    1.770    0.435
        41  -9.5804     22.3228    179.9775   1.2019533153e+02   3.3753127923e+01    0.1706003    0.1296607 -84.96 0.0004667231    1.070    0.066
        42  -9.3831     13.3612    180.6694   1.2218376850e+02   3.4387939096e+01    0.1300926   0.06985892  67.13 0.0007040221    1.801    0.445
        43 -10.5362      5.2376    167.3056   1.2289476913e+02   3.8069490751e+01    0.2203909    0.1550601  76.06  0.001201018    1.250    0.200
        44  -9.5119    226.4655    163.9695   7.1458039402e+01   4.7838481174e+00    0.2115408    0.1226961 -33.08 0.0007350071    1.542    0.351
        45  -9.1212    247.4934    155.4550   6.5994161167e+01   2.6263460713e+00    0.1365908    0.1124297 -19.30 0.0001592698    1.011    0.011
        46 -10.5280      2.5033    153.5086   1.2238228463e+02   4.1454293659e+01    0.2078708    0.1204114  23.62  0.001219991    2.197    0.545
        47 -10.3359     15.9834    150.4799   1.1884619475e+02   4.1180074211e+01    0.1570644    0.1248153  29.47 0.0006198851    1.553    0.356
        48  -9.1606    237.7052    149.6730   6.6361947111e+01   5.2395610241e+00    0.1419528   0.09780081  -5.59 0.0003057517    1.627    0.385
        49  -9.0692     37.3040    146.2481   1.1289839403e+02   4.0318443256e+01    0.1230227   0.09097029 -42.15 0.0001904387    1.499    0.333
        50  -9.7186     22.7356    142.9955   1.1629300843e+02   4.2432123362e+01    0.1659993   0.09215106 -71.24 0.0003124926    1.460    0.315
        51  -9.2504    236.6723    138.6821   6.4078626923e+01   7.2756498487e+00    0.1437921    0.1010345  -2.05 0.0007046209    1.680    0.405
        52 -10.1008    212.5051    133.9027   6.7201260168e+01   1.2699063823e+01    0.2450865    0.2111983  69.86 0.0008580415    1.511    0.338
        53 -10.2323      2.6659    133.1058   1.2041561831e+02   4.6256970974e+01    0.3018983    0.1475808  56.16  0.001531694    2.407    0.585
        54  -9.3215     96.0321    133.7621   9.4530650649e+01   3.5709610549e+01    0.1840877    0.1272812  37.14 0.0004692171    1.550    0.355
        55 -10.4989     12.1633    129.8418   1.1751671486e+02   4.6419110242e+01    0.1928555    0.1450935  86.65  0.000686795    1.260    0.206
        56 -10.0392    248.6803    129.3292   6.0058309371e+01   6.6818050527e+00    0.1349145   0.09966819 -57.22 0.0004039873    1.688    0.407
        57 -10.0330     28.6823    128.0794   1.1268278922e+02   4.5565599930e+01    0.1855541    0.1393508 -67.23 0.0003567396    1.085    0.078
        58  -9.8725      1.7832    123.0072   1.1955693598e+02   4.8715558423e+01    0.1733088   0.07871565 -72.90 0.0007710502    1.684    0.406
        59 -11.4571     23.9407    121.3353   1.1304423987e+02   4.7608164078e+01    0.4097775    0.2469235  76.56  0.001365853    2.081    0.519
        60  -9.2703     17.4244    122.2319   1.1505986701e+02   4.7887063243e+01    0.1257763   0.08108126 -37.84 0.0002692173    1.713    0.416
        61 -11.1262      7.9423    121.1824   1.1762208106e+02   4.8782888465e+01    0.2390878    0.1754952  75.16 0.0006387079    1.445    0.308
        62 -10.7303     65.7874    110.8214   9.8266469809e+01   4.5783076061e+01    0.2984377    0.2446701  73.97  0.001045124    1.516    0.340
        63 -11.3679      2.8240    109.2627   1.1757464299e+02   5.1933578652e+01    0.2685815    0.1969544  21.97  0.001193626    1.749    0.428
        64 -11.1152     57.6399    107.6871   1.0012223270e+02   4.7575928734e+01     0.258666    0.2164235  -6.87 0.0007797471    1.374    0.272
        65 -10.4598     13.8595    107.9575   1.1403591689e+02   5.1583131829e+01    0.2339526   0.09603887 -48.35  0.001085713    2.090    0.522
        66 -10.2208     28.0160    106.1056   1.0927897673e+02   5.0979949810e+01     0.281467    0.1789883  10.23   0.00151407    2.033    0.508
        67  -9.9845    186.9223    103.0428   6.4318259380e+01   2.3842245751e+01    0.2293159    0.2141772 -35.70 0.0005620274    1.031    0.030
        68  -9.8243     56.0369     97.1877   9.8170263633e+01   5.0275471018e+01    0.2196412    0.1665009 -33.38 0.0007436391    1.276    0.217
        69 -10.7147      3.3093     95.4349   1.1544155639e+02   5.5179372067e+01    0.2523809    0.1686765 -54.13 0.0005871405    1.196    0.164
        70 -11.0692     24.2831     88.1268   1.0698852902e+02   5.5553455817e+01     0.400017    0.2288431 -47.13 0.0008271119    1.427    0.299
        71 -12.1871     20.7640     92.7539   1.0915056563e+02   5.4731278283e+01    0.3699141    0.2241406 -44.03 0.0004188101    1.440    0.305
        72 -10.3463     19.3788     87.3337   1.0854608512e+02   5.6101056344e+01    0.3634351    0.1924003 -54.40  0.001197213    1.438    0.305
        73 -12.0123    125.1889     93.3160   7.5824802278e+01   3.9464695847e+01    0.2731169    0.2627787  -9.50 0.0002361774    1.037    0.036
        74 -10.0197     78.8434     93.9377   8.9801291579e+01   4.7876421317e+01    0.2186797    0.1767349 -24.75  0.000313639    1.232    0.188
        75 -11.4062     57.5132     91.8198   9.6312820575e+01   5.1347037851e+01    0.3477853    0.2559251  -2.03 0.0009401259    1.630    0.387
        76 -10.3546     10.8387     92.0440   1.1238536931e+02   5.5555831392e+01    0.3614379    0.2221128  33.46  0.002081438    2.024    0.506
        77 -11.6278     11.4463     86.4403   1.1115026977e+02   5.6828026215e+01    0.3798805    0.2376248  84.42  0.001998189    2.143    0.533
        78 -10.5259     44.0188     90.1817   1.0054617746e+02   5.3277293556e+01    0.4046085    0.2761259 -79.92  0.001399008    1.907    0.476
        79  -9.9362     29.4140     92.2192   1.0607590377e+02   5.4179855470e+01    0.2078157    0.1796562  10.38 0.0009790566    1.376    0.273
        80  -9.8293     64.5316     87.9621   9.2879752039e+01   5.1314334325e+01     0.218155    0.2018153  83.73  0.001268559    1.350    0.259
        81 -12.2910     55.5056     85.8207   9.5406077695e+01   5.2969818995e+01    0.2591168    0.2391103 -33.91 0.0003002158    1.095    0.087
        82  -9.0465     34.6521     84.6696   1.0251737158e+02   5.5477759920e+01    0.1452167   0.08270832 -33.84 0.0007049236    1.763    0.433
        83 -10.7533      3.3856     82.1333   1.1318602520e+02   5.8266696716e+01    0.2945119    0.1794283 -67.07   0.00173265    1.316    0.240
        84  -9.7678     89.5526     81.0409   8.2513919176e+01   4.8924614199e+01    0.2262886    0.1359214 -45.45 0.0005893958    1.569    0.363
        85 -10.8372     64.2892     80.4106   9.0787660119e+01   5.3026823180e+01    0.3105775    0.2248673 -31.40  0.001095001    1.284    0.221
        86  -9.4744    124.5220     79.1714   7.1651724263e+01   4.2424467572e+01    0.2191783    0.1451652 -38.26 0.0005762643    1.452    0.311
        87  -9.5426     80.9535     78.9979   8.4668544076e+01   5.0809979169e+01    0.1762029    0.1488237 -33.34 0.0003744424    1.061    0.058
        88  -9.9529     24.7458     79.1046   1.0479825143e+02   5.7597256423e+01    0.3144854    0.1724128 -24.07 0.0008744736    2.149    0.535
        89  -8.9857     28.2656     77.2845   1.0304784272e+02   5.7723608417e+01    0.1317726   0.07931193 -37.24  0.000202145    1.491    0.329
        90 -11.7287     14.3953     75.5441   1.0783982138e+02   5.9142910385e+01    0.3334895    0.2091524 -41.53    0.0018449    1.341    0.254
        91  -9.6442    176.4922     76.5434   5.9022037092e+01   3.0974671288e+01    0.1486319    0.1429699 -37.67 0.0003566307    1.010    0.010
        92 -10.2667     55.8932     75.8150   9.2406136722e+01   5.5141226744e+01    0.2173508    0.1683958 -24.69 0.0005451728    1.220    0.180
        93 -10.3258     42.6246     75.7437   9.7271201830e+01   5.6704055434e+01    0.3316688    0.1977934  49.96  0.001567684    2.522    0.604
        94 -11.3411     36.8756     74.8849   9.9188721355e+01   5.7479716802e+01    0.6368626     0.281406 -59.85   0.00243082    2.176    0.540
        95 -10.4502     32.9656     73.2246   1.0022102352e+02   5.8217627225e+01    0.2398175    0.1868164  21.35 0.0007347112    1.499    0.333
        96  -9.1418    248.6900     74.3510   4.7508141635e+01   1.5390466546e+01    0.1415468   0.08763778 -58.07 0.0007044548    1.718    0.418
        97  -9.4241     49.3585     74.2517   9.4338361686e+01   5.6278668381e+01     0.137868    0.0924983 -20.37 0.0004713566    1.609    0.378
        98 -10.5124     20.7440     72.8899   1.0481097381e+02   5.9302114051e+01     0.318973    0.1484573 -54.78 0.0009901406    1.637    0.389
        99  -9.3226    217.2129     72.0425   5.1054522029e+01   2.2345126562e+01    0.1840364     0.105654 -33.79 0.0003371339    1.607    0.378
       100 -11.5590    106.1677     71.3085   7.4230818367e+01   4.7738671995e+01    0.3497147    0.3015808  76.76  0.001333295    1.555    0.357
       101 -10.3272     77.0017     68.0423   8.2421787783e+01   5.3692240602e+01    0.4679583    0.1692332 -33.32  0.001502212    3.487    0.713
       102 -10.7468     10.1743     69.0275   1.0797873498e+02   6.0860545083e+01    0.3719074     0.128727 -56.80  0.001606064    2.028    0.507
       103 -10.1417     46.0058     69.5219   9.4181486866e+01   5.7684133188e+01    0.2421932    0.1327964  18.48 0.0009996817    2.182    0.542
       104 -10.6656      5.4475     68.6423   1.0973088351e+02   6.1208576416e+01     0.266641    0.1912682  67.58  0.001420924    2.028    0.507
       105  -9.6957      1.4460     66.5099   1.1082844999e+02   6.1878657007e+01     0.123416   0.09181633 -52.97 7.075918e-05    1.012    0.012
       106 -10.2629     80.8377     67.4936   8.0930249160e+01   5.3163289955e+01    0.2491065    0.1583626 -43.44  0.001195985    1.496    0.332
       107 -10.0036     16.4930     67.5312   1.0513904647e+02   6.0789764870e+01     0.193424    0.1775689  57.80 0.0007639225    1.458    0.314
       108 -10.3581     14.0976     63.7962   1.0515089345e+02   6.1764590475e+01    0.3128764    0.2241601   3.86  0.001126492    1.612    0.380
       109  -9.4980     72.6466     63.7372   8.2457907355e+01   5.5235571276e+01    0.1867519    0.1224716 -46.85 0.0004606627    1.527    0.345
       110 -11.1530      6.3369     63.0795   1.0810886396e+02   6.2383005014e+01    0.2664872    0.2356836  47.83  0.001879628    1.535    0.349
       111  -9.9330     62.7927     62.2896   8.5509996456e+01   5.7009028287e+01     0.290118    0.1607522 -35.94  0.001100901    1.629    0.386
       112 -10.4539     38.8242     61.7454   9.4569814821e+01   6.0104062523e+01    0.3210809    0.1831975 -40.96  0.001181395    1.440    0.306
       113 -13.0970     20.4799     58.1493   1.0098417596e+02   6.2518456988e+01    0.3947569    0.2633192 -61.15  0.001109893    1.489    0.329
       114 -10.8263      2.1601     59.3370   1.0892229873e+02   6.3406931146e+01    0.3731164    0.1296815 -35.84 0.0006660572    2.658    0.624
       115 -10.9076     84.1712     56.9422   7.6076519439e+01   5.4551517939e+01    0.3976389    0.2492402 -49.55  0.001863364    1.875    0.467
       116 -11.0760     88.3274     52.9632   7.3243752090e+01   5.4480998974e+01     0.332994    0.2644833  -1.06   0.00116465    1.243    0.195
       117 -10.0820     48.5234     58.8868   8.9780619024e+01   5.9582886258e+01    0.2655679    0.2223749  63.81  0.001531416    1.854    0.461
       118 -10.6762     33.3186     56.0058   9.4966662125e+01   6.1839506391e+01     0.520999    0.2057293 -41.95  0.002337319    2.062    0.515
       119 -10.3767     10.5514     58.7498   1.0529686976e+02   6.3073420064e+01    0.3171493    0.1735159 -29.67   0.00176106    1.739    0.425
       120 -10.4926      8.2025     56.3879   1.0565973358e+02   6.3714686817e+01    0.1952644    0.1009034  31.94  0.001050942    2.482    0.597
       121  -8.9845    194.0503     59.0000   5.1063498977e+01   2.9610843416e+01    0.2287321   0.08084922  60.60 0.0008009519    2.932    0.659
       122  -9.8917     71.5709     56.8846   8.0397578508e+01   5.6702514952e+01    0.2080903    0.1240064 -39.52 0.0007799511    1.544    0.352
       123 -10.2242     26.6922     56.9867   9.8038735626e+01   6.2252744191e+01    0.2614086    0.1588691  -8.91  0.001406168    1.898    0.473
       124 -11.4012    105.4808     52.9677   6.8021442788e+01   5.1092713159e+01    0.3573608    0.2461676 -18.08 0.0006479822    1.515    0.340
       125 -11.3772    114.5686     53.8094   6.5798887002e+01   4.9031045314e+01     0.293893    0.2855525  -7.36 0.0006249218    1.108    0.098
       126  -9.3755    164.9884     54.2007   5.4598157066e+01   3.7257325666e+01    0.1835184    0.1134757  58.89 0.0008289174    1.626    0.385
       127 -11.8172     65.4530     52.5853   8.1031254699e+01   5.8446845570e+01    0.4334788    0.2262483  36.80  0.001270962    2.042    0.510
       128  -9.7494    149.4856     52.0229   5.6944128860e+01   4.1295948932e+01    0.2304312    0.1865047  56.22 0.0005980945    1.235    0.191
       129  -9.7329    121.7689     51.7151   6.3178550383e+01   4.7773896067e+01    0.1822628    0.1686368 -68.17 0.0003129786    1.294    0.227
       130 -10.0608      4.3816     50.7490   1.0578802504e+02   6.5108671534e+01    0.1776036   0.07827156 -50.22 0.0003710419    1.604    0.376
       131 -11.5294     77.8323     46.6782   7.4339252220e+01   5.7428445056e+01     0.492027    0.3083839   2.74  0.001314675    2.073    0.518
       132 -10.1189     82.4562     47.2287   7.2988227947e+01   5.6512857852e+01    0.2250957    0.1829987  30.75 0.0002913362    1.233    0.189
       133  -8.9743    161.3184     49.7362   5.3911876770e+01   3.8784447720e+01    0.1418165    0.1101316 -72.88 0.0001849874    1.550    0.355
       134 -10.4803     38.6125     48.4850   9.0157069227e+01   6.2762666979e+01    0.2123313    0.1705578 -20.62 0.0001411165    1.051    0.049
       135 -11.4536      9.3549     46.6263   1.0238572828e+02   6.5663283906e+01    0.4261277    0.1999284 -49.97  0.002275701    1.575    0.365
       136  -9.9966     14.2908     48.6642   1.0080288064e+02   6.4924858963e+01    0.2431498    0.1336354 -47.09 0.0006844004    1.377    0.274
       137  -9.8709     19.6693     44.6817   9.7098326020e+01   6.5310748078e+01    0.2000001    0.1324759 -31.20 0.0008720728    1.223    0.183
       138 -11.1980     15.3048     42.8555   9.8467296452e+01   6.6004333311e+01    0.4250623    0.3127394 -86.83    0.0021549    2.502    0.600
       139  -9.9139    101.7268     48.0641   6.7298662678e+01   5.2641939623e+01    0.1952041    0.1705256  -8.35 0.0003612381    1.066    0.062
       140  -9.5383     58.1643     48.2364   8.2140142069e+01   6.0311044276e+01    0.1664835    0.1491144 -39.75 0.0003459935    1.317    0.241
       141 -10.1638     53.9126     47.2948   8.3442929017e+01   6.1078290785e+01    0.3889059    0.2127776 -11.58  0.001648373    2.670    0.626
       142  -9.6224    154.5319     47.4858   5.4491644684e+01   4.0735030019e+01    0.2179759    0.1834593 -17.12 0.0001499793    1.239    0.193
       143  -9.5071    152.2342     44.6354   5.4027231474e+01   4.1679472134e+01    0.1999111    0.1826184 -63.31 0.0001404471    1.181    0.153
       144 -10.6943     26.1390     44.9864   9.4305306795e+01   6.4694736008e+01    0.3595639    0.1623009 -54.80  0.001691639    2.244    0.554
       145  -9.4992    135.5260     46.4798   5.8099066063e+01   4.5393457267e+01    0.1412573    0.1374545  19.01 0.0002059051    1.038    0.037
       146 -10.3720     30.9987     45.5931   9.2379575889e+01   6.4114273315e+01    0.2344086    0.1652724 -56.72 0.0009834147    1.653    0.395
       147 -12.6628    141.4102     41.6297   5.5203855168e+01   4.4670821201e+01     0.301626    0.2697196 -67.92 0.0004274924    1.272    0.214
       148 -10.5197     69.2708     42.0473   7.5524490117e+01   5.9640018521e+01     0.219428    0.1868997  28.94            0    1.260    0.206
       149  -9.8166     59.7959     41.9773   7.9042980159e+01   6.1149542787e+01    0.2089148     0.167899  44.78 0.0007460327    1.608    0.378
       150 -10.3877     35.8833     41.3502   8.8655758484e+01   6.4388495534e+01    0.2592092    0.2236662 -28.79  0.001680391    1.198    0.165
       151 -10.5189     43.3640     39.7966   8.4819654743e+01   6.3784143102e+01      0.29741    0.1818299 -25.07  0.001618814    1.478    0.324
       152  -9.4332    152.6157     38.8792   5.2112115335e+01   4.2345773788e+01    0.1957582    0.1236617 -40.94 0.0004158836    1.640    0.390
       153 -10.1046    128.1842     38.8162   5.7096496771e+01   4.8144635662e+01    0.1981363    0.1874689 -56.08 0.0003768234    1.195    0.163
       154 -11.6193    121.3969     37.3698   5.8152936791e+01   4.9889526856e+01    0.3735679      0.32622  31.90  0.001111678    1.071    0.067
       155 -10.3795     22.1097     38.0914   9.3624750998e+01   6.6356210264e+01    0.1841899    0.1485891 -28.13 0.0006034773    1.087    0.080
       156  -9.3472    223.7809     36.0771   4.1316074013e+01   2.5917275984e+01    0.1693584   0.09622895 -35.35 0.0003542368    1.623    0.384
       157 -10.0104     89.9804     36.0074   6.6134286843e+01   5.6776728260e+01    0.2096367     0.179551  10.81 0.0004365465    1.035    0.034
       158 -12.1079     39.5027     32.7061   8.3554268583e+01   6.5461057002e+01    0.4317316    0.2953776 -22.18 0.0007149497    1.226    0.184
       159 -11.0986     35.1674     22.2271   8.0832040710e+01   6.7639880983e+01     0.262585    0.1987436 -12.86 0.0009632191    1.029    0.028
       160 -11.1094     45.4215     27.6915   7.8792833011e+01   6.5484669756e+01    0.4230099    0.3063985  12.75  0.002608475    1.289    0.224
       161  -9.5736     41.5051     24.4297   7.9005794959e+01   6.6500682043e+01    0.1602969    0.1432682 -36.15 3.575682e-05    1.516    0.340
       162 -11.2658     40.0059     20.5174   7.7838749422e+01   6.7268056418e+01    0.2865747    0.2112557   2.29  0.001320795    1.161    0.139
       163  -9.7614     36.4819     18.5562   7.8487041956e+01   6.8007742985e+01    0.1873218    0.1499132  -4.19 0.0005874178    1.080    0.074
       164 -10.5891     26.8831     34.8739   9.0162404333e+01   6.6490993525e+01    0.3456435    0.2016206 -16.05   0.00146017    1.749    0.428
       165 -11.5206      2.6853     35.1548   1.0186333547e+02   6.8316186740e+01    0.3516325    0.1966435 -63.38  0.001987861    1.970    0.492
       166 -10.9087      7.5804     34.0487   9.9087142867e+01   6.8227660219e+01    0.2999162    0.1709977  29.73    0.0017439    2.219    0.549
       167  -9.1587    185.4728     35.4453   4.5797189874e+01   3.4841995372e+01    0.1363293    0.1253828 -74.13 -2.572157e-05    1.052    0.050
       168 -10.8333     73.8118     34.2380   7.0688698554e+01   6.0054066506e+01    0.3051392    0.2749854 -59.85  0.001221024    1.613    0.380
       169 -10.6200     18.4287     32.2382   9.3120409102e+01   6.7740686801e+01    0.4963982    0.2221945  -2.07  0.002070406    3.689    0.729
       170  -9.9021    229.6754    247.9934   8.6713224409e+01  -8.1372027280e+00    0.1578112    0.1220957  -4.07  0.000537385    1.132    0.117
       171 -11.8377      9.9360     29.4971   9.6236163796e+01   6.8903839615e+01    0.4398904    0.3031466  52.76  0.001950899    2.935    0.659
       172  -9.5088    187.7880     30.9988   4.4248117045e+01   3.4825327090e+01    0.1723353     0.106491 -29.65 0.0003321506    1.647    0.393
       173  -9.2975    119.5351     29.5409   5.5729297693e+01   5.1283295882e+01     0.135828    0.1271312  28.80 7.428276e-05    1.043    0.042
       174 -11.0209     68.8328     26.5164   6.9110866669e+01   6.1996856632e+01     0.318937    0.2580745 -33.11  0.001021971    1.393    0.282
       175 -11.0915     30.5060     21.3014   8.2576167337e+01   6.8336951969e+01    0.2477448    0.1823316  13.61 0.0007039694    1.305    0.234
       176 -10.3234     77.1447     26.9551   6.6451820061e+01   6.0443608079e+01    0.2901175    0.1586516 -19.84  0.001282789    1.861    0.463
       177 -10.3146    113.8422     25.7418   5.5637153643e+01   5.3006835486e+01     0.237621     0.190124 -29.98   0.00076087    1.327    0.246
       178  -9.6291    100.8602     26.1221   5.9042389691e+01   5.5803668228e+01    0.1991782    0.1457644  20.87  0.001082816    1.341    0.254
       179  -9.1626     18.9479     24.8998   8.9837328875e+01   6.8964408739e+01    0.3528731    0.1107157 -37.95  0.001551031    2.592    0.614
       180 -10.9307     14.4386     21.6041   9.0688177414e+01   6.9914067156e+01    0.3268602    0.1980646  19.76  0.001685475    1.753    0.429
       181  -9.8338     52.5438     24.7317   7.4488184523e+01   6.4891744502e+01    0.2502574    0.1092135 -29.20  0.001156683    2.152    0.535
       182 -10.2350    224.9851    247.4696   8.7455761293e+01  -7.4505398525e+00    0.2233503     0.155484 -20.62  0.001487876    1.391    0.281
       183  -9.9092      7.0332     20.8572   9.4245692313e+01   7.0629204531e+01    0.1866851    0.1420541  18.96 0.0006094109    1.571    0.364
       184 -10.4299     59.5338     22.9699   7.0934224675e+01   6.4034613822e+01    0.3339939    0.1929887  12.33  0.001654739    2.015    0.504
       185 -10.1871     58.7542     19.5906   6.9664262474e+01   6.4597867955e+01    0.2476413    0.1928438  44.84 0.0007281859    1.557    0.358
       186 -10.9657     90.4030     22.1847   6.0322892699e+01   5.8436096818e+01    0.4032236    0.2370288  56.70  0.002007802    1.861    0.463
       187 -10.5493     83.3415     22.1211   6.2390173938e+01   5.9854024032e+01    0.4930762     0.163243  34.68  0.001635371    3.984    0.749
       188 -10.4964     75.1714     21.8364   6.4865430149e+01   6.1446391594e+01    0.2473552    0.1759597  11.48 0.0005020728    1.335    0.251
       189 -10.6853     76.0421     17.8227   6.2792818926e+01   6.1748743550e+01    0.3628905     0.208588  30.87  0.001098649    1.649    0.394
       190 -10.7355    128.0304     30.7513   5.4276814349e+01   4.9185243829e+01    0.3810886    0.2831856 -61.11  0.001865222    1.747    0.428
       191 -10.1761     20.8375     17.6537   8.5603139773e+01   6.9943866090e+01    0.2545236    0.2115086 -30.35  0.001810649    1.368    0.269
       192 -10.2287    114.7940     17.3419   5.2235766373e+01   5.3679180503e+01    0.2220522    0.1432785  48.44 0.0002836285    1.381    0.276
       193  -9.4662    170.8086    247.1362   9.7383195960e+01   2.9171759576e-01    0.1686279    0.1263441   9.74 0.0008099698    1.354    0.261
       194 -12.1777      9.5695    245.3928   1.2683017548e+02   2.1544710843e+01    0.3637719    0.2436196  53.17  0.002792184    1.265    0.209
       195 -11.0354    234.6899     15.1261   3.5454527742e+01   2.5994953881e+01    0.2116597    0.1824652 -78.16 0.0003416263    1.075    0.070
       196  -9.4477     90.4763     16.4959   5.7902895132e+01   5.9036961403e+01    0.1872965    0.1649581 -54.52  0.001148094    1.524    0.344
       197  -9.3942     89.5255     13.4896   5.6883749055e+01   5.9534924569e+01    0.1882646    0.1239112  63.63 0.0008150339    1.805    0.446
       198  -9.3353     86.3317    245.2935   1.1329518633e+02   1.2779033261e+01    0.1041939   0.09051379   0.20 0.0007024053    1.634    0.388
       199 -10.1218     82.8754     16.0310   5.9884190878e+01   6.0620735203e+01    0.1951194    0.1652071  13.17 0.0003088066    1.030    0.029
       200  -9.6244    154.4826     15.3988   4.4335816783e+01   4.4516843853e+01    0.1311994    0.1197078  69.97 7.415408e-05    1.034    0.033
       201  -9.8828     74.2032    243.6299   1.1540445973e+02   1.4661838711e+01    0.1465986   0.09930491  33.97 0.0003229426    1.524    0.344
       202  -9.5988    202.4576    240.4613   9.0421865966e+01  -3.3946437272e+00    0.1231425   0.09765327  12.40 0.0001044191    1.023    0.023
       203  -9.4926     61.0484    241.0000   1.1761122613e+02   1.6787699078e+01    0.1794895   0.05656004  36.05 0.0007956435    2.896    0.655
       204 -10.6053    208.1805     13.0009   3.7259829816e+01   3.2048535994e+01    0.2012037    0.1663138  87.80 0.0003288015    1.118    0.106
       205  -9.1957    191.6392     13.6856   3.9105932008e+01   3.5801436682e+01    0.1335227   0.09028125  40.18 0.0007042347    1.755    0.430
       206 -10.2192     35.9934    240.4986   1.2208290861e+02   1.9765073713e+01    0.1570736   0.09273738  41.93  0.000591603    1.554    0.356
       207 -10.2661    117.6057    239.2326   1.0663973249e+02   9.4809504706e+00    0.1521597    0.1132986 -44.83 0.0005864624    1.602    0.376
       208  -9.8402     91.0807    237.2010   1.1158364249e+02   1.3605544069e+01    0.1610101    0.1564514  29.71 0.0005479543    1.255    0.203
       209 -11.6576     25.7567    235.9623   1.2359368656e+02   2.1698505226e+01    0.2440137    0.1514556  35.85  0.001103609    1.718    0.418
       210  -9.9229    249.2174    233.8673   8.0975003877e+01  -8.9469385899e+00    0.1648335     0.131592   1.25 0.0004630739    1.156    0.135
       211  -8.9783    104.2986     10.2948   5.1850809053e+01   5.6680639900e+01    0.1365288   0.08478004  30.22 0.0003393862    1.568    0.362
       212 -12.0523      4.0521    232.6703   1.2714021426e+02   2.4413290816e+01    0.2478253    0.1610576  66.30  0.001834769    1.171    0.146
       213 -12.4687      9.7894    227.4059   1.2589395474e+02   2.4898581122e+01    0.3765843    0.2584414 -81.97  0.001695662    1.301    0.231
       214  -9.3113    243.3304    230.2930   8.1365939380e+01  -7.7308989121e+00    0.1244975   0.07461528   3.28 0.0005290732    1.630    0.386
       215  -9.7404     47.8508    229.8989   1.1917286758e+02   2.0465235354e+01    0.1596026    0.1063043  66.94 0.0004120106    1.294    0.227
       216  -9.6017    209.4968    229.5294   8.7319587225e+01  -2.8834522205e+00    0.1260913    0.1013843   8.86  1.42193e-05    1.009    0.008
       217 -10.7619    140.1755    228.0148   1.0067107255e+02   8.0504938307e+00    0.3513441    0.2198864 -74.53  0.001699462    2.652    0.623
       218 -10.1113    223.4506    226.4476   8.4222000789e+01  -4.4769984732e+00    0.2498634    0.1425074  -4.62 0.0007874926    2.113    0.527
       219 -11.0254      1.4585    224.9501   1.2720978772e+02   2.6124265661e+01    0.2859546   0.08753353 -83.02 0.0009513926    2.913    0.657
       220 -11.2523      2.4278    220.7028   1.2683111893e+02   2.6870959223e+01    0.2868802    0.1332759  89.28   0.00170931    1.814    0.449
       221  -9.1794    126.5197    220.5617   1.0242142117e+02   1.1529131595e+01    0.1281117    0.1148243  43.52 0.0002046601    1.010    0.010
       222 -11.2926      9.0087    217.8764   1.2551124656e+02   2.6849010079e+01    0.2195459     0.199026 -64.20  0.001491988    1.489    0.328
       223 -10.0008    205.6655    212.6596   8.5096494376e+01   2.1852296018e-01    0.2260815    0.1702032   2.46 0.0006683996    1.244    0.196
       224  -9.5025    249.4859    211.4917   7.6924335190e+01  -6.0820120317e+00    0.1259016   0.09578835  -3.72 6.599484e-06    1.019    0.019
       225  -9.0834    209.6450    211.2847   8.4087019582e+01  -1.8975023587e-01    0.1162219    0.1042201  60.08 0.0007020208    1.667    0.400
       226  -9.8697     20.2292    209.7544   1.2292431073e+02   2.7462012442e+01    0.1834524    0.1081725  59.22 0.0006228164    1.476    0.322
       227  -9.3196     41.3213    222.3282   1.1981553028e+02   2.2702068736e+01    0.1047331   0.08615075 -45.24  0.000704833    1.689    0.408
       228  -9.7904     10.1920    203.1827   1.2441355886e+02   2.9761748847e+01    0.1658701     0.102469  69.96 0.0006414803    1.362    0.266
       229  -9.4050    193.3461    201.7438   8.5500381411e+01   3.9838557625e+00    0.1232468    0.1060207  59.68 0.0003114989    1.592    0.372
       230  -9.9395     23.5441    196.8103   1.2132762497e+02   2.9895783096e+01    0.2094899    0.1722201 -49.88  0.001297964    1.552    0.356
       231 -10.8613     13.8704    192.6048   1.2297451317e+02   3.1702449753e+01    0.2108694    0.1393898  76.27 0.0004955466    1.276    0.216
