#   1 NUMBER                 Running object number                                     
#   2 MAG_AUTO               Kron-like elliptical aperture magnitude                    [mag]
#   3 X_IMAGE                Object position along x                                    [pixel]
#   4 Y_IMAGE                Object position along y                                    [pixel]
#   5 X_WORLD                Barycenter position along world x axis                     [deg]
#   6 Y_WORLD                Barycenter position along world y axis                     [deg]
#   7 A_WORLD                Profile RMS along major axis (world units)                 [deg]
#   8 B_WORLD                Profile RMS along minor axis (world units)                 [deg]
#   9 THETA_WORLD            Position angle (CCW/world-x)                               [deg]
#  10 FWHM_WORLD             FWHM assuming a gaussian core                              [deg]
#  11 ELONGATION             A_IMAGE/B_IMAGE                                           
#  12 ELLIPTICITY            1 - B_IMAGE/A_IMAGE                                       
         1 -13.8266    224.3546      3.2537   3.9402483006e+01   2.8390303604e+01     2.166884    0.8527953  58.49  0.007095249    2.514    0.602
         2 -13.9139    182.0739     46.3821   5.6398636539e+01   3.3806187072e+01     1.194763     1.006938   7.45 0.0008816092    1.417    0.294
         3 -14.7496    201.5244     27.6108   4.8121521619e+01   3.1301798929e+01     1.865868     1.437229  33.37  0.001448514    1.587    0.370
         4 -14.0680    192.9579     37.5399   5.2092940431e+01   3.2222248072e+01     1.384228     1.103009 -31.65  0.003293601    1.299    0.230
         5 -11.3144     47.4446      9.2782   7.8411603794e+01   6.8194834359e+01    0.2365176    0.1025764 -28.18  0.001148082    2.159    0.537
         6 -11.3786     61.7331      4.1839   7.0048897332e+01   6.6568806960e+01    0.3167239    0.1827655 -45.50  0.001586252    2.625    0.619
         7 -11.4326     57.8478      3.2925   7.1078509217e+01   6.7317690125e+01    0.2044257    0.1860088   0.95  0.001090435    1.268    0.211
         8  -9.7869     87.4657    202.9612   1.1387467349e+02   2.1660410493e+01    0.2175614    0.1741621  26.76 0.0008455802    1.613    0.380
         9 -11.9186    139.3282    247.1293   1.0893828359e+02   5.7930692461e+00    0.5367424    0.2868798 -66.52  0.002861954    2.825    0.646
        10 -16.4417     72.1470    149.7273   1.1032211993e+02   3.5569387481e+01     13.58702     6.841517  82.04   0.01602998    3.713    0.731
        11  -9.7404    162.1002    167.1131   9.2040417676e+01   1.5771553202e+01    0.2172846    0.2030061  62.24 0.0005351325    1.102    0.093
        12  -9.7644    156.9723    160.3173   9.1810770653e+01   1.8163973647e+01    0.2100738    0.1826912  47.16 0.0007569963    1.099    0.090
        13 -12.3800     93.1710    154.4814   1.0585254002e+02   3.1296886619e+01    0.6491057    0.4539825 -30.09  0.003096256    2.123    0.529
        14 -10.9404     99.3948    180.6415   1.0845373744e+02   2.4456647754e+01    0.2596523     0.216189  70.13 0.0006049477    1.089    0.082
        15 -10.3929    189.1107    154.2935   8.3596107465e+01   1.2697796595e+01    0.6251916    0.2157343  38.22  0.001990048    3.314    0.698
        16 -11.5232    133.7428    144.7183   9.3985669749e+01   2.6165523544e+01     1.156651    0.3102361 -55.14  0.002906098    5.335    0.813
        17 -10.6846    174.3676    148.8436   8.5522229501e+01   1.6848820442e+01    0.3135675    0.2681069  78.73  0.001025376    1.410    0.291
        18 -11.0022    144.2945    146.3810   9.1812273041e+01   2.3668958207e+01     0.392286      0.26258 -80.65  0.001592755    2.341    0.573
        19 -16.9529     58.0627    247.6764   1.2330629296e+02   1.7384417294e+01     6.562005     2.738892  29.81   0.02855534    4.361    0.771
        20 -11.4821    106.3346    139.7345   9.9817147971e+01   3.2482741490e+01    0.5624243      0.49792 -14.74  0.003044782    1.411    0.291
        21 -12.3633     93.2953    139.9241   1.0323016074e+02   3.4665501998e+01      0.29285     0.250618 -56.28 0.0004521301    1.165    0.142
        22 -10.8371    105.9168    130.7727   9.8074803888e+01   3.4640440097e+01    0.3573689    0.3000448 -78.20  0.001155953    1.222    0.181
        23 -10.8249    113.6881    130.1875   9.5901798902e+01   3.3346799328e+01    0.3368221    0.3024428   2.42  0.000851493    1.342    0.255
        24 -11.1129    135.7421    127.9073   8.9729364911e+01   2.9479423631e+01    0.5261834    0.1924058 -49.88  0.001728456    2.811    0.644
        25 -10.2755    160.2125    127.3041   8.3690352140e+01   2.4318562368e+01    0.3290131    0.2194933 -54.43  0.001428837    1.640    0.390
        26 -11.3034    119.4845    124.2999   9.3047502909e+01   3.3584135206e+01    0.6178755    0.3442118 -32.42  0.002327067    2.510    0.602
        27 -11.0097    101.0545    126.3834   9.8433028123e+01   3.6529453061e+01    0.2913517    0.2484535 -27.51 0.0009973078    1.379    0.275
        28 -19.2293      7.1140    169.6863   1.2746633159e+02   3.8129092447e+01     16.56081     2.818499 -79.17   0.05166551    5.857    0.829
        29 -10.1773    109.1936    119.1033   9.4581642387e+01   3.6748609267e+01    0.2266414    0.2116607  45.87 0.0003173584    1.114    0.102
        30 -11.0344     96.8787    200.6356   1.1165418582e+02   2.0698455238e+01    0.3111312    0.2574694 -34.33    0.0011639    1.731    0.422
        31 -10.2011    167.5142    112.4553   7.8268508666e+01   2.5711770698e+01    0.3438528    0.2600618 -78.52  0.001505217    1.792    0.442
        32 -11.6370    118.6271    110.2328   8.9841247743e+01   3.6944267997e+01    0.5759625    0.4647641  74.44  0.002806883    1.466    0.318
        33 -10.1336    205.4492    110.1561   6.9855506133e+01   1.7300054873e+01    0.3174236    0.2157402  40.95 0.0009808926    1.556    0.357
        34  -9.6290    134.5076    105.9510   8.4511904295e+01   3.4563777603e+01    0.2460464    0.1521367 -44.69 0.0007751935    1.594    0.373
        35 -11.4727    141.8747    171.9621   9.7451379599e+01   1.8759584852e+01     0.548875     0.431363  55.98  0.002916153    1.242    0.195
        36 -11.7885     41.8250     90.8915   1.0847301566e+02   5.3167295277e+01    0.4517321    0.2217715 -65.87  0.001178267    1.863    0.463
        37 -10.7262     81.7493    195.1457   1.1416474545e+02   2.4096360074e+01    0.3364135    0.2485886  56.08  0.001549633    1.183    0.154
        38  -9.2957    156.0066     80.9455   7.2084765442e+01   3.4664813013e+01     0.187356    0.1848622  49.44 0.0004215494    1.016    0.016
        39  -9.7497     64.8756     70.1684   9.5316303575e+01   5.5065886061e+01    0.1880533      0.17698 -56.18 0.0002935188    1.149    0.130
        40 -10.7148    156.9147     59.1937   6.5172635808e+01   3.8287257661e+01    0.3159132    0.2523453 -83.73 0.0005062037    1.517    0.341
        41 -11.2626     96.9105    191.4950   1.1048783280e+02   2.2559981264e+01    0.2833534    0.2692628 -36.19 0.0009886511    1.378    0.274
        42 -11.1028    147.6931    185.0216   9.8489273692e+01   1.5055422084e+01    0.3015914    0.2249994  63.27  0.001241222    1.457    0.313
        43  -9.4953    130.5218    213.4485   1.0642486431e+02   1.2777188827e+01    0.1920779       0.1234 -73.41  0.000692862    2.025    0.506
        44 -10.3509    159.1266     52.9719   6.2725525379e+01   3.8724512924e+01    0.2465196    0.2162498  63.87 0.0003219913    1.132    0.117
        45 -11.0764    106.5388    210.5678   1.1088805758e+02   1.7238808740e+01    0.3920717    0.2124561  41.04  0.001873467    1.660    0.398
        46  -9.5986     78.0209    192.7627   1.1467636164e+02   2.5130957587e+01    0.2248217    0.1363605  46.49 0.0003192631    1.495    0.331
        47 -10.2277    189.8111     15.0912   4.6070428918e+01   3.5749054209e+01    0.2161296    0.1768059 -66.90 0.0006235932    1.203    0.169
        48 -10.6029     74.1441     12.8628   6.9798111423e+01   6.3382495126e+01    0.3602491    0.1710836  60.19  0.001441185    3.518    0.716
        49  -9.4968    192.2954    164.9833   8.5223270473e+01   1.0087100427e+01    0.2015397    0.1849729 -21.62 0.0005498846    1.108    0.097
        50 -11.7141    107.9556    203.5064   1.0971541979e+02   1.8376125307e+01    0.2628883    0.2066414 -79.71 0.0008059188    1.331    0.249
