#   1 NUMBER                 Running object number                                     
#   2 MAG_AUTO               Kron-like elliptical aperture magnitude                    [mag]
#   3 X_IMAGE                Object position along x                                    [pixel]
#   4 Y_IMAGE                Object position along y                                    [pixel]
#   5 X_WORLD                Barycenter position along world x axis                     [deg]
#   6 Y_WORLD                Barycenter position along world y axis                     [deg]
#   7 A_WORLD                Profile RMS along major axis (world units)                 [deg]
#   8 B_WORLD                Profile RMS along minor axis (world units)                 [deg]
#   9 THETA_WORLD            Position angle (CCW/world-x)                               [deg]
#  10 FWHM_WORLD             FWHM assuming a gaussian core                              [deg]
#  11 ELONGATION             A_IMAGE/B_IMAGE                                           
#  12 ELLIPTICITY            1 - B_IMAGE/A_IMAGE                                       
         1 -14.2865    184.3328     32.8077   4.2569508869e+01   3.5097589286e+01    0.9070618    0.7828095 -84.23   0.00387499    1.052    0.049
         2 -11.2327    189.4935     14.0690   3.7109188427e+01   3.6002740230e+01     0.185308     0.124133 -32.86  0.001038231    1.606    0.377
         3 -15.6162    188.4443    238.3822   8.8454694876e+01  -2.0903590755e+00      2.74807     2.534658 -47.96   0.01826418    1.437    0.304
         4  -9.9311     37.5014    242.6266   1.1921677812e+02   1.9067202228e+01    0.1236733   0.07902092  62.26 0.0003444531    1.250    0.200
         5 -13.9904    169.3449    226.4283   9.0382358617e+01   2.8162309090e+00    0.7670012    0.6329583  61.81   0.00378078    1.546    0.353
         6 -11.4682    154.7356    213.5494   9.1371157398e+01   7.5373577456e+00    0.4435177    0.2279186 -33.13  0.001877635    2.599    0.615
         7  -8.6805      5.5116    211.7935   1.2344922775e+02   2.8703350789e+01    0.3807844    0.1234485 -80.93  0.001748702    2.715    0.632
         8 -11.9300     11.2934    205.8189   1.2193612454e+02   2.9451357870e+01    0.3119114    0.2336978  30.61  0.001910253    1.622    0.383
         9  -9.1352    146.3000    212.2820   9.2991316039e+01   9.2091604046e+00     0.132894    0.1037804   2.32 0.0002370298    1.547    0.354
        10  -9.9024    125.5409    210.5228   9.7303204799e+01   1.3058118372e+01    0.1363518    0.1254164  40.17 0.0008085404    1.037    0.035
        11 -10.6183    128.2504    206.6210   9.6096595950e+01   1.3401696962e+01    0.3286056    0.2518409   9.37  0.001712397    1.646    0.392
        12 -10.1141    131.9776    204.7508   9.4960648123e+01   1.3152039279e+01    0.2312826    0.1841773 -39.89 0.0006612058    1.398    0.284
        13 -12.6819    162.9571    199.4684   8.7180991980e+01   8.7972436171e+00    0.5142311    0.2491143 -50.27  0.002178481    2.293    0.564
        14 -13.5963    192.9188    195.3288   8.0114933034e+01   4.3223408717e+00    0.9477569    0.5053702 -62.39  0.003161655    4.684    0.787
        15 -11.0187    135.8534    200.3258   9.3361783198e+01   1.3395228015e+01    0.3903255    0.2743955  88.32  0.001158823    2.161    0.537
        16 -11.9398    181.3820    198.7216   8.3121363194e+01   5.7047560181e+00    0.3081185    0.2309121 -61.15 0.0008848545    1.781    0.439
        17 -11.4938    151.8764    199.3689   8.9597888913e+01   1.0775576912e+01    0.2316088    0.1964527 -63.84 0.0006174154    1.365    0.268
        18  -9.9358    126.2580    237.6207   1.0093056244e+02   7.7273543841e+00    0.1262251   0.09201846  70.11 0.0006971979    1.665    0.400
        19 -11.2620     17.6854    190.8391   1.1953253450e+02   3.2183203650e+01    0.1815205    0.1633806 -65.28 0.0006991687    1.335    0.251
        20 -10.2936     17.6275    184.7064   1.1906161951e+02   3.3596540530e+01    0.1623145    0.1168628 -65.46  0.001004494    1.372    0.271
        21 -11.4564    150.6468    170.7666   8.4492688204e+01   1.6960057165e+01     0.209064    0.1909027  20.93   0.00112238    1.104    0.094
        22 -12.1292    230.2507    167.6220   6.7494307956e+01   2.7748634950e+00    0.3965823    0.1506472 -44.90  0.001535886    2.719    0.632
        23  -9.9178    197.6171    168.7362   7.3851753560e+01   8.3779521425e+00     0.194877    0.1303807 -48.35 0.0003142907    1.590    0.371
        24 -12.5351    245.4130    163.8151   6.4153418598e+01   9.1552520990e-01    0.4058987     0.160362 -44.34  0.001677704    2.529    0.605
        25 -11.3394    235.5055    155.0164   6.3974389101e+01   4.0282065641e+00    0.2126963    0.1188837 -37.53 0.0007022198    1.577    0.366
        26 -10.0106    113.7346    235.2809   1.0324073918e+02   1.0097060984e+01    0.1240699   0.08816988  63.09 0.0002380096    1.485    0.327
        27 -10.4585    157.0582    152.9764   7.9218419581e+01   1.9549892683e+01    0.2248954    0.2204875  -5.99 0.0003132142    1.004    0.004
        28 -20.0241     64.0141    164.5423   1.0535583803e+02   3.3200712650e+01     16.97008     4.941309 -64.34   0.05693201    3.257    0.693
        29 -11.4448     27.4428    145.7431   1.1266868562e+02   4.2055906180e+01    0.3191857    0.2845832 -65.15  0.001158495    1.137    0.121
        30 -11.7416    148.6194    143.0907   7.8982978080e+01   2.3457663248e+01    0.3137797    0.2657619 -61.66 0.0007045444    1.257    0.205
        31 -11.5977    136.7633    228.4842   9.7492227033e+01   7.7311688534e+00     0.240763    0.2056769 -43.74 0.0005752661    1.334    0.251
        32 -11.0430    148.9772    227.5656   9.4784956958e+01   5.9207818316e+00    0.3729619    0.1948637 -46.53  0.001807008    2.155    0.536
        33 -10.7605    126.2145    242.2821   1.0153278925e+02   6.8999908381e+00    0.1878808    0.1623516 -65.30  0.000661525    1.361    0.265
        34 -10.7295     18.7500    226.7244   1.2175823819e+02   2.4299302841e+01    0.1404255   0.08062118  89.37  0.000477171    1.513    0.339
        35 -11.0044    167.3117    112.4163   6.7097039635e+01   2.5947620981e+01    0.3321223    0.2564612 -71.53  0.001027512    1.582    0.368
        36 -10.3700    142.6478    113.7088   7.3192292744e+01   3.1213524589e+01    0.1602493    0.1255184   6.25 0.0007028353    1.675    0.403
        37 -10.3913    205.3130    110.1749   5.9077570562e+01   1.7930414402e+01    0.2345374    0.2023399  37.83  0.000589292    1.286    0.222
        38 -10.8741    111.6342    222.4987   1.0206055541e+02   1.2896783344e+01    0.3663426    0.3141343  79.40   0.00194403    1.224    0.183
        39 -10.8701     32.4397     99.5164   1.0367248887e+02   5.2962284189e+01    0.2986877    0.2131473  78.18 0.0008408917    1.820    0.451
        40  -9.8951    139.3229     99.2880   7.0107729748e+01   3.5002757897e+01    0.1560227    0.1240897   8.38 0.0002499309    1.604    0.376
        41  -9.9115    113.9710    217.9728   1.0094221070e+02   1.3434734537e+01    0.1620885    0.1376725  67.43 0.0009585964    1.181    0.153
        42  99.0000    103.4091    224.0661   1.0404225388e+02   1.3862765106e+01    0.6005767    0.2534997  46.43  0.002627664    2.131    0.531
        43 -11.0351    185.3000     85.2893   5.6387503956e+01   2.6938994661e+01    0.2566274    0.2342747  18.40  0.001107401    1.275    0.216
        44 -10.2531    122.0085    220.9466   9.9595171453e+01   1.1549991408e+01    0.1619713    0.1233894 -58.60 0.0007924201    1.464    0.317
        45 -13.1820    155.4210     70.7323   5.8162731305e+01   3.6611686498e+01    0.5158613    0.4701777  58.73 0.0009251818    1.082    0.076
        46 -14.4154    167.9115     58.0414   5.2071995397e+01   3.5620390872e+01     1.117266     1.013873   4.74  0.003865051    1.301    0.231
        47 -13.0536    173.5329     50.2599   4.8915341619e+01   3.5397645479e+01    0.5184876    0.4771784 -33.44 0.0008048087    1.176    0.150
        48 -10.9232     13.6640     60.1067   1.0183016200e+02   6.3359872880e+01    0.1788582     0.165738  11.73 0.0005034141    1.297    0.229
        49 -10.8639    120.8744     49.7083   5.9409606121e+01   4.8200604385e+01    0.3791251    0.2083569 -28.66  0.001655694    1.987    0.497
        50 -10.5689     68.4118    249.1396   1.1382059820e+02   1.3984158483e+01     0.108568   0.07332376  30.13 0.0006394631    1.650    0.394
