#   1 NUMBER                 Running object number                                     
#   2 MAG_AUTO               Kron-like elliptical aperture magnitude                    [mag]
#   3 X_IMAGE                Object position along x                                    [pixel]
#   4 Y_IMAGE                Object position along y                                    [pixel]
#   5 X_WORLD                Barycenter position along world x axis                     [deg]
#   6 Y_WORLD                Barycenter position along world y axis                     [deg]
#   7 A_WORLD                Profile RMS along major axis (world units)                 [deg]
#   8 B_WORLD                Profile RMS along minor axis (world units)                 [deg]
#   9 THETA_WORLD            Position angle (CCW/world-x)                               [deg]
#  10 FWHM_WORLD             FWHM assuming a gaussian core                              [deg]
#  11 ELONGATION             A_IMAGE/B_IMAGE                                           
#  12 ELLIPTICITY            1 - B_IMAGE/A_IMAGE                                       
         1 -13.5200    224.3638      6.5371   3.5083545871e+01   2.8565476959e+01     2.008547     1.267383  44.89  0.009397655    2.133    0.531
         2 -13.0202    181.4891     51.1588   5.1637429375e+01   3.3275880229e+01     1.040309    0.9386077  51.74 0.0008340536    1.155    0.134
         3 -13.2805    194.2911     40.9749   4.6889354299e+01   3.1554548440e+01     1.106091    0.9917789 -67.02  0.003817444    1.045    0.043
         4 -13.4028    201.3542     32.9474   4.3837000284e+01   3.0888674553e+01     1.026491    0.9467041 -13.99  0.001479037    1.283    0.221
         5  -9.3558    189.4013     14.8114   4.0440622240e+01   3.5893856475e+01    0.2119206    0.1696682 -19.68 0.0007698276    1.464    0.317
         6 -12.1067     60.7393      3.9935   6.2623543586e+01   6.6287058973e+01    0.7024297    0.2828648  40.99  0.003369061    2.173    0.540
         7 -11.4982    202.7493    200.0508   8.3698780468e+01   1.7474159092e+00     0.589533    0.2515938  27.77   0.00223995    2.997    0.666
         8 -10.6359    139.8490    249.3910   1.0380248105e+02   3.9763092867e+00    0.3641788    0.2397501  48.87  0.001713828    1.352    0.260
         9 -10.7966    125.3713    246.0723   1.0617333790e+02   6.7287607654e+00    0.6176594    0.1975147 -52.67  0.002642835    3.658    0.727
        10 -10.7325    114.9508    245.5517   1.0811368435e+02   8.3916309700e+00     0.309848     0.210232 -42.50  0.001856536    1.965    0.491
        11 -10.7189    119.8339    245.7306   1.0719712606e+02   7.6261987606e+00    0.3088489    0.1765924  51.47  0.001260003    1.568    0.362
        12  -9.3117    107.5883    250.2608   1.1001948924e+02   8.6809018836e+00    0.1381182    0.1121895 -51.10 0.0009221028    1.554    0.357
        13 -19.3304     12.8617    166.0853   1.2151111640e+02   3.8043065414e+01     18.62789     4.162664 -78.02   0.06143468    4.438    0.775
        14  -8.6761    133.5186    195.5131   9.7416342472e+01   1.4820625419e+01    0.1386015    0.1292612  47.91 0.0008102495    1.005    0.005
        15  -9.7324    120.0219    194.0122   1.0019240583e+02   1.7466024470e+01    0.2364978    0.1930923 -61.33 0.0003620114    1.286    0.222
        16 -11.1056    206.2371    193.3452   8.1747507087e+01   2.2634112751e+00    0.4015493    0.1934133  29.09  0.001705572    2.312    0.568
        17 -12.0183    184.1740    212.1322   8.9543218523e+01   2.8925337071e+00     0.664876    0.4417834  38.58  0.003618608    1.384    0.277
        18 -10.0334    149.3142    187.6816   9.2550337615e+01   1.3587041830e+01    0.3394154     0.239059  51.58 0.0009281595    1.461    0.316
        19 -11.4061    194.3420    198.4790   8.5060024189e+01   3.4542908324e+00     1.397029    0.6027223 -53.87  0.004866043    4.112    0.757
        20 -12.1829    112.8356    206.0332   1.0357926727e+02   1.6155051284e+01    0.8574507    0.3715452 -46.97  0.003581876    2.733    0.634
        21 -10.6168     98.8430    180.9908   1.0303836634e+02   2.3854185338e+01    0.3567759    0.2633201  13.46  0.001767695    1.910    0.476
        22 -15.3043     72.5976    150.7020   1.0471066224e+02   3.5069964413e+01     7.747272     3.928072  81.72  0.009464988    4.646    0.785
        23 -10.2482    189.3077    177.3714   8.1961348936e+01   8.1282579595e+00    0.4696048    0.3465624 -59.17  0.002336608    1.754    0.430
        24 -10.4354    143.8169    177.9665   9.1990661658e+01   1.6617764217e+01     0.352894    0.2379164 -41.56   0.00101297    1.574    0.365
        25  -9.1720    149.3228    177.0244   9.0557345215e+01   1.5782055625e+01    0.1974759    0.1848516 -53.38 0.0003983552    1.115    0.103
        26 -11.7967    107.7204    203.9949   1.0440855799e+02   1.7402527575e+01    0.5889679     0.363713 -66.03 0.0003917966    1.766    0.434
        27  -9.9501    138.3716    170.1614   9.1755141091e+01   1.9320222387e+01     0.311868    0.2679046  25.56  0.001652166    1.229    0.186
        28  -8.8205    240.3129    169.3297   7.0646483006e+01   3.9726757989e-01    0.1395704   0.09412381  -2.47 0.0004130544    1.673    0.402
        29  -9.2512    187.7443    162.6431   7.9191579564e+01   1.1225276685e+01    0.2590894     0.208679 -42.05  0.001345909    1.251    0.201
        30 -11.7318     51.7846    156.2901   1.1099114751e+02   3.6425346045e+01    0.5662047    0.3297654  60.15  0.001961165    1.894    0.472
        31 -11.5036     93.0077    152.0661   9.9568202859e+01   3.1618916579e+01    0.6923351    0.5002488 -29.91  0.003292429    1.807    0.446
        32 -10.5375    134.0000    147.4816   8.8111688025e+01   2.5246200680e+01    0.8210183    0.2820314 -54.85  0.002453729    3.502    0.714
        33 -10.7170    133.5086    142.9970   8.7234319183e+01   2.6368679388e+01    0.7980391    0.2871456 -56.84  0.002285925    3.834    0.739
        34  -9.2281    187.2007    151.5992   7.6861696716e+01   1.3492522721e+01    0.2103717    0.1387038  31.80 0.0009431703    1.646    0.392
        35  -8.7294    112.4732    150.5315   9.4207917690e+01   2.8628371002e+01    0.1498606    0.1426413 -86.14 0.0001335819    1.025    0.024
        36  -9.2872    174.8475    149.0967   7.8930378428e+01   1.6534649466e+01    0.2335676    0.2108367 -81.52 0.0007477165    1.315    0.240
        37  -8.0774    109.6908    147.7292   9.4354707368e+01   2.9796811602e+01    0.1443793    0.1192123 -13.20 0.0002031723    1.545    0.353
        38 -10.6950    105.5265    138.1270   9.3432130816e+01   3.2844478364e+01    0.5616757    0.3316082 -32.44  0.002220089    2.295    0.564
        39 -11.9224    109.6099    200.8371   1.0354563613e+02   1.7758091037e+01    0.6128515    0.3605905 -38.73  0.001790978    2.332    0.571
        40 -11.6000     93.2293    137.8732   9.6724006810e+01   3.5034699307e+01    0.2874487    0.2654077 -35.22 0.0003939894    1.167    0.143
        41  -9.4018    117.8521    134.6053   8.9352678445e+01   3.1392865694e+01    0.2298406    0.1402354  53.17 0.0009497589    1.842    0.457
        42 -10.3656    105.9921    130.7085   9.1657048049e+01   3.4541105380e+01    0.3998806    0.3243315 -60.72  0.001338422    1.207    0.172
        43 -10.3513    135.8595    129.0565   8.3360712005e+01   2.9068968741e+01    0.5751368    0.2004916 -52.71  0.001706883    3.322    0.699
        44 -10.6740    113.8283    129.2112   8.9174853241e+01   3.3436319543e+01    0.4317208    0.3257987  26.04 0.0008524993    1.533    0.348
        45  -8.4080     97.3800    129.2305   9.3711171547e+01   3.6429675174e+01     0.201906    0.1384861 -64.43 0.0003980327    1.505    0.336
        46 -11.3927    119.6763    123.1859   8.6141308126e+01   3.3712127960e+01    0.6636975    0.4434364 -23.86  0.002735526    2.031    0.508
        47 -10.3139    100.9884    125.0539   9.1742252143e+01   3.6800762391e+01    0.3088179    0.2520714 -23.61 0.0008208523    1.426    0.299
        48 -10.1883    135.1020    121.1112   8.1565863674e+01   3.1021853819e+01     0.603264   0.09245664 -47.33  0.001220885    6.759    0.852
        49  -9.9345    231.2140    113.7477   5.9822088166e+01   1.1487558903e+01    0.2839293    0.2512507 -45.19 0.0007372156    1.089    0.081
        50  -9.0805    167.6880    112.6683   7.1557016580e+01   2.5629190169e+01    0.3228285    0.2301324 -79.20  0.001321767    2.113    0.527
        51  -9.3314    109.1531    118.3203   8.7819692887e+01   3.6894318244e+01    0.2412097    0.2002538 -39.04 0.0003399454    1.196    0.164
        52 -11.6072    117.9497    109.6023   8.3112982465e+01   3.7180377796e+01    0.8314886    0.5636822  74.64  0.003313697    2.336    0.572
        53  -9.4771    205.4767    110.1663   6.3320064003e+01   1.7580092710e+01    0.3066838    0.2182938  41.72 0.0009277832    1.538    0.350
        54  -9.4548    134.5964    102.7648   7.6783865662e+01   3.5170107626e+01    0.3793037    0.1489924 -48.30  0.001238357    2.639    0.621
        55  -9.2887     87.2956    204.0273   1.0887084813e+02   2.0555163898e+01    0.3142182     0.208426 -72.60  0.001672912    1.546    0.353
        56  -9.1161     63.8616     99.0959   9.6776996067e+01   4.8913348204e+01    0.2097877    0.1891385 -86.86 0.0005539779    1.240    0.194
        57 -11.6593     49.4955     90.2079   9.9423539172e+01   5.2811243082e+01    0.7564155    0.4008408  13.79   0.00255985    2.702    0.630
        58  -8.5713    156.5062     81.5514   6.5353394639e+01   3.4370382674e+01    0.1523344    0.1506473 -20.18 6.998164e-05    1.018    0.017
        59  -8.5260    184.4968     77.4691   5.8531640731e+01   2.8335921933e+01    0.1490131    0.1448984 -48.96 6.186224e-05    1.030    0.029
        60  -8.9149     96.5045    201.5182   1.0653292521e+02   1.9694376613e+01    0.2220715    0.1280586 -62.20  0.001098986    1.793    0.442
        61  -9.0456     63.8642     70.0599   8.8618168650e+01   5.5411334148e+01    0.1986687    0.1850562 -59.68 0.0004638342    1.240    0.194
        62  -8.6006    168.1665    248.1352   9.8253639046e+01  -1.8671607911e-01    0.1502956    0.1245997  47.20 0.0002356978    1.254    0.202
        63  -8.8763     93.7865    205.4022   1.0763449796e+02   1.9287642661e+01    0.2666958    0.1825511   4.63  0.001224502    2.778    0.640
        64 -10.5874    108.3194    241.3095   1.0892047581e+02   1.0120960315e+01    0.3134571    0.1885061 -31.85  0.001396175    3.187    0.686
        65  -8.9227    158.1763    235.3213   9.8378594767e+01   3.3586456507e+00    0.1642553    0.1515348   0.09  0.001109132    1.177    0.151
        66 -10.8861    168.8636    220.8134   9.4057007359e+01   4.0077659409e+00    0.3525201    0.1565568  42.97  0.001577263    2.055    0.513
