#   1 NUMBER                 Running object number                                     
#   2 MAG_AUTO               Kron-like elliptical aperture magnitude                    [mag]
#   3 X_IMAGE                Object position along x                                    [pixel]
#   4 Y_IMAGE                Object position along y                                    [pixel]
#   5 X_WORLD                Barycenter position along world x axis                     [deg]
#   6 Y_WORLD                Barycenter position along world y axis                     [deg]
#   7 A_WORLD                Profile RMS along major axis (world units)                 [deg]
#   8 B_WORLD                Profile RMS along minor axis (world units)                 [deg]
#   9 THETA_WORLD            Position angle (CCW/world-x)                               [deg]
#  10 FWHM_WORLD             FWHM assuming a gaussian core                              [deg]
#  11 ELONGATION             A_IMAGE/B_IMAGE                                           
#  12 ELLIPTICITY            1 - B_IMAGE/A_IMAGE                                       
         1 -11.5716     43.8689     29.0636   9.7512705938e+01   6.4632523982e+01    0.6052043    0.3327752  -9.71  0.003181116    2.206    0.547
         2 -10.1786    166.2316     31.2800   6.6539348846e+01   3.9853252578e+01    0.1870641    0.1780226 -21.62 0.0003831483    1.283    0.221
         3 -11.1627     78.4760     21.9645   8.2690134671e+01   5.9967807210e+01    0.3375778    0.2253305 -23.06  0.001148444    1.596    0.373
         4 -10.9611     13.8490     16.0156   1.0527528167e+02   6.9728580747e+01    0.3183383    0.1645687  28.60  0.001328296    1.962    0.490
         5 -11.7641     89.1398     14.1832   7.6830943376e+01   5.8713502527e+01    0.4399673    0.3545875 -49.14  0.002499933    1.674    0.402
         6 -10.9065     92.9151      9.1985   7.4089096748e+01   5.8404835704e+01    0.2670461    0.1945979  13.51 0.0007338138    1.447    0.309
         7  -9.9743     90.0061      2.7191   7.2486361796e+01   5.9502349726e+01    0.3639368    0.1931973  76.67  0.001336365    3.296    0.697
         8 -10.1056     26.6189     16.3538   9.9567333135e+01   6.8368889897e+01    0.2227798    0.1682983  -7.27 0.0008168328    1.066    0.062
         9 -10.8683    190.7977     14.4870   5.9217893356e+01   3.6005951022e+01    0.2813262    0.1636191 -59.87   0.00153689    1.751    0.429
        10 -11.1093    155.8628     14.0151   6.3577230445e+01   4.4139988702e+01    0.3970391    0.2270373  41.15  0.002050836    2.017    0.504
        11 -11.8866     30.1585      7.1891   9.4047952684e+01   6.8993834567e+01    0.3115809    0.2469259   6.35    0.0011936    1.143    0.125
        12 -11.4994     35.0184     12.8697   9.4478471943e+01   6.7760579654e+01    0.3132851    0.2450092 -23.17  0.001597225    1.396    0.284
        13 -11.8794     40.2440      8.6998   9.0552665000e+01   6.7506633650e+01    0.4007917      0.24082  -0.67  0.002381233    1.649    0.393
        14 -10.6884     56.5620     11.4999   8.5673702571e+01   6.4788691581e+01    0.2533948    0.1504075 -23.15 0.0008729352    1.734    0.423
        15 -10.3450    119.0350     12.0924   6.9295196473e+01   5.2668356734e+01     0.186263    0.1523623  52.62 0.0003208325    1.019    0.018
        16 -10.7515     22.2683      9.3011   9.8473298383e+01   6.9692962710e+01    0.2911562    0.1670399   9.83  0.001421329    1.610    0.379
        17 -11.6209     11.8268      6.3608   1.0208195955e+02   7.1118273598e+01    0.4809852    0.4302656  27.23   0.00392018    1.850    0.460
        18 -10.5648      2.9805      2.8036   1.0491188821e+02   7.2339621396e+01    0.2064935    0.1212267  10.85  0.001028741    1.452    0.311
        19 -11.6058      4.8278      9.7281   1.0702540071e+02   7.1331077832e+01    0.2931992     0.163386  19.78 0.0009745312    1.683    0.406
        20 -10.9581      2.6433      6.4066   1.0669357302e+02   7.1928840715e+01    0.2133918    0.1405856  10.36  0.000630684    1.325    0.245
        21 -11.5887    151.3584      7.3255   6.2455603593e+01   4.5798956660e+01    0.3492093    0.2885996 -70.32  0.002175264    1.292    0.226
        22 -11.1677     71.3697      6.4308   7.8871726435e+01   6.2733103186e+01    0.5265969    0.1820386  44.16  0.002519191    2.276    0.561
        23 -11.7896     80.3193      1.7603   7.4575087755e+01   6.1453717135e+01     0.353312    0.1445443  53.31 0.0008952571    1.994    0.499
        24 -10.2139    210.1703      7.2234   5.5693323642e+01   3.2420937152e+01    0.1743342    0.1136166 -77.50 0.0007201832    1.334    0.251
        25 -10.4187     64.8716      6.6970   8.0962846935e+01   6.3852271550e+01    0.1892336    0.1358416   8.36 0.0006402917    1.311    0.238
        26 -11.7727     56.6625      4.2160   8.2618617491e+01   6.5442733878e+01    0.4684846    0.2793979  12.32  0.002880632    1.693    0.409
        27 -10.1403    145.3368      5.5220   6.2848649368e+01   4.7333158142e+01     0.174686    0.1177899 -25.53 0.0007122455    1.811    0.448
        28 -11.2622    194.8674      4.6288   5.6600205326e+01   3.6092528480e+01    0.2291345    0.1619693 -55.93  0.001465654    1.400    0.286
        29 -11.2356    129.6948      4.0508   6.4905236094e+01   5.0984799426e+01    0.2967723    0.2064693  50.09  0.001500812    1.250    0.200
        30 -10.7544    120.0846      4.4499   6.6716779454e+01   5.3076104293e+01    0.3743861    0.1261002  53.25   0.00113509    2.231    0.552
        31  -9.8137    235.4937      4.5061   5.3076102768e+01   2.7299678308e+01    0.1172606   0.08771225 -80.51 1.089943e-05    1.014    0.014
        32 -10.0272     37.6085      2.8311   8.9013646918e+01   6.8446742011e+01    0.2528946   0.09407245 -26.76  0.001124619    2.713    0.631
        33 -10.1838    199.3146      3.3138   5.5885648944e+01   3.5226066421e+01     0.114248   0.08201223  51.97 0.0007034185    1.641    0.390
        34 -10.4434    172.8176      2.8619   5.8561208364e+01   4.1269268852e+01    0.2463284    0.1498223 -84.56 0.0009135548    1.640    0.390
        35  -8.9948    176.5013      2.4873   5.8053345150e+01   4.0461413266e+01    0.2828639    0.1339402  72.69  0.001454901    1.739    0.425
        36 -10.6242    160.9334      2.4201   5.9892272838e+01   4.4029894053e+01    0.2231016    0.1616652  19.37  0.001341671    1.977    0.494
        37  -9.5495    112.3216      2.9804   6.7726580380e+01   5.4870571438e+01    0.1569247    0.1393775  48.47 0.0001701172    1.094    0.086
        38 -10.8350     19.3357      2.6455   9.6814202652e+01   7.0753267983e+01    0.2943124    0.1516008  20.87  0.001423249    1.715    0.417
        39  -9.9248    100.1055      1.7667   6.9841633407e+01   5.7530777630e+01    0.1703871    0.1503961  75.47 0.0004839047    1.291    0.225
        40  -9.4118    204.3168      1.6364   5.5070894720e+01   3.4281430069e+01    0.1297022   0.07104819 -69.20 2.806633e-05    1.769    0.435
        41  -9.4256     67.3969      1.5020   7.8100160091e+01   6.3841180016e+01    0.1146771   0.08867047  27.58 5.585487e-05    1.031    0.030
        42  -9.5244     35.2325    130.8022   1.2829915053e+02   4.5484487798e+01     0.186813    0.1318512 -45.77 0.0005391699    1.345    0.256
        43 -12.0795      4.5650    240.8768   1.4666738042e+02   2.2995379348e+01    0.4857087    0.2231708  54.75  0.002858366    1.785    0.440
        44 -10.9614      1.7549    248.4974   1.4757246243e+02   2.1745806687e+01    0.3598428    0.1364577 -79.61  0.001936392    2.221    0.550
        45 -13.1027      9.4595    245.5883   1.4609740963e+02   2.1530736373e+01     0.570646    0.5022835  66.22  0.004465175    1.375    0.273
        46 -13.4799     10.0048    229.6119   1.4499899993e+02   2.4785443218e+01    0.8512798    0.4741032  73.92  0.005136385    1.501    0.334
        47 -11.0634     12.0140    129.7617   1.3482952778e+02   4.7728591117e+01     0.370562    0.2034714  63.88  0.001593841    2.478    0.596
        48 -11.5961     23.4030    121.3705   1.3020810062e+02   4.8816025388e+01    0.4807068    0.2833426  77.24 0.0006142676    2.508    0.601
        49 -10.5898     65.6184    111.4056   1.1501466727e+02   4.6473494469e+01    0.3773815    0.1571709 -48.83  0.001504409    2.143    0.533
        50 -10.1133    249.0217    111.9842   7.2977250258e+01   8.6622866288e+00     0.169404    0.1415037 -53.82  0.001009755    1.013    0.013
        51  -9.5319     20.2022    112.3990   1.2963866825e+02   5.1163560022e+01     0.149135    0.1164223  40.76 0.0001157003    1.541    0.351
        52 -10.6815      3.8159    109.2350   1.3419155456e+02   5.3007785547e+01    0.2589731    0.1333277  28.95  0.001424865    2.331    0.571
        53 -10.2226     57.7541    107.8368   1.1668105642e+02   4.8347729273e+01     0.252327    0.1627088   7.68  0.001143622    2.065    0.516
        54 -10.2828     12.8416    108.3797   1.3124389839e+02   5.2624670397e+01    0.1597207    0.1116074 -11.28 0.0009530148    1.733    0.423
        55  -9.1087     34.2995    107.3154   1.2416938977e+02   5.1102031846e+01    0.1368311   0.08503022 -35.80 0.0002046702    1.612    0.379
        56 -10.0063     93.0170    104.4957   1.0477029094e+02   4.3665750825e+01    0.2084951    0.1305413  11.46 0.0008103937    2.557    0.609
        57  -9.7904    113.4912    102.4900   9.8271254494e+01   4.0187855729e+01    0.1492125    0.1466519 -16.64 1.745217e-05    1.005    0.005
        58 -11.0220     57.3197    101.9758   1.1541764177e+02   4.9725435751e+01     0.296808    0.2083434  28.80   0.00158138    1.554    0.356
        59 -10.3440     24.9117    101.8577   1.2612848638e+02   5.3178923687e+01    0.1936806    0.1436158 -40.58 0.0003338241    1.202    0.168
        60 -10.4339     62.2184     98.4624   1.1292623593e+02   4.9851639996e+01    0.2617881    0.1791971 -51.21  0.001264963    1.355    0.262
        61  -9.3500    129.4974     97.5235   9.2593108861e+01   3.7840266355e+01    0.1496349    0.1483697  51.96 5.240794e-05    1.002    0.002
        62 -10.0924    101.1333     96.5902   1.0019291431e+02   4.3860025927e+01    0.3317771    0.2103347 -60.29  0.001439499    1.949    0.487
        63  -9.6915      3.0110     95.9740   1.3224833520e+02   5.5998355912e+01    0.2047866    0.1044402 -40.83  0.001127211    1.736    0.424
        64 -10.4777     78.9142     94.9381   1.0656353482e+02   4.8123430478e+01    0.2093854    0.1917933 -20.40 0.0003157505    1.036    0.034
        65 -11.5059     18.0392     94.4050   1.2691643544e+02   5.5368517256e+01    0.2369209    0.2180616  66.05 0.0008971909    1.362    0.266
        66 -10.8621     58.2076     91.6055   1.1248180016e+02   5.1867760144e+01     0.308812    0.2242922  -7.83 0.0009266764    1.593    0.372
        67 -11.0560     27.1645     90.9315   1.2302748872e+02   5.5390505895e+01    0.5016441     0.238314  41.68  0.002361141    2.771    0.639
        68 -10.3063     10.7468     91.0098   1.2872138968e+02   5.6610668674e+01    0.2409436    0.1710655 -62.40 0.0009207827    1.236    0.191
        69 -11.6390     11.0573     86.0182   1.2759796399e+02   5.7657118889e+01    0.4354784    0.2314327 -72.80  0.002231184    2.148    0.534
        70 -12.0987      1.8870     90.0005   1.3154898268e+02   5.7351402450e+01    0.2538653    0.1344332 -60.41 0.0003474097    1.467    0.318
        71 -10.6492     76.3541     89.2497   1.0580595991e+02   4.9720899443e+01    0.2476571    0.2284523 -18.42 0.0004963891    1.008    0.008
        72 -10.1575     43.9503     89.5239   1.1683903434e+02   5.4038795738e+01    0.3418413    0.1595956  42.94  0.001499035    2.767    0.639
        73 -10.9725     98.9887     89.2811   9.8756676362e+01   4.5760709758e+01    0.2078077    0.1931229  27.30 0.0007364943    1.072    0.068
        74 -10.3644     18.0810     88.2065   1.2559679273e+02   5.6703846772e+01    0.3719848    0.1980418 -32.69  0.001692068    1.870    0.465
        75  -9.7421     33.1562     88.1219   1.2027299454e+02   5.5447941218e+01    0.1878998    0.1361837 -39.58 0.0003855978    1.178    0.151
        76  -9.8259    123.9873     86.7407   9.1007412522e+01   4.1161589935e+01    0.2131405    0.1972153  47.67  0.001160205    1.065    0.061
        77 -11.3944     54.8974     85.1166   1.1186900470e+02   5.3654101692e+01    0.3039336    0.2441832 -64.65 0.0008663654    1.467    0.318
        78  -9.3912    114.3557     85.4805   9.3240119162e+01   4.3447118703e+01    0.1432951    0.1372953 -19.31 8.535662e-05    1.046    0.044
        79  -9.1168     72.5529     84.3501   1.0565497089e+02   5.1312374654e+01    0.3180711   0.09457902 -36.02 0.0008066136    5.855    0.829
        80  -9.0572     25.2998     84.7070   1.2224719343e+02   5.6873956991e+01    0.1111722   0.09558527  80.13 0.0003392945    1.567    0.362
        81 -10.5258      3.7810     83.3943   1.2962488330e+02   5.8648245807e+01     0.236471    0.1868642 -64.31 0.0008538735    1.214    0.176
        82 -11.3374     64.0433     80.0657   1.0728180473e+02   5.3432456679e+01    0.4074758    0.3020449 -46.52  0.002272739    1.315    0.239
        83  -9.6873    250.2679     81.0024   6.6502437317e+01   1.3718931396e+01    0.1685067   0.09917446 -45.14 0.0006253287    1.482    0.325
        84 -10.1442     89.3269     80.4525   9.9105902409e+01   4.9270279426e+01    0.2307205    0.1732773 -63.48 0.0008057475    1.731    0.422
        85  -9.3342    132.5045     79.4738   8.6752172888e+01   4.0628877274e+01    0.1468197    0.1404436  35.81 0.0001086527    1.042    0.040
        86  -9.5466    124.4151     79.1357   8.8699030909e+01   4.2482532051e+01    0.2020827    0.1355076 -53.86   0.00053226    1.710    0.415
        87 -10.2704    177.0287     77.0617   7.6531622936e+01   3.0631632870e+01    0.2978313     0.209359  52.94  0.001302555    1.414    0.293
        88 -11.3933     56.1504     75.5016   1.0869739354e+02   5.5412542072e+01    0.4272657    0.2536537  25.11  0.001399285    1.793    0.442
        89 -10.5765     16.2926     75.6876   1.2338539632e+02   5.9440240865e+01    0.3264889    0.1871606   2.98  0.001832861    2.054    0.513
        90  -9.4152     70.2791     75.3616   1.0375724645e+02   5.3416501567e+01     0.141576    0.0971954 -15.33 0.0003426132    1.670    0.401
        91 -10.2366     32.1867     73.1345   1.1678232029e+02   5.8613039480e+01    0.1904941     0.177734  21.73 0.0002730577    1.300    0.231
        92 -10.9019     35.9929     71.9991   1.1504339070e+02   5.8458081019e+01    0.4099241    0.2688505 -58.72  0.001391712    1.674    0.403
        93 -10.8464      4.1355     74.1019   1.2754345171e+02   6.0542602055e+01    0.4177949    0.1648705  21.63  0.002137811    2.875    0.652
        94  -9.3650    136.5203     74.4545   8.4338614750e+01   4.0604607466e+01    0.1451817    0.1385435  56.17 0.0001187653    1.005    0.005
        95 -11.7734    105.7752     71.7869   9.1558250015e+01   4.7713778301e+01    0.2540819    0.2295755  21.88 0.0003144159    1.068    0.063
        96  -9.5377     92.4722     72.4581   9.5695852207e+01   5.0175358934e+01     0.198816    0.1315163 -49.75 0.0009219291    1.695    0.410
        97  -9.0304     90.7160     69.3292   9.5258485200e+01   5.1054023826e+01    0.1300005    0.1119988 -81.79 0.0002135955    1.609    0.379
        98  -8.9372     55.6323     69.7183   1.0714684604e+02   5.6580836331e+01    0.1360474     0.091504  -9.74  0.000701501    1.690    0.408
        99  -9.8570     10.6196     68.2768   1.2372759796e+02   6.1309543769e+01    0.3274333   0.07492819 -54.72  0.001323987    3.043    0.671
       100  -9.5119     46.0274     69.0000   1.1043473899e+02   5.7925516908e+01    0.1973502   0.07026315  30.04 0.0006953544    2.970    0.663
       101 -10.7653     34.4871     64.9272   1.1357935452e+02   5.9962345602e+01    0.2907707    0.1798466 -36.96 0.0006888061    1.381    0.276
       102 -10.9911     38.8970     62.8748   1.1126870234e+02   5.9876058356e+01    0.3743488     0.220136 -21.21  0.000358971    1.821    0.451
       103 -10.5841     40.6881     59.3275   1.0947699279e+02   6.0316161605e+01    0.2799888    0.2115755 -25.10  0.001047627    1.133    0.118
       104 -10.4791    131.8092     64.4102   8.2533724116e+01   4.3344661362e+01    0.3601988    0.2693371  59.85  0.001859478    1.325    0.246
       105 -10.3210     14.1632     63.8736   1.2121873675e+02   6.1920067643e+01    0.2310208    0.1504268 -64.97  0.001071988    1.775    0.437
       106  -9.6552     72.5545     63.2517   9.9182328246e+01   5.5246583272e+01     0.231052    0.1244525 -44.39  0.000834669    1.913    0.477
       107 -11.8716      7.9455     61.0205   1.2293675650e+02   6.2881546003e+01    0.5375929    0.3264694  -8.60  0.001641159    1.735    0.424
       108 -10.1668      7.2021     55.7814   1.2184187452e+02   6.3908123274e+01     0.183697    0.1317056 -35.22  0.000587031    1.069    0.065
       109 -12.1095      4.5963     52.0296   1.2188853605e+02   6.4754908629e+01    0.4940144    0.2004917 -27.06   0.00244207    2.586    0.613
       110 -11.6629     15.7031     46.1445   1.1543229733e+02   6.5016081084e+01    0.7030039    0.4124429   3.78  0.004310407    1.769    0.435
       111 -13.0259     20.6977     57.6294   1.1686538345e+02   6.2583813040e+01    0.3843991     0.290822 -50.88  0.001469282    1.353    0.261
       112  -9.9797     20.1827     51.6666   1.1527990476e+02   6.3694513324e+01    0.2498864    0.1365853 -27.73  0.001194338    1.668    0.401
       113 -10.7927     62.4614     62.6629   1.0248498056e+02   5.6899567173e+01    0.2993837    0.2107856  -8.60  0.001648562    1.531    0.347
       114 -11.2568     54.9649     58.3201   1.0377085917e+02   5.8708083535e+01    0.5005907    0.3598473 -64.43  0.002677183    2.242    0.554
       115 -10.3399     60.0449     58.2203   1.0189197361e+02   5.8012629327e+01    0.2400658    0.2005989 -25.63 0.0005093502    1.126    0.112
       116  -9.5084    100.8926     61.7827   8.9825718417e+01   5.0372319257e+01    0.1810715    0.1647309  80.75 0.0006920136    1.363    0.267
       117  -9.9237    106.5902     59.1502   8.7380386960e+01   4.9638298157e+01    0.2270955    0.1722327  28.22 0.0005940479    1.333    0.250
       118  -9.9583     83.5126     56.9914   9.3523941208e+01   5.4419584384e+01    0.2743084    0.1568734 -41.58 0.0003602208    1.845    0.458
       119 -12.0974     88.4840     53.5016   9.0807443098e+01   5.4055874656e+01    0.4928459    0.3658892  28.32  0.002780527    1.283    0.221
       120  -9.2726     71.7086     57.3002   9.7506926415e+01   5.6379642439e+01    0.1159073    0.1067795 -89.78 0.0002929978    1.565    0.361
       121 -10.4309    225.1831     54.8423   6.4089723383e+01   2.3061418000e+01    0.3483944    0.2717044  -6.28  0.001882861    2.223    0.550
       122 -11.8552    114.4029     53.9279   8.3641505523e+01   4.8789848859e+01    0.3129449    0.2730899  43.91 0.0005478464    1.063    0.059
       123 -10.0635     34.0063     53.9300   1.1037257401e+02   6.1992845214e+01    0.2767926    0.1231326 -29.32  0.001274024    2.451    0.592
       124 -11.9150     66.7931     52.4972   9.7570453746e+01   5.7932562349e+01    0.4668095    0.2035144  34.34  0.002100868    2.288    0.563
       125  -9.4184    175.9771     52.2262   7.0373716171e+01   3.4792564018e+01    0.1798296    0.1058358  63.91 0.0003139079    1.570    0.363
       126  -9.6101     75.4850     49.9830   9.3752385126e+01   5.6901511266e+01    0.2865895    0.1812236  -6.92 0.0009028747    2.003    0.501
       127 -10.4618     78.5789     46.0035   9.1360413420e+01   5.6952582904e+01    0.2999404    0.1825798  31.42 0.0006691232    1.578    0.366
       128 -11.0508    102.9685     47.4019   8.4576163581e+01   5.2114374504e+01    0.3705264    0.2132046  33.76 0.0007250182    1.808    0.447
       129  -9.5182     53.6209     48.2085   1.0083598407e+02   6.0548980248e+01    0.1759485    0.1031223 -28.61 0.0009466016    1.641    0.391
       130 -10.7970    106.6272     53.2026   8.5467609185e+01   5.0532531625e+01    0.2472433    0.2153464  57.01 0.0002549913    1.215    0.177
       131  -9.1003     47.2946     47.3169   1.0292295446e+02   6.1534788239e+01    0.1265617   0.08240344  -9.35 0.0003858468    1.605    0.377
       132  -9.4631     65.0048     46.4431   9.6087977597e+01   5.9141058861e+01    0.1784302    0.1142254  34.86 -1.188103e-05    1.493    0.330
       133 -10.0254     30.5126     45.9594   1.0915040003e+02   6.3698755749e+01    0.2164828    0.1062319 -47.91 0.0009531716    2.049    0.512
       134 -10.9025     25.9837     43.4370   1.1017696492e+02   6.4562406675e+01    0.2460535    0.1926414  18.60 0.0006584533    1.360    0.265
       135 -10.3234     95.0097     42.2342   8.5068542589e+01   5.4411647367e+01    0.2000573    0.1795419  -6.92 0.0005723877    1.136    0.120
       136 -10.2635     70.1398     42.0538   9.2752275602e+01   5.8950527579e+01    0.2616495    0.1698128  41.34  0.001023282    1.516    0.341
       137  -9.8115      2.4296     42.3259   1.2000387764e+02   6.6595416811e+01     0.213908    0.1116179  -3.79  0.001270854    2.045    0.511
       138 -10.3811      5.6272     39.2299   1.1762289939e+02   6.6915046159e+01    0.1975137   0.09333222 -36.05 0.0006356958    1.660    0.397
       139 -10.6479    139.6084     40.5838   7.3804904451e+01   4.4966294666e+01     0.257685    0.2140646 -86.23 0.0006635365    1.335    0.251
       140 -10.2318     36.2417     41.2111   1.0514277310e+02   6.3832623223e+01    0.1830955    0.1352177 -11.29  0.001204881    1.153    0.133
       141  -9.5103    181.7509     40.6344   6.6573344319e+01   3.5014727860e+01    0.1965543    0.1152523  76.37 0.0008807178    1.680    0.405
       142 -10.2808     12.7399     39.1683   1.1444547657e+02   6.6412373427e+01    0.4677668    0.1023316 -46.89  0.001945177    3.427    0.708
       143 -10.2264     16.4873     33.4726   1.1080633577e+02   6.7007586306e+01    0.2493514    0.1524436 -24.13  0.001623196    1.357    0.263
       144 -10.6638     19.8007     32.1115   1.0883582596e+02   6.6917603599e+01    0.2903323     0.169612   1.55  0.001150666    1.721    0.419
       145 -10.0121    132.6829     38.5185   7.4616033856e+01   4.6816637885e+01    0.3098051    0.2137823 -86.58  0.001536155    2.001    0.500
       146 -11.1661    134.3158     34.1288   7.2970210921e+01   4.6974899216e+01    0.2304794    0.1782688  46.51 0.0003447509    1.197    0.164
       147 -12.2356    121.7321     36.7017   7.6445160798e+01   4.9501380325e+01    0.5017841    0.4321698  60.74  0.002103977    1.118    0.106
       148 -10.7899    126.7849     30.7979   7.3514958357e+01   4.9067133646e+01    0.3293429    0.1911978  46.90  0.001302819    1.545    0.353
       149 -10.6022     22.7672     38.5904   1.0986797009e+02   6.5644548758e+01    0.1967947    0.1727613  -0.78 0.0004181287    1.274    0.215
       150 -11.1372     26.4606     35.1726   1.0705076554e+02   6.5810079736e+01    0.3374065    0.1893281 -19.16  0.001306348    1.741    0.426
       151 -10.8321      2.4587     34.6601   1.1757302316e+02   6.7872143051e+01    0.3623593      0.15558 -37.10  0.002102937    1.794    0.442
       152 -11.3639     38.5081     31.0067   1.0042335629e+02   6.5056218455e+01    0.2740027    0.1707187  -4.31 -0.0001299359    1.632    0.387
       153 -11.8947     17.9691    249.0292   1.4483034484e+02   1.9912287296e+01    0.2916222    0.2188614  14.79  0.001863349    2.414    0.586
       154 -10.0051     91.0659     33.6810   8.3240807086e+01   5.6266863660e+01    0.2655605    0.1719265 -13.94 0.0008149617    1.768    0.434
       155  -9.3308     50.4231     33.5415   9.6691585884e+01   6.3138636568e+01    0.1180946    0.0990757   1.32 0.0001446282    1.075    0.069
       156  -9.7227    229.6770    248.0316   1.0289541629e+02  -1.1775230696e+01     0.169402    0.1360212 -15.02 0.0008035706    1.151    0.131
       157  -9.4782    187.3364     30.1430   6.3266135826e+01   3.5026362796e+01    0.1875162    0.1491142  68.21  0.001138444    1.164    0.141
       158  -9.6197    148.2542     28.6482   6.8774925498e+01   4.4382385831e+01    0.3751016    0.1685615 -54.99  0.001474591    3.315    0.698
       159  -9.7441    104.9908     29.5344   7.8103925750e+01   5.3940920051e+01    0.1986164    0.1123292  52.31 0.0005815414    1.556    0.357
       160 -10.2842     69.9321     28.3396   8.7774314624e+01   6.0762014749e+01    0.2645617    0.1562949 -35.82 0.0008183113    1.880    0.468
       161 -10.7306      7.3183     28.1693   1.1308428641e+02   6.8556044488e+01     0.322071    0.1967866  40.90  0.001966619    2.709    0.631
       162 -10.1731     76.7639     26.0215   8.4723121388e+01   5.9834535479e+01    0.3095165     0.183234 -35.35  0.001241962    1.904    0.475
       163  -8.8857    170.7047    246.6793   1.1426539397e+02  -2.4808989018e+00    0.1302031   0.09715091   2.18  0.000386456    1.614    0.380
       164 -11.0908     74.7047     21.6761   8.3732178973e+01   6.0680153569e+01     0.332705    0.1819513 -30.08  0.001601209    1.970    0.492
       165  -9.4628    139.9983     27.0000   6.9784267307e+01   4.6480007948e+01    0.2206138   0.06564669  61.34 0.0006959537    2.907    0.656
       166 -10.3019    100.6998     25.4843   7.7813382806e+01   5.5272308850e+01    0.2056155    0.1931429 -47.27 0.0007674556    1.304    0.233
       167  -9.4438     18.3515     26.3002   1.0729904989e+02   6.7903357674e+01    0.1180298   0.06750782 -11.42 0.0007037661    1.695    0.410
       168  -9.7263    204.9672     30.4726   6.1182872091e+01   3.0919764285e+01    0.1866908   0.09403904 -84.13 0.0008090911    2.467    0.595
       169  -9.7320    153.7417     25.5784   6.7004859719e+01   4.3441122699e+01    0.1837538    0.1129622  76.06 0.0007748211    1.595    0.373
       170 -10.7042    113.8780     24.2105   7.4245516129e+01   5.2627806175e+01    0.2705423    0.2257806  18.44  0.001226778    1.265    0.209
       171 -10.1395     59.4660     24.0502   8.9694984067e+01   6.2984137131e+01    0.2212263    0.1499849  11.76  0.001362296    1.405    0.288
       172  -9.7399     38.4451     24.4513   9.7871523894e+01   6.5935685166e+01    0.2273346    0.1173532 -21.15  0.001077864    1.981    0.495
       173 -10.2291     41.0783     20.0349   9.5010393759e+01   6.6139047837e+01    0.3609038     0.197674  16.40  0.001959962    1.887    0.470
       174 -10.5421     42.1114     15.2255   9.2600284848e+01   6.6553455637e+01    0.2710278    0.2027104  27.32  0.001811917    1.251    0.200
       175  -9.0286    158.7289     23.7265   6.5716421963e+01   4.2475362696e+01    0.1227316   0.08971574  43.03 0.0002011372    1.482    0.325
       176  -9.4336     89.4989     22.5121   7.9725690241e+01   5.7827107251e+01    0.1259119    0.1039572  31.29 0.0005967444    1.024    0.023
       177 -10.2875     21.6987     22.0875   1.0412711395e+02   6.8160557343e+01    0.1835618    0.1294663   6.96 0.0005401486    1.205    0.170
       178 -10.3518     20.1344     16.8206   1.0268059522e+02   6.9010474765e+01    0.1608051    0.1199839  -0.20 0.0003734788    1.062    0.058
       179 -11.4493     13.2791     20.6517   1.0742931912e+02   6.9158099242e+01    0.2264574    0.1831121 -27.71 0.0005866969    1.351    0.260
       180  -9.4225    136.4908    245.5703   1.2119263686e+02   3.4493702241e+00    0.1351462    0.1147455  50.32 7.150119e-05    1.058    0.055
       181 -10.7105      1.8411     21.2072   1.1312675995e+02   6.9986517124e+01     0.214042    0.1358722 -44.05  0.001507284    1.568    0.362
       182  -9.7399     84.9641     21.0796   8.0471705375e+01   5.8848895925e+01    0.2030146    0.1214765  27.64 0.0007396839    1.670    0.401
       183  -9.9470     31.0160     20.4189   9.9346654846e+01   6.7355881996e+01    0.2057056    0.1221492 -17.12 0.0006037574    1.551    0.355
       184  -9.5274    132.0224     20.5068   6.9363065933e+01   4.8982725604e+01    0.1970742    0.1088455  59.84 0.0006521526    1.527    0.345
       185 -10.5355    100.4642     19.2892   7.5753540281e+01   5.5954500543e+01     0.262973    0.2160005 -58.26 0.0009794182    1.626    0.385
       186 -10.0802    147.2936     18.8576   6.6213386279e+01   4.5647977629e+01    0.4053975   0.07762003  56.20  0.001374636    3.568    0.720
       187  -9.2351    216.3681    244.7270   1.0485246395e+02  -9.3689982846e+00    0.1154189   0.09660835  54.67 0.0007002132    1.672    0.402
       188  -8.8947     45.2761    244.3242   1.3951122754e+02   1.7600697086e+01    0.1059486   0.09092829 -56.18 0.0002631946    1.584    0.369
       189  -9.4294    202.4404    240.3132   1.0682032090e+02  -6.5453833328e+00    0.2193879    0.1202365 -36.26 0.0008050583    1.920    0.479
       190  -9.4702     58.1981     19.1436   8.8200225544e+01   6.3737795513e+01    0.1453297    0.1369038 -10.47  0.001067735    1.394    0.283
       191  -9.8152    199.8653     17.1034   5.8808640335e+01   3.3655421790e+01      0.19386    0.1395545 -77.96 0.0005082164    1.234    0.190
       192 -10.5079     49.2349     16.2151   9.0267095620e+01   6.5428348795e+01    0.2050416    0.1741273  29.53 0.0004767792    1.323    0.244
       193 -11.8017      4.1570    232.5643   1.4624413212e+02   2.4754185652e+01    0.3666636     0.181391  68.19 0.0003607248    1.716    0.417
       194 -12.2544     26.1458    236.0150   1.4245965702e+02   2.1671753059e+01    0.3491813    0.2602621  88.81  0.001466413    1.120    0.107
       195  -9.8805    249.1984    234.0860   9.6921168658e+01  -1.2407518618e+01    0.1809081    0.1354985  -5.93 0.0004241719    1.152    0.132
       196  -9.6235     60.7714    241.1296   1.3622516621e+02   1.6202333466e+01    0.2282432    0.1358369  32.61  0.001211481    1.949    0.487
       197 -10.6597     36.5098    241.3377   1.4092436037e+02   1.9322220151e+01    0.2356609      0.12848  45.92  0.001349055    1.639    0.390
       198  -9.5808    140.1885    227.1725   1.1767432618e+02   6.4206161432e+00    0.1985579    0.1564003  63.95  0.001067954    1.358    0.264
       199  -9.4418     68.8337     13.3390   8.2354914216e+01   6.2559647018e+01    0.1546678    0.1364831  11.96  0.001114517    1.162    0.140
       200 -10.4293     33.0592    225.1992   1.4027317760e+02   2.3198087666e+01    0.3029043     0.137073  43.95  0.001554127    2.009    0.502
       201 -12.1312      7.9480    217.6929   1.4457361060e+02   2.7560861565e+01     0.348355    0.2581846  86.17  0.002402281    1.034    0.033
       202 -10.6637     15.8635    212.6245   1.4265746232e+02   2.7887281837e+01    0.2862694    0.1854655 -44.29  0.001630079    2.277    0.561
       203  -9.3193    209.5081    211.5052   1.0026570979e+02  -2.7475787345e+00    0.1361052    0.1230876  -1.54 8.195559e-05    1.008    0.008
       204 -10.2609     20.5707    209.6909   1.4147342883e+02   2.8057660484e+01    0.2358944    0.1536806  76.74 0.0002179663    1.313    0.239
       205  -9.2444    247.0000    207.0467   9.2374881842e+01  -7.9016264493e+00    0.2109869   0.06497042 -40.35 0.0008028685    2.945    0.660
       206 -10.5867      3.1768    205.4451   1.4462904686e+02   3.0719488295e+01    0.1908815    0.1187679  26.57  0.001153519    2.135    0.532
       207  -9.3269    197.2225    203.9809   1.0132372605e+02   7.7567129452e-01    0.1834644    0.1127155 -42.83 0.0005554014    1.631    0.387
       208  -9.0731     38.2502    203.3033   1.3715849637e+02   2.7551811952e+01    0.1182153     0.090041 -55.01 0.0002310553    1.501    0.334
       209 -11.2258      9.5482    203.4699   1.4320732122e+02   3.0570824796e+01    0.2197937    0.1702436  83.89 0.0007502185    1.031    0.030
       210  -9.8187     23.0997    197.1561   1.3983631017e+02   3.0672408050e+01    0.1855552    0.1528104 -67.36 0.0004999245    1.278    0.217
       211 -10.1019     13.6399    193.1522   1.4150190651e+02   3.2545521240e+01    0.1710569   0.09009451 -66.84 0.0005020402    1.616    0.381
       212 -10.0693      7.0595    192.2245   1.4281770413e+02   3.3366921156e+01    0.2889757     0.117232  67.48  0.001251741    2.903    0.656
       213  -9.5192     15.3344    185.1394   1.4040422471e+02   3.4257220123e+01    0.1839283   0.09499246 -85.17 0.0009336954    1.722    0.419
       214  -9.6623      1.2974    183.1487   1.4329300475e+02   3.5952469148e+01    0.1716265     0.086493 -84.73 0.0004137192    1.647    0.393
       215 -10.0124    100.9907    176.0023   1.1831603464e+02   2.5060944244e+01    0.2080033    0.1963013 -87.65            0    1.022    0.022
       216 -11.0852      5.3268    167.6978   1.4100615668e+02   3.9237171076e+01    0.2476699    0.1914795  75.62  0.001173102    1.218    0.179
       217  -9.8390     14.4976    164.0073   1.3844720859e+02   3.9357224397e+01    0.1886596    0.0703277 -52.99 0.0008103762    2.533    0.605
       218  -9.0974     41.3545    157.7166   1.3084427440e+02   3.8244365398e+01    0.1392115    0.0936382  69.61 0.0004295558    1.663    0.399
       219  -8.8926    247.4702    155.5185   8.2157431690e+01   1.0372774045e+00    0.1366262    0.1176659 -36.84 0.0001302767    1.008    0.008
       220 -10.4639      2.7279    153.4563   1.4018604918e+02   4.2794121670e+01    0.2050663    0.1112355  33.26  0.001146703    2.144    0.534
       221  -9.9732     23.6998    150.6696   1.3451055298e+02   4.1762373219e+01    0.1331589   0.08382332 -46.14 0.0005602645    1.646    0.392
       222  -9.5979     22.0286    143.0385   1.3392006117e+02   4.3758859640e+01    0.1650575     0.128731 -69.76  0.001007445    1.052    0.049
       223 -10.8862      5.5294    141.9629   1.3818274767e+02   4.5310129889e+01    0.2035757    0.1524957  56.26 0.0004842931    1.503    0.335
       224 -11.0766      3.1848    138.5581   1.3839226604e+02   4.6272199015e+01    0.2835726    0.1676855  39.47  0.001645328    1.978    0.494
       225 -11.0209      8.9225    135.3761   1.3645169747e+02   4.6626496582e+01    0.2135199    0.1423198 -78.04 0.0004290566    1.292    0.226
       226  -9.4363    212.3290    133.7038   8.3558112440e+01   1.1903468077e+01    0.1487911    0.1129506 -78.33 0.0003062611    1.634    0.388
