#   1 NUMBER                 Running object number                                     
#   2 MAG_AUTO               Kron-like elliptical aperture magnitude                    [mag]
#   3 X_IMAGE                Object position along x                                    [pixel]
#   4 Y_IMAGE                Object position along y                                    [pixel]
#   5 X_WORLD                Barycenter position along world x axis                     [deg]
#   6 Y_WORLD                Barycenter position along world y axis                     [deg]
#   7 A_WORLD                Profile RMS along major axis (world units)                 [deg]
#   8 B_WORLD                Profile RMS along minor axis (world units)                 [deg]
#   9 THETA_WORLD            Position angle (CCW/world-x)                               [deg]
#  10 FWHM_WORLD             FWHM assuming a gaussian core                              [deg]
#  11 ELONGATION             A_IMAGE/B_IMAGE                                           
#  12 ELLIPTICITY            1 - B_IMAGE/A_IMAGE                                       
         1 -14.7435      3.6185    136.2727   1.5173205700e+02   4.6784539800e+01     6.271319    0.8689742 -82.77   0.01850194    6.272    0.841
         2 -13.5941    193.3771     26.7666   7.2830536134e+01   3.2706225167e+01     1.581447     1.459801  55.03  0.007120125    1.145    0.127
         3 -13.5333    209.0543      6.6474   6.5423110973e+01   3.0724360671e+01     1.425973    0.9890168  46.94  0.007486019    1.659    0.397
         4 -12.7269      2.2917     10.7066   1.3692434327e+02   7.6346905388e+01     1.377042    0.2615722 -69.19   0.00462448    4.541    0.780
         5  -9.8635     19.7796    247.6380   1.5189900106e+02   2.4259124204e+01    0.2926689    0.1726943  24.96  0.002074084    1.983    0.496
         6 -11.3685    174.4686    249.3717   1.2396382428e+02   4.9075567319e+00    0.2844038    0.2419101  51.82  0.001808573    1.593    0.372
         7 -11.4618    178.0255    246.2884   1.2299316532e+02   4.7565134164e+00    0.2921025    0.1222307  34.74  0.001111744    1.701    0.412
         8 -12.5970    124.6183    249.6229   1.3289055373e+02   1.1644383597e+01    0.6845378    0.2754791  40.48  0.003916055    1.701    0.412
         9 -13.8126    140.6723    248.2638   1.2984017944e+02   9.6435002045e+00     1.241261    0.4963814  38.06  0.006998644    1.731    0.422
        10  -9.1193      2.2753    249.7199   1.5496272755e+02   2.5539256729e+01    0.1509154   0.08964656  72.14 0.0008722892    1.416    0.294
        11 -10.8222    237.4601    247.3287   1.1341377947e+02  -3.0381404676e+00    0.1873072    0.1097568   9.71  0.001377535    1.436    0.304
        12 -10.8914    190.6677    246.4986   1.2085203096e+02   3.0254259584e+00    0.1829481    0.1514573  50.66  0.001409369    1.731    0.422
        13  -9.7149    198.3217    246.3274   1.1954406544e+02   2.0221624405e+00     0.110304   0.06310058  15.75 0.0006500769    1.688    0.408
        14 -11.6248     22.9638    212.5329   1.5020720482e+02   2.9729491857e+01      1.73614   0.03586841  32.89  0.006183464    5.194    0.807
        15 -12.8187     55.5515    210.5696   1.4340016567e+02   2.6589979560e+01     2.354288    0.2830031  51.85  0.005756614    9.594    0.896
        16 -11.1129     33.4110    217.9983   1.4833228373e+02   2.7727420715e+01    0.6522804    0.2454608  45.14  0.002845899    1.772    0.436
        17 -12.4923     51.1276    217.7605   1.4474924156e+02   2.5844763399e+01     1.039711    0.4793539  48.51  0.005847082    1.555    0.357
        18 -13.9448     42.6284    229.0798   1.4701912979e+02   2.4881585037e+01    0.8829694    0.4526494  43.24  0.002623776    1.363    0.266
        19 -11.8986    185.4102    238.6806   1.2079472116e+02   4.5633213713e+00    0.3482556    0.2799367  71.11  0.001918293    2.380    0.580
        20 -12.7257    134.2407    231.4777   1.2931501983e+02   1.2719984106e+01    0.8520923     0.165174  36.43  0.003001113    4.071    0.754
        21 -12.5309     87.3811    226.1860   1.3800811543e+02   1.9983758285e+01     1.181806   0.07225268  43.45  0.003661652    5.451    0.817
        22 -10.0821    172.9780    222.2974   1.2092458847e+02   8.2439768822e+00    0.1765864    0.1232246  30.76   0.00118858    1.068    0.064
        23  -9.3323      3.5096    227.4798   1.5436005382e+02   2.8946145226e+01    0.2368172    0.1159771  43.45   0.00167529    1.400    0.286
        24 -13.1181    106.0950    230.3077   1.3465514707e+02   1.6838276219e+01     1.710696          nan  39.75  0.004202629    8.405    0.881
        25 -12.7793     36.9699    236.2876   1.4840686468e+02   2.4314482411e+01     0.277781    0.2344795 -72.57 0.0007366054    1.636    0.389
        26 -12.2883     10.5374    206.7605   1.5252369666e+02   3.1910766288e+01    0.5466717    0.3371814  28.17  0.002858572    1.702    0.412
        27  -9.6686     53.1132    203.9001   1.4348675849e+02   2.8076382560e+01    0.2680821    0.1076481  49.22  0.001413295    1.870    0.465
        28 -11.5052     62.8170    201.3832   1.4120638051e+02   2.7373198054e+01    0.2203932    0.2073621  66.90 0.0004470515    1.293    0.227
        29  -9.6591    192.0016    193.2893   1.1315965340e+02   8.9742475860e+00    0.3375775    0.2058119 -61.61  0.001450615    4.468    0.776
        30 -11.8782     68.9479    192.7787   1.3914949820e+02   2.8204016035e+01    0.2382985    0.2225157  57.20 0.0004370865    1.245    0.197
        31 -12.8290      4.6405    170.9908   1.5274098067e+02   3.9274100421e+01     1.453998    0.4094925 -80.26  0.006649174    3.211    0.689
        32 -13.2862      9.3771    155.7903   1.5103532749e+02   4.2085265969e+01     3.082067    0.7203698  67.42   0.01042465    4.947    0.798
        33 -10.9797      2.7374    153.8468   1.5263856009e+02   4.2995828161e+01    0.4988197     0.255855 -87.02  0.001873191    1.709    0.415
        34 -10.2651    245.5976    248.7631   1.1237545245e+02  -4.1216199346e+00    0.1150714   0.08400235 -18.91 0.0009577201    1.693    0.409
        35 -11.7989     86.2348    170.1181   1.3271426811e+02   3.0266317874e+01    0.5768569    0.5054464  18.00  0.003628147    1.384    0.278
        36  -8.6287    209.4968    180.0082   1.0775303696e+02   7.8246429810e+00    0.1347635    0.1096505 -61.15  0.000391126    2.159    0.537
        37 -10.1882     98.4753    153.7578   1.2737505314e+02   3.1738535873e+01    0.3156203    0.2707774 -26.83 0.0007374586    1.516    0.340
        38  -9.2119    101.2750    149.5489   1.2598628608e+02   3.2158737427e+01    0.2001405    0.1864678  40.00  0.000717937    1.127    0.113
        39 -11.8931     87.1825    152.9347   1.3020493316e+02   3.3710079162e+01    0.2578808    0.2484977  -0.22 0.0005688722    1.281    0.219
        40  -9.7679    134.0000    146.4772   1.1718926940e+02   2.6881018025e+01    0.4795865    0.1609694 -50.79   0.00167128    3.450    0.710
        41 -12.2856     67.1736    143.6685   1.3438542151e+02   3.8673243750e+01     0.699606    0.3902559  56.57  0.003031213    1.755    0.430
        42 -10.7732     78.9448    179.4801   1.3554976795e+02   2.9437672938e+01    0.2246459    0.1860972  54.00 0.0003397019    1.026    0.026
        43  -9.8284    109.8616    138.2280   1.2175985847e+02   3.3059510052e+01    0.3511058    0.2497354  -9.69  0.001343452    2.400    0.583
        44 -10.4301     97.3027    135.4969   1.2467562008e+02   3.5863309383e+01    0.2425336    0.2278403 -11.44 0.0003635745    1.288    0.224
        45  -9.3927     83.6517    134.4725   1.2835043764e+02   3.8336441642e+01    0.2462346    0.1625772  55.03 0.0007383297    1.459    0.315
        46 -10.0673     32.9880    132.1942   1.4299650160e+02   4.5336293503e+01    0.2005113    0.1186786  71.63 0.0008786302    1.607    0.378
        47  -8.7475    116.3235    130.0043   1.1843601344e+02   3.3604080473e+01    0.2314138    0.1099661 -32.47 0.0007049171    4.292    0.767
        48  -9.0270    107.0347    124.5027   1.1985110727e+02   3.6544082671e+01    0.2066414    0.1369788  41.40 0.0003263072    1.415    0.293
        49  -9.7698    167.7921    112.8741   1.0196108758e+02   2.6119085212e+01    0.2873925    0.2483316 -70.19 0.0009217812    1.410    0.291
        50  -9.3791    203.4801    111.5051   9.4672019392e+01   1.8525652906e+01    0.1415332    0.1282335   8.19 0.0001158006    1.033    0.032
        51  -8.6285    102.6638    179.2908   1.2991226563e+02   2.5970103902e+01    0.1365658   0.08514807  59.30 0.0002929555    1.638    0.390
        52  -8.8067     27.6698     60.3017   1.3473514275e+02   6.3307016172e+01     0.132882   0.09294657  65.19  0.000703335    1.648    0.393
        53 -13.0527     65.7556    177.7914   1.3854406246e+02   3.1548321360e+01    0.4409269    0.2755343 -45.06  0.001469101    2.305    0.566
        54 -11.1939     99.7727    248.7830   1.3739188655e+02   1.5024823503e+01    0.2544433    0.2021418  33.62   0.00201173    1.255    0.203
        55  -9.8922     81.6905    248.5385   1.4071861076e+02   1.7333677595e+01    0.1772746    0.1005947  64.18  0.001182126    1.794    0.443
