#   1 NUMBER                 Running object number                                     
#   2 MAG_AUTO               Kron-like elliptical aperture magnitude                    [mag]
#   3 X_IMAGE                Object position along x                                    [pixel]
#   4 Y_IMAGE                Object position along y                                    [pixel]
#   5 X_WORLD                Barycenter position along world x axis                     [deg]
#   6 Y_WORLD                Barycenter position along world y axis                     [deg]
#   7 A_WORLD                Profile RMS along major axis (world units)                 [deg]
#   8 B_WORLD                Profile RMS along minor axis (world units)                 [deg]
#   9 THETA_WORLD            Position angle (CCW/world-x)                               [deg]
#  10 FWHM_WORLD             FWHM assuming a gaussian core                              [deg]
#  11 ELONGATION             A_IMAGE/B_IMAGE                                           
#  12 ELLIPTICITY            1 - B_IMAGE/A_IMAGE                                       
         1 -19.5610    173.8071    145.1281   8.4813753476e+01   1.7704374397e+01     9.589947     7.855668 -45.51   0.04896867    1.259    0.206
         2 -10.0775     89.0574     23.6927   6.9715213048e+01   5.9177350595e+01    0.1856979    0.1598757  18.38 0.0004081115    1.045    0.043
         3 -12.1048    239.0136     16.0959   4.1218389039e+01   2.3530902716e+01    0.4296821    0.2313044 -66.81  0.001848012    1.931    0.482
         4 -11.0504     23.5667     11.5471   9.0855571441e+01   7.0754169572e+01    0.2389541    0.1290742 -10.26 0.0007416143    2.181    0.542
         5  -9.6042    165.9797      8.0457   4.7099380162e+01   4.2618627025e+01    0.1564094    0.1533281 -79.80 0.0003958909    1.094    0.086
         6 -11.0955     26.8400      6.9811   8.6954331424e+01   7.1101495970e+01    0.2106582    0.1530713  20.84 0.0004052715    1.431    0.301
         7 -10.6008    178.3238      5.8582   4.4802363398e+01   3.9647892315e+01    0.2214317      0.15876 -52.73 0.0009989688    1.447    0.309
         8 -11.0658    107.8151      4.2520   5.6299947356e+01   5.7305650808e+01    0.2529643    0.1752844  32.18 0.0003945453    1.351    0.260
         9 -11.0930      7.5260      4.9444   9.6373673530e+01   7.3162909380e+01    0.1979428    0.1380001   5.56 0.0005762433    1.438    0.305
        10 -11.2389    245.7928      3.7863   3.7852581271e+01   2.3354255354e+01     0.185027    0.1207322 -63.54 0.0005849693    1.345    0.257
        11 -10.4931    158.6486      2.0430   4.6214693998e+01   4.5052527789e+01    0.1834166    0.1747023  45.04 0.0005622033    1.107    0.097
        12 -10.4366     40.2626      2.7813   7.8256006002e+01   7.0026536253e+01    0.1835096    0.1471859  30.42  0.001022492    1.425    0.298
        13 -10.7314     59.0699    238.5436   1.2250070908e+02   1.8837252813e+01    0.1629619    0.1209702  81.06  0.000543884    1.179    0.152
        14  -9.5102    234.4984    250.5266   9.2562931440e+01  -9.2924274166e+00    0.1142871   0.08386249  20.08 3.270893e-05    1.003    0.003
        15 -11.6025    219.5974    250.0995   9.5029928527e+01  -7.0949980163e+00    0.3838179    0.1357824  40.04  0.001150191    2.275    0.561
        16 -13.1097    193.1783    248.8031   9.9455955179e+01  -2.9378924064e+00    0.3679332    0.2120733  37.56 0.0005235506    1.351    0.260
        17 -11.9594    135.5523    250.5452   1.1000416768e+02   5.8726911716e+00    0.2915289    0.1095509  46.75 9.486424e-05    2.102    0.524
        18  -9.8819    132.8001    246.5806   1.1006017057e+02   6.8980044071e+00    0.1777019    0.1261396  51.22 0.0006833857    1.136    0.120
        19 -10.8648    125.4649    249.2778   1.1167663229e+02   7.6196679887e+00     0.222819    0.2010164 -55.15 0.0009416991    1.451    0.311
        20 -11.6405    122.0709    244.3407   1.1176423454e+02   8.9106527057e+00    0.4508929    0.1995976  49.26   0.00223071    1.836    0.455
        21  -9.3073     16.2993    250.3174   1.3015403108e+02   2.1721695152e+01   0.08200554   0.07134179 -82.41 0.0003957523    1.615    0.381
        22 -11.5190    243.4280    236.1956   8.8823172360e+01  -9.0125482672e+00    0.2951773    0.2069083   4.04 0.0004440945    1.257    0.205
        23 -11.8822    125.5699    235.1187   1.1009315628e+02   9.8526430822e+00    0.2926023    0.2267103  81.71  0.001060964    1.444    0.307
        24 -10.9740     68.7999    236.4442   1.2063534512e+02   1.7946570349e+01    0.2011382    0.1526066  72.11 0.0003117544    1.085    0.078
        25 -11.5727    118.5003    235.1115   1.1141635589e+02   1.0965630832e+01    0.2633713    0.2095591  80.46  0.001110397    1.325    0.245
        26 -11.2085     42.9840    235.6152   1.2506981137e+02   2.1326657555e+01     0.183069    0.1286573  86.73 0.0003669789    1.243    0.196
        27 -10.3622     33.3511    235.8849   1.2671145387e+02   2.2385773618e+01    0.1752002   0.09722317  74.57 0.0007566285    1.462    0.316
        28 -11.8826    156.2195    222.7299   1.0264087437e+02   6.8290340204e+00    0.2221887    0.1905278  40.02 0.0003252599    1.040    0.038
        29 -13.0036    164.7350    230.9844   1.0217477520e+02   4.1063257752e+00    0.3049186    0.2910163  57.03 0.0007193922    1.208    0.172
        30 -13.0145    164.8116    224.0974   1.0118002528e+02   5.1508915923e+00    0.6177164    0.2848895  44.53  0.002988709    1.829    0.453
        31 -15.1549    245.9803     92.5742   5.8830263728e+01   1.1239672769e+01     3.264632     1.877685  15.07   0.01129556    4.075    0.755
        32 -15.9513    230.7659    168.6017   7.8610005861e+01   2.0469023985e+00     2.291441      1.43983 -24.41   0.01062366    1.590    0.371
        33 -15.9425    142.4128    188.9445   1.0028496731e+02   1.5272568129e+01     2.245985     1.478312 -56.34  0.008277095    1.700    0.412
        34 -15.4771    237.1392    142.5474   7.1872528240e+01   4.9776073156e+00     1.558515    0.9587842  41.07  0.007680714    1.684    0.406
        35 -16.2198    127.9524    137.9292   9.3952142568e+01   2.8827155792e+01     3.251087     1.568055 -45.85   0.00927695    2.121    0.528
        36 -16.0414    207.8608    178.9463   8.4982479755e+01   4.6606911025e+00     2.457801     1.581334 -14.38    0.0118312    1.922    0.480
        37 -16.0137    119.6016    154.6462   9.9412203709e+01   2.6677642871e+01     1.737137     1.485621  69.25  0.006413821    1.165    0.142
        38 -15.6315    186.1947     97.9041   7.0395923889e+01   2.4102764607e+01     1.475654     1.232312  72.45  0.006524862    1.334    0.250
        39 -16.5465    211.9612    122.1756   7.1621649509e+01   1.3672167890e+01     2.681023     1.562698  60.03   0.01120821    2.093    0.522
        40 -16.0851    139.8460    156.0250   9.4862471713e+01   2.2495171934e+01     1.394525     1.263487  13.45  0.007620282    1.254    0.202
        41 -16.4680    208.5699    133.4028   7.4949242174e+01   1.2399583008e+01     3.231936     1.367281  50.89   0.01202018    2.513    0.602
        42 -16.1268    187.7272    178.5733   8.8891886276e+01   8.5725580660e+00     1.349398     1.065845  38.30  0.005552891    1.172    0.147
        43 -15.9955    190.2329    166.7070   8.6001162756e+01   1.0190618347e+01     1.549206    0.7920441  32.54  0.006314597    2.192    0.544
        44 -11.0279    176.2071    244.9524   1.0196899413e+02   2.3656069692e-01    0.2564111    0.1802387  28.45 0.0007470184    1.272    0.214
        45 -10.1437      1.9792    173.0207   1.2872156162e+02   3.7835225292e+01    0.1354842   0.09911263  83.06 0.0003647808    1.012    0.012
        46  -9.7742    250.1103    172.1607   7.5977984934e+01  -1.8947921602e+00    0.1525382    0.1445806   4.67            0    1.265    0.209
        47 -11.1214     55.3617    171.2173   1.1716482052e+02   3.2846121309e+01    0.3669311    0.1965778 -71.68  0.001248935    1.693    0.409
        48 -11.6031    175.6307    224.9095   9.9233809499e+01   3.1906885468e+00    0.2218568    0.1948142  39.13 0.0006985957    1.095    0.087
        49 -10.9411      2.8642    168.3534   1.2825052992e+02   3.8756989193e+01    0.2100482    0.1389986  88.24 0.0002678839    1.131    0.116
        50 -10.5954    247.7829    165.9976   7.5105234854e+01  -6.0150673574e-01    0.1950724    0.1724072  13.65 0.0003415868    1.119    0.106
        51 -11.0682     65.5702    165.4432   1.1412567753e+02   3.2836978948e+01    0.3210637    0.2010538 -70.84   0.00121242    1.468    0.319
        52 -12.4733    182.7643    221.4373   9.7350350941e+01   2.4986923591e+00    0.4569664     0.273953  44.11  0.001040869    1.458    0.314
        53 -10.9050     42.6423    163.6512   1.1921667637e+02   3.6043078991e+01    0.4595405    0.1519418 -76.24  0.001786178    3.146    0.682
        54 -11.0678     16.5696    161.2060   1.2482690720e+02   3.9173993743e+01     0.190281    0.1507324  51.53 0.0006301557    1.351    0.260
        55 -11.8914     77.1822    157.7323   1.1028769555e+02   3.2991437894e+01    0.3564074     0.336703 -13.73  0.001578581    1.388    0.280
        56 -10.5978     69.0798    158.3817   1.1234478337e+02   3.3980875854e+01     0.240693    0.1620313 -54.98 0.0006349924    1.529    0.346
        57 -11.2254     57.0674    158.3152   1.1522082437e+02   3.5563404884e+01    0.2205958    0.1727872 -77.83 0.0002529667    1.123    0.110
        58  -9.5441     36.2817    159.2913   1.2021547545e+02   3.7715883689e+01    0.1134696   0.08576594 -52.99 0.0006947925    1.531    0.347
        59  -9.3910     62.6544    157.2206   1.1373640163e+02   3.5105216854e+01    0.1311103   0.08575995  64.07 0.0001737914    1.540    0.350
        60  -9.8027     22.2950    156.6545   1.2315657017e+02   3.9677578543e+01    0.1272459   0.07237729  72.65 0.0007031933    1.668    0.401
        61 -11.4841     15.4935    156.0312   1.2463457926e+02   4.0415523387e+01    0.1989458    0.1377493  62.55 0.0006863825    1.343    0.256
        62 -10.0892     83.6014    154.2122   1.0817153966e+02   3.2854978548e+01     0.251342    0.1269047 -66.30 0.0009545012    1.970    0.492
        63 -12.3919     76.1332    150.1773   1.0939211880e+02   3.4898374075e+01    0.6727209    0.4551828  -6.62  0.002918866    3.066    0.674
        64 -13.0656     79.4608    144.4083   1.0761016070e+02   3.5766764224e+01    0.3155996    0.2760463 -77.39 0.0005371797    1.044    0.042
        65 -12.4185     73.7427    142.6561   1.0879292983e+02   3.7008642230e+01     0.660511    0.2385347 -56.97  0.002589194    2.482    0.597
        66 -12.2382     70.8943    138.4575   1.0884038407e+02   3.8402531567e+01    0.5063995    0.3290312  68.86  0.001757761    1.776    0.437
        67 -10.3604     62.3000    148.8605   1.1266131225e+02   3.7097066311e+01    0.1986873    0.1568913  88.57 0.0005086975    1.155    0.134
        68 -11.7919     54.6788    146.8773   1.1429182429e+02   3.8515312594e+01    0.4230588    0.1683211 -55.42  0.001289656    2.347    0.574
        69 -11.1897     29.5794    143.4664   1.2010456220e+02   4.2009414153e+01    0.2923652    0.1964016  77.53  0.001015616    1.399    0.285
        70 -10.1062      6.8512    224.1721   1.3050931982e+02   2.7264881020e+01    0.1260758    0.1016052  82.78 0.0003852508    1.285    0.222
        71 -10.7243     36.4638    141.1515   1.1812366655e+02   4.1875256681e+01    0.1849213    0.1629502  68.71 0.0002521828    1.180    0.153
        72 -10.6375     55.3680    136.7657   1.1265768278e+02   4.0817707477e+01    0.4096268   0.08911452 -60.48  0.001365169    3.544    0.718
        73  -9.8544     23.2140    138.1723   1.2109459431e+02   4.3809153672e+01    0.1746654     0.118939  79.56  0.001062406    1.354    0.262
        74 -10.2341     72.8257    134.1977   1.0759851528e+02   3.9145300305e+01    0.2146434    0.1737159  82.94 0.0007947896    1.238    0.192
        75 -11.2732     72.2707    123.5449   1.0579888859e+02   4.1764646796e+01    0.3578071    0.2024802  43.26  0.001690072    1.873    0.466
        76 -12.0118     67.5821    119.8777   1.0642188572e+02   4.3287126197e+01     1.131691    0.5257919 -81.61  0.003431103    4.736    0.789
        77 -12.4021     78.1930    131.2171   1.0561313747e+02   3.9080546708e+01    0.5786971    0.3461296 -68.87  0.002728862    1.663    0.399
        78 -10.7952     80.5164    124.4460   1.0367109918e+02   4.0345858304e+01    0.2702102    0.2110312 -65.54 0.0008907251    1.184    0.156
        79 -10.1694     47.5262    133.3667   1.1422410341e+02   4.2534237136e+01    0.1886686    0.1248405  33.25 0.0005685706    1.737    0.424
        80 -12.2220     62.9056    128.7337   1.0933840375e+02   4.1789036415e+01    0.2934074    0.2444738 -85.52 0.0003986597    1.118    0.106
        81 -10.3021     47.0450    124.4161   1.1299848585e+02   4.4713357356e+01    0.2802909    0.1483725 -51.82  0.001377235    1.789    0.441
        82 -10.5548     79.0826    116.5378   1.0245327318e+02   4.2442346326e+01    0.3473114    0.1653465 -49.97 0.0008812547    1.963    0.491
        83 -11.1972     73.8126    219.9215   1.1830806882e+02   2.0298658924e+01    0.3270492    0.1947906 -55.06  0.001904439    2.092    0.522
        84 -10.5648     84.4931    108.1200   9.9007962380e+01   4.3592793624e+01    0.2442048    0.2159663  21.95  0.001360881    1.291    0.225
        85 -12.5982     93.9968    104.9857   9.5461229167e+01   4.2747788919e+01    0.6856618    0.3078146 -42.17  0.002587834    2.364    0.577
        86 -12.6507     89.1315    109.5125   9.7975175691e+01   4.2516214399e+01     0.823029    0.3361805 -41.19   0.00286809    2.929    0.659
        87 -12.2901     93.5805    115.5019   9.8084432903e+01   4.0370449447e+01    0.5295283     0.377235 -72.37  0.002550875    1.552    0.356
        88 -12.1763     95.4381    110.2333   9.6322749306e+01   4.1283267467e+01     0.448137    0.3702823   5.08  0.001554217    1.534    0.348
        89 -10.2469    249.8548    114.1905   6.3348634213e+01   7.0181758373e+00     0.299619    0.1745535 -24.89  0.001218703    1.719    0.418
        90 -10.1209     31.3724    114.8341   1.1593604194e+02   4.8546544752e+01    0.1827385   0.09364554 -60.48 0.0005690843    1.587    0.370
        91 -11.7062      6.2345    114.8222   1.2294327599e+02   5.0459886707e+01    0.2513683     0.188509  63.84  0.001581021    1.412    0.292
        92 -11.1800     48.9951    113.5745   1.1062973164e+02   4.7078232591e+01    0.2367439    0.1660608 -66.56 0.0002452862    1.224    0.183
        93 -11.0786     22.2610    112.4265   1.1818879919e+02   4.9879330806e+01    0.2383832    0.1112719  29.48  0.001220298    2.502    0.600
        94 -11.9421     73.3694    109.4031   1.0259156961e+02   4.4972531633e+01    0.4246611    0.2435991 -50.24 0.0007881888    1.600    0.375
        95 -10.4933     23.9754    108.7957   1.1717826595e+02   5.0590815532e+01    0.1913089    0.1663897  53.53  0.001306094    1.324    0.245
        96  -9.2314     64.6566    224.7288   1.2043825921e+02   2.0623397393e+01   0.09582382   0.09160709  17.89 0.0003825723    1.614    0.380
        97 -12.0691     86.1632     94.2054   9.5057364027e+01   4.6536208520e+01    0.7248425    0.2850964 -37.74  0.002338944    3.477    0.712
        98 -11.6349     89.5586     87.5851   9.2208538915e+01   4.7449914614e+01    0.3578099    0.2905262 -18.05  0.001269888    1.397    0.284
        99 -11.0245     92.5366     83.5408   9.0126479273e+01   4.7816768101e+01    0.2385092    0.2128266   9.91 4.040778e-05    1.216    0.177
       100 -11.5911    102.5094     98.1769   9.1215219425e+01   4.2774748697e+01    0.3374562    0.2027189  31.64  0.001011551    1.945    0.486
       101 -10.9278    108.1519    219.7217   1.1165271015e+02   1.5276427963e+01     0.197967    0.1736666 -76.17 0.0005161368    1.274    0.215
       102 -12.0725     92.5626     93.0573   9.2794364541e+01   4.5712794267e+01    0.4132415    0.3128152 -38.53 0.0006057441    1.301    0.231
       103 -11.7815     99.1284     91.9421   9.0510646128e+01   4.4788728630e+01    0.4200015    0.2697754  22.57  0.001229758    2.072    0.517
       104 -11.2714    103.8726     91.9223   8.9099480698e+01   4.3908336277e+01    0.2722148    0.2423172 -14.73 0.0008473356    1.215    0.177
       105 -12.4017     72.6979     96.8637   9.9911731558e+01   4.8005607759e+01    0.4661794    0.3858775 -42.70  0.001904883    1.157    0.135
       106  -9.9462     15.1878    223.8647   1.2910988157e+02   2.6506451556e+01    0.1698781     0.099681  67.02 0.0006609085    1.252    0.201
       107 -10.4898     46.3725     94.2116   1.0769256883e+02   5.1926064287e+01    0.2607954    0.1833239 -68.86  0.001167789    1.314    0.239
       108 -10.2104     14.1397     93.0736   1.1778986997e+02   5.4943515065e+01    0.1864725    0.1278048 -55.18 0.0004008821    1.235    0.190
       109 -10.7016     52.1241     90.8773   1.0509365669e+02   5.2060653604e+01    0.1977737    0.1721999 -85.25 0.0004839374    1.234    0.190
       110 -11.5881     66.7597     90.8323   1.0031760572e+02   5.0229015374e+01    0.4400132    0.2119812 -54.03  0.001933523    1.829    0.453
       111 -12.1098    106.4222     85.3513   8.6455732158e+01   4.4840071267e+01    0.4193096    0.2811217  38.57 0.0008544005    1.572    0.364
       112 -12.0102    240.0488     85.9929   5.8086598549e+01   1.3559421071e+01    0.2886541    0.2655887  43.71 0.0003751058    1.201    0.168
       113 -10.9434    239.1941     81.7551   5.7171316676e+01   1.4414939922e+01    0.2555806    0.2243943 -41.30 0.0006236767    1.033    0.032
       114 -10.3884     13.5763     85.4328   1.1674315076e+02   5.6720029365e+01    0.2962125    0.1637531  57.63  0.001559568    2.455    0.593
       115 -10.1339    205.1560    217.8225   9.2567163462e+01  -7.6595307989e-01    0.1772389    0.1531601  38.28 0.0003860988    1.218    0.179
       116 -10.1800     80.3600     84.8332   9.4345744090e+01   4.9576071796e+01    0.2189486    0.1179179 -41.99   0.00094925    1.782    0.439
       117 -11.3488     70.1775     82.2410   9.6956117111e+01   5.1689948528e+01    0.3385763    0.2385377 -56.85   0.00124629    1.348    0.258
       118  -9.6051      2.5088     80.5309   1.1960953866e+02   5.8444985472e+01    0.1182252   0.09014837 -66.59 0.0003652123    1.014    0.014
       119 -10.0844    248.0043     78.0037   5.5065427960e+01   1.3064830242e+01    0.2107851    0.1901908 -41.14 0.0005965143    1.023    0.022
       120 -11.8048    201.2259    232.9208   9.5695189879e+01  -2.1725789493e+00    0.2366297    0.2078867  31.20  0.000432869    1.178    0.151
       121 -10.3893     92.4227     77.2415   8.8281832030e+01   4.9182904222e+01    0.2040405    0.1342954 -55.17 0.0004948182    1.606    0.377
       122 -11.6359     86.6997     81.4247   9.1345054571e+01   4.9285028704e+01    0.3642993    0.2751437  67.52 0.0006798065    1.785    0.440
       123 -10.1848    231.1184     74.8912   5.6610414204e+01   1.7316816434e+01    0.2120949    0.1979805 -34.66 0.0005593607    1.066    0.062
       124 -11.6849     89.0226     74.4196   8.8493892995e+01   5.0376511507e+01    0.3314493    0.2624989 -17.94  0.001725719    1.381    0.276
       125  -9.7696     77.7853     74.3952   9.2164996767e+01   5.2252126913e+01    0.1803209    0.1344091  19.36 0.0003078831    1.548    0.354
       126 -11.0212    222.2971     70.0763   5.6658409025e+01   2.0136189527e+01    0.3956989    0.2993209  35.63  0.001699724    1.577    0.366
       127 -10.0496     97.3912    205.9657   1.1219251819e+02   1.9560492642e+01    0.2098517     0.147914 -63.48 0.0004969853    1.530    0.347
       128 -10.1610     52.9656     70.5024   9.9650665168e+01   5.6531339139e+01    0.1781995    0.1323552  23.89 0.0004445727    1.534    0.348
       129 -11.7344     96.1678    213.3760   1.1329448910e+02   1.8312435750e+01    0.5882716    0.3602061  21.19  0.002803233    2.833    0.647
       130 -10.0559     97.3191    209.3528   1.1260492675e+02   1.8910586343e+01    0.2128464    0.1635999 -24.12 0.0009976762    2.259    0.557
       131 -10.3350    214.3480     66.5291   5.6914626628e+01   2.2605684419e+01    0.2537066    0.2065544  64.45 0.0006880466    1.266    0.210
       132 -10.2511    242.0922     64.8115   5.2636498635e+01   1.6352157457e+01    0.5413305     0.240826 -59.53   0.00186641    3.481    0.713
       133 -11.0753     59.6682    216.2514   1.2066235953e+02   2.2880960016e+01    0.3160304    0.2168283  33.26  0.001991761    1.758    0.431
       134 -11.0262    206.2384     62.2254   5.7003278863e+01   2.5274117504e+01    0.2857011    0.2356446 -81.44 0.0008602184    1.296    0.228
       135 -11.7435     13.3427    216.3871   1.2904389965e+02   2.8091008409e+01    0.2031074    0.1498843  65.56 0.0007199379    1.139    0.122
       136 -10.2596    237.0657    214.4926   8.6259203832e+01  -5.4945910323e+00    0.3032767    0.1724575 -44.18  0.001608051    2.418    0.587
       137  -9.3204     79.2687    213.6752   1.1665923409e+02   2.0734901923e+01    0.1250504   0.07669815  70.34 0.0003148493    1.571    0.364
       138 -10.4163     37.3245     61.1575   1.0284771963e+02   6.0223325619e+01     0.195021    0.1592133 -19.59 0.0003831578    1.250    0.200
       139  -9.6772    235.5048     60.4486   5.2397447818e+01   1.8497728169e+01    0.1420581    0.1263941 -56.93 0.0001037025    1.031    0.030
       140 -10.2199    210.8846     60.3972   5.5795610463e+01   2.4402825162e+01    0.3501949    0.1841533  78.32  0.001322966    2.609    0.617
       141 -13.1129    138.2141     58.5069   6.9227965798e+01   4.3017054978e+01     0.724696    0.4374691 -11.21 0.0007935321    2.493    0.599
       142 -11.6665    177.2366     48.9452   5.8005757991e+01   3.4682799435e+01     0.514282    0.3107322 -82.93  0.001969844    2.548    0.608
       143 -12.2845    177.2726     57.0708   6.0452116797e+01   3.3436458450e+01    0.4324059    0.3403502 -48.36 0.0003868282    1.290    0.225
       144 -10.8227    177.6476     52.6890   5.9064340679e+01   3.4016132083e+01    0.3140499    0.1947948  42.93  0.001217943    1.744    0.427
       145 -11.9253    104.9433    210.5970   1.1121362331e+02   1.7485279649e+01    0.5491588    0.2081977 -62.57 0.0009404413    3.012    0.668
       146 -10.4463      9.8470     58.4790   1.1287552402e+02   6.2885740556e+01    0.2345853    0.1364948 -59.34  0.001417259    1.315    0.240
       147  -9.3601     53.6335     58.2750   9.5741244112e+01   5.9021665387e+01    0.1214908    0.1033054  76.42 0.0007005539    1.672    0.402
       148 -10.9414    112.1254     55.4681   7.5084212613e+01   4.9508011284e+01     0.436307    0.2903356  70.77  0.001361338    2.264    0.558
       149 -11.0015     90.0942     56.3605   8.2155288601e+01   5.3755914858e+01    0.2847686    0.2308504 -11.46  0.001158134    1.267    0.211
       150 -11.3488    210.6218     54.4279   5.4223319005e+01   2.5364275456e+01    0.2921493    0.2507293  81.35 0.0007484358    1.174    0.148
       151 -10.7887    249.1911     53.1236   4.8979436148e+01   1.6452360789e+01    0.2167701    0.1850393 -47.73 0.0003655043    1.043    0.041
       152 -12.2549    124.8120     51.0124   7.0041983573e+01   4.7427949220e+01    0.8867258     0.511115   4.95  0.002712759    3.704    0.730
       153 -12.4878    116.2960     47.6707   7.1127979533e+01   4.9904743463e+01    0.4630175    0.4267408  66.08 0.0004147869    1.219    0.179
       154 -11.7552     31.3246     51.7452   1.0249495826e+02   6.2739949412e+01    0.2860835    0.2251861 -77.23 0.0006494455    1.627    0.385
       155 -11.6713    107.1244    203.7169   1.0991437861e+02   1.8468701699e+01    0.3359753    0.2569747  36.38  0.001995859    1.375    0.273
       156 -10.1969     44.1502    209.1605   1.2302299409e+02   2.6180288425e+01    0.1581407    0.1333857  82.51 0.0003855357    1.194    0.162
       157 -10.1083     58.7394     52.5773   9.1913836136e+01   5.9495596949e+01    0.1663836    0.1257693  40.48 0.0009460396    1.557    0.358
       158 -11.2156    171.6238     50.0382   5.9358036766e+01   3.5969240362e+01    0.3390651    0.2366897 -20.48  0.001260337    1.617    0.381
       159 -10.5523     73.2820     50.4907   8.5800366342e+01   5.7742665051e+01    0.3087858    0.2395208  61.22  0.001588657    1.837    0.456
       160 -10.4571     11.7786     40.0016   1.0733952653e+02   6.6583281904e+01    0.1804235    0.1387888 -42.02 0.0003397747    1.022    0.021
       161 -11.7053     18.4482     49.0366   1.0703766005e+02   6.4321717550e+01    0.2189451     0.196334 -22.07 0.0003506982    1.203    0.169
       162 -13.7379     18.1735     43.2506   1.0548892149e+02   6.5511730434e+01    0.3752708    0.3128048  -9.73 0.0007996139    1.280    0.219
       163 -10.1160     36.0629     48.9799   9.9696070111e+01   6.2853015711e+01    0.1880889    0.1523849 -34.94 0.0003632875    1.020    0.020
       164 -10.7442    240.7471     47.5985   4.8601088701e+01   1.9124491752e+01     0.465611    0.2470618  88.88   0.00194787    2.596    0.615
       165 -11.1314    134.4274     59.5119   7.0497060502e+01   4.3750176252e+01        0.263    0.2447829 -50.63 0.0005061965    1.132    0.117
       166 -10.2619     30.4510    214.0084   1.2589247904e+02   2.6780120987e+01    0.1563866    0.0897771 -83.03 0.0003629088    1.518    0.341
       167 -10.8016     57.5456    205.0584   1.2010309976e+02   2.5361843258e+01    0.2219516    0.1484637  51.69 0.0005957543    1.305    0.233
       168 -11.4099    154.7246     43.7315   6.0631525535e+01   4.1235705875e+01    0.4075286    0.2186522 -25.30  0.001662076    2.060    0.515
       169 -11.0122    101.5099     45.1474   7.4456200192e+01   5.3487450323e+01    0.2635075    0.2304146 -82.07  0.001081391    1.539    0.350
       170 -11.1306     86.8858     44.4867   7.8847280694e+01   5.6456144025e+01    0.2921459    0.2137982  21.50 0.0009279668    1.445    0.308
       171 -10.5595     81.8145    230.2973   1.1775817573e+02   1.7268756239e+01    0.2003016     0.138632  40.81  0.001238198    1.428    0.300
       172 -12.5964    134.5232     38.1104   6.3084522394e+01   4.7080956213e+01    0.6604898    0.3122198 -45.32  0.002550042    2.470    0.595
       173 -11.2069    124.0161     39.7253   6.6201690162e+01   4.9360276033e+01    0.3160095    0.2422888  33.47   0.00130586    1.304    0.233
       174 -11.6888     66.4548     41.4737   8.4921688783e+01   6.0438612065e+01    0.4277892    0.3749087  65.24  0.001534221    1.633    0.388
       175 -10.1450     66.5117    199.0173   1.1773769268e+02   2.5423344024e+01    0.2378369     0.110911 -76.66   0.00115588    2.238    0.553
       176 -10.6104     69.4717    230.1440   1.2000533499e+02   1.8988252118e+01     0.200531    0.1417933  45.94  0.000336378    1.321    0.243
       177 -12.0978    174.6084    231.3763   1.0037466432e+02   2.4049164547e+00    0.4095389    0.3060258  40.72  0.001777536    1.109    0.099
       178 -11.5302    230.7887    220.0281   8.8313346079e+01  -5.2127195062e+00    0.3585411    0.2146517  35.46  0.001529183    1.443    0.307
       179 -11.9897    176.8528     39.5579   5.5215832420e+01   3.6116722868e+01    0.4695209    0.4536196  24.55  0.001716959    1.112    0.101
       180 -10.8215    124.7340     43.0847   6.7239193232e+01   4.8693070056e+01    0.3383028     0.213708 -37.48 0.0006186275    1.618    0.382
       181 -11.3375    185.0033     51.6553   5.7466865851e+01   3.2276603006e+01    0.3386123     0.248695 -57.89  0.001619369    1.459    0.315
       182 -11.8672     11.6183    201.7467   1.2856338348e+02   3.1098453798e+01     0.410659    0.1615035  81.34  0.002119315    2.412    0.585
       183 -10.0160     36.3158    194.4330   1.2339285217e+02   3.0062773669e+01    0.1921373    0.1069078  79.55 0.0001296999    1.621    0.383
       184 -10.6902    165.2088     38.4250   5.6895152564e+01   3.9289162780e+01    0.3344278     0.258379 -88.89  0.001073599    1.463    0.316
       185 -11.5101     55.0215     38.0104   8.8014607498e+01   6.2703863820e+01    0.3665513    0.2336476 -59.93  0.001479034    2.367    0.578
       186 -11.5054    155.2610     37.3063   5.8405169844e+01   4.2000440714e+01    0.3955319    0.2429296  45.38  0.001013712    1.620    0.383
       187 -11.3954     68.9831    203.3927   1.1767436781e+02   2.4197515672e+01    0.2498045    0.1878904 -87.23 0.0009064693    1.222    0.181
       188 -10.8040     53.0062    191.9711   1.1981534080e+02   2.8628014546e+01     0.214662    0.1656799  56.87 0.0003238301    1.191    0.160
       189 -11.5353    122.4353     34.3804   6.4627501861e+01   5.0489283207e+01    0.2691946    0.2573009  19.45 0.0006648671    1.035    0.034
       190 -10.7488    125.9872     30.6942   6.2392213910e+01   5.0145836607e+01    0.2267972    0.2119161  -8.15 0.0003486742    1.090    0.083
       191 -11.4522    126.4687     27.4862   6.1086273311e+01   5.0442324376e+01    0.3200216    0.2486799  85.57  0.001632864    1.621    0.383
       192 -10.6698    200.4709     32.5525   4.9630425128e+01   3.0949737598e+01    0.2460647    0.2287622 -86.24 0.0005727064    1.015    0.015
       193 -10.9230    214.4409     31.4522   4.7569130109e+01   2.7574151270e+01    0.2420769    0.2175396 -86.85 0.0004747015    1.046    0.044
       194 -11.3254    140.0829     31.4233   5.9486860196e+01   4.6614206048e+01    0.3258056    0.2453563  14.55 0.0008147783    1.541    0.351
       195 -11.3956    141.4919     25.5224   5.7115892661e+01   4.6998458245e+01    0.4232349    0.2325411 -34.60  0.001214374    1.886    0.470
       196 -11.1474     98.3771     32.1270   7.0341500232e+01   5.6128627311e+01    0.4276832     0.174884  47.26  0.001723444    2.341    0.573
       197 -10.6091     85.0996     31.3739   7.4222776580e+01   5.8869983484e+01    0.2324301     0.180892 -30.61 0.0002684698    1.270    0.213
       198 -11.2492     55.8975    188.7593   1.1890531944e+02   2.8948573776e+01    0.2175837    0.1775015  80.83 0.0004124871    1.035    0.034
       199 -10.4001    181.0893     31.0818   5.1970119673e+01   3.6130578067e+01    0.2175697     0.187289  40.27 0.0002850309    1.246    0.197
       200 -10.2307    166.1431     30.9375   5.4343614887e+01   4.0030119436e+01    0.2647574    0.2025894  13.78 0.0009170721    1.607    0.378
       201 -10.4956    203.0058     28.6842   4.8229632348e+01   3.0792937716e+01    0.2066144    0.1745218  79.99 0.0006719377    1.123    0.110
       202 -11.1560      9.5828     28.6835   1.0480171571e+02   6.8904687697e+01    0.2015057    0.1847125  11.53 0.0001440142    1.396    0.284
       203 -12.2149     66.7154    185.1372   1.1622712359e+02   2.8320380543e+01    0.2434632    0.2028279  78.53 0.0002812722    1.018    0.018
       204  -9.7036     62.8466    181.9353   1.1670844125e+02   2.9526707603e+01     0.197641    0.1412295  75.45 0.0004817825    1.255    0.203
       205 -11.6655    216.1456     25.4763   4.5804901609e+01   2.7895442928e+01    0.3758044    0.2166883 -55.88  0.001772312    1.749    0.428
       206 -10.7969    209.2303     25.2313   4.6533042010e+01   2.9646243196e+01    0.2462883    0.2073756  86.94 0.0003520339    1.114    0.102
       207  -9.8457    109.7559     26.3175   6.4798602850e+01   5.4462779603e+01    0.1796197    0.1694302 -17.37 0.0006489625    1.131    0.116
       208  -9.9929    104.0609     26.0171   6.6232087190e+01   5.5754954844e+01    0.1998325    0.1687329 -71.70 0.0003899187    1.622    0.383
       209 -10.3894     33.6569     25.4516   9.2128521634e+01   6.7464004633e+01    0.3037205    0.1508039  41.44  0.001529224    2.807    0.644
       210 -10.2800    248.0095    185.7225   7.9035038278e+01  -3.4467297121e+00     0.198179    0.1430907  13.05 0.0008366381    1.286    0.223
       211 -10.3066    228.3956     24.2935   4.4198586556e+01   2.5059386038e+01    0.2378583    0.1499758  59.97 0.0006147572    1.629    0.386
       212 -11.1692    154.1116    244.7524   1.0596281683e+02   3.7998408016e+00    0.2081382    0.1757746  63.08 0.0008242749    1.279    0.218
       213 -13.9727    243.7901    221.0348   8.6235333053e+01  -7.3237152039e+00    0.4138935    0.3117745  -3.61 0.0009608413    1.186    0.157
       214 -10.0168    222.2191     21.7924   4.4204733184e+01   2.6849804777e+01    0.1831058    0.1544228  49.46  0.001062417    1.362    0.266
       215 -10.4850     17.9061    183.0933   1.2620214653e+02   3.4322551565e+01    0.2642244    0.1212776 -64.90  0.001477127    2.032    0.508
       216 -10.2884     48.2480     21.8002   8.4024533220e+01   6.6296972633e+01    0.1728546    0.1220209  -8.61 0.0004186737    1.334    0.250
       217 -10.1239    187.6928     21.0064   4.8048379107e+01   3.5634233415e+01    0.1874592    0.1777792 -74.23 0.0004652305    1.057    0.054
       218 -10.7343     51.3843    180.0341   1.1898725454e+02   3.1385517141e+01    0.2093939    0.1651194  52.65 0.0002961864    1.254    0.202
       219 -11.3083    185.3951    243.1732   1.0006405218e+02  -9.9044750685e-01    0.2320783    0.2045741 -52.54  0.001664119    1.538    0.350
       220 -10.2595    175.0853     17.0396   4.8601159589e+01   3.9340995311e+01    0.2089266    0.1934528  81.93 0.0003523261    1.013    0.013
       221 -11.4559    201.8793     22.1672   4.6577726905e+01   3.1866042281e+01    0.3597992    0.1968273  -8.81  0.001456638    2.826    0.646
       222  -9.9524     12.4759     15.9472   9.8563369924e+01   7.0991673073e+01    0.1687546   0.08915118 -46.29 0.0004827602    1.536    0.349
       223  -9.9817     50.0683     15.3076   8.0234926312e+01   6.7000586265e+01    0.1675858    0.1385329   3.94 0.0004875969    1.089    0.081
       224 -10.3768    206.3170     13.3138   4.3677824845e+01   3.1748691488e+01    0.1358541   0.09935524  40.15 0.0004925287    1.646    0.392
       225 -10.4088    163.0301     12.9313   4.9082734183e+01   4.2894413222e+01     0.227826    0.1510093  37.71  0.000667362    1.648    0.393
       226 -12.3970    182.8673    238.0726   9.9804375342e+01   1.0229870186e-01    0.3535371     0.237232  31.00  0.000391474    1.267    0.211
       227 -11.6807    237.7465    221.9327   8.7425878286e+01  -6.5206327973e+00    0.2495502    0.2269814  27.91 0.0005250867    1.399    0.285
       228 -10.2334    189.9202    241.6994   9.9039371507e+01  -1.5168656932e+00    0.1734113    0.1249844  35.29 0.0006115106    1.098    0.089
       229 -11.8457    193.6515    237.1193   9.7700357123e+01  -1.5097206306e+00    0.3178656     0.264585  -2.27   0.00095203    1.294    0.227
       230 -11.8517    190.3003    230.7950   9.7371133371e+01  -1.0808740060e-01    0.3773491    0.2385109  37.45  0.002024065    1.292    0.226
       231  -9.7045    248.4720    177.4718   7.7326008405e+01  -2.3738414607e+00    0.1325532    0.1076189   1.67 0.0003709356    1.061    0.057
       232  -9.5988     42.2844    177.3284   1.2067855973e+02   3.3041127448e+01    0.1127157   0.08641777 -53.14 0.0002537096    1.608    0.378
       233  -9.4668    224.2878    241.3106   9.2899357826e+01  -6.7891229726e+00    0.1172546   0.07403366  12.45 0.0002876367    1.578    0.366
       234 -10.3013    112.0797    241.1119   1.1324644586e+02   1.0960513213e+01    0.1919749     0.116771  65.38 0.0009241287    1.684    0.406
       235 -12.8730    231.3717    237.5280   9.1087040315e+01  -7.4065775899e+00    0.3671001    0.2340293   3.07   0.00110077    1.641    0.391
       236 -10.7713     68.9202    174.9826   1.1455507665e+02   3.0242994693e+01    0.1876373    0.1598865  81.84  0.001188133    1.022    0.021
       237 -11.3566    104.2527    236.8865   1.1425103687e+02   1.2848213160e+01    0.4395054     0.243461  66.09  0.002405025    1.957    0.489
       238 -10.7819     97.1645    230.8786   1.1496106379e+02   1.4946857738e+01    0.2770463    0.1804647  38.53  0.001280494    1.495    0.331
