#   1 NUMBER                 Running object number                                     
#   2 MAG_AUTO               Kron-like elliptical aperture magnitude                    [mag]
#   3 X_IMAGE                Object position along x                                    [pixel]
#   4 Y_IMAGE                Object position along y                                    [pixel]
#   5 X_WORLD                Barycenter position along world x axis                     [deg]
#   6 Y_WORLD                Barycenter position along world y axis                     [deg]
#   7 A_WORLD                Profile RMS along major axis (world units)                 [deg]
#   8 B_WORLD                Profile RMS along minor axis (world units)                 [deg]
#   9 THETA_WORLD            Position angle (CCW/world-x)                               [deg]
#  10 FWHM_WORLD             FWHM assuming a gaussian core                              [deg]
#  11 ELONGATION             A_IMAGE/B_IMAGE                                           
#  12 ELLIPTICITY            1 - B_IMAGE/A_IMAGE                                       
         1 -12.2519      2.2232     44.0901   1.3307719808e+02   6.5142464309e+01     1.611544    0.1484897 -62.52  0.004473662    7.086    0.859
         2 -13.3568      3.9108     10.2566   1.2157621787e+02   7.1338403829e+01     1.808969    0.8192872 -45.84   0.01083297    1.632    0.387
         3 -13.2781    190.6380     27.4490   7.2231330946e+01   3.3814991905e+01     1.325963     1.280044 -12.43  0.007133057    1.086    0.079
         4 -13.5467    204.5535      9.1360   6.5281820196e+01   3.2268182417e+01     1.509128     1.053603  35.53  0.007938172    1.669    0.401
         5  -8.9551     31.9734     61.7454   1.2629265359e+02   5.9489439861e+01    0.1624118    0.1406872 -39.57 0.0001975379    1.090    0.083
         6 -11.6233    139.8297    249.3904   1.3108933214e+02   7.2123748592e+00    0.3919168     0.260965  53.50  0.002645803    1.302    0.232
         7 -11.1024    102.1902    247.6979   1.3729892325e+02   1.2934495404e+01    0.2564576    0.2154919  64.86  0.000755204    1.127    0.113
         8  -9.2173     67.1242    250.5257   1.4325940844e+02   1.7112433500e+01    0.1498949   0.07923683  46.22 0.0006641091    1.502    0.334
         9 -12.2255     22.2304    201.1459   1.4741838526e+02   3.0669238724e+01    0.6126935    0.1517233  48.67  0.002959806    3.123    0.680
        10 -13.7030      7.6280    208.1575   1.5032006677e+02   3.0736592644e+01     2.713536     1.367751  45.05  0.006942884    1.780    0.438
        11 -15.0539     12.6578    157.5152   1.4608488188e+02   4.0197199994e+01     10.44877     4.335606  69.47   0.05128678    2.797    0.643
        12 -11.4256      4.2137    240.9446   1.5234374521e+02   2.5428654869e+01    0.4081421    0.2427315  44.40   0.00185046    1.607    0.378
        13  -9.9700     81.5185    248.4845   1.4078766893e+02   1.5603189474e+01    0.2343066    0.1361032  73.20  0.001537131    1.753    0.430
        14 -12.7822      3.1513    178.4241   1.4943032047e+02   3.6733534209e+01     1.815165     0.398457 -75.88  0.005409383    3.577    0.720
        15  -9.2375     46.6630    248.9588   1.4636474510e+02   1.9781850889e+01    0.2282387    0.1001278  62.94  0.001139053    1.948    0.487
        16 -10.1293    238.4978    247.0065   1.1409347936e+02  -7.4592755107e+00    0.1489842    0.1002406 -18.80  0.001038065    1.605    0.377
        17 -10.7024    122.6091    249.0941   1.3398950590e+02   9.8104546820e+00    0.2353701    0.1379443  39.15  0.001493021    1.468    0.319
        18 -11.3050      2.4475    152.5257   1.4781776924e+02   4.2021072965e+01    0.4137384     0.233279 -84.33   0.00270801    1.382    0.276
        19 -10.2660    183.5500    238.3625   1.2212814545e+02   1.8835383437e+00     0.235471    0.1198872  38.28 0.0007884399    1.562    0.360
        20  -9.0155    172.3036    238.6631   1.2414109375e+02   3.6309915076e+00    0.1116231   0.08354725  63.63 0.0007038552    1.668    0.400
        21 -12.5464     41.0513    233.9769   1.4633567131e+02   2.2853735123e+01     0.305448    0.2137507 -68.22 0.0008135909    1.642    0.391
        22 -11.9860      8.4112    226.4734   1.5109156395e+02   2.7444493068e+01    0.8779855    0.2552826 -74.21  0.004898022    2.955    0.662
        23  -9.5929     32.7225    228.5580   1.4735044744e+02   2.4676576455e+01    0.1609831    0.1087175  75.00  0.000578805    1.132    0.117
        24 -10.7358      9.0906    249.7429   1.5199278054e+02   2.3571974908e+01     0.340338    0.1572224  43.13  0.002484026    1.870    0.465
        25  -9.9384    163.1847    226.2298   1.2408252170e+02   6.8259301066e+00     0.198655    0.1248436   8.24 0.0009597844    2.845    0.648
        26 -10.5925    173.8438    222.1131   1.2154764209e+02   5.6586374579e+00    0.3614651    0.2790418  88.08  0.002148953    2.090    0.521
        27 -10.6819     88.9556    220.7717   1.3704466687e+02   1.9147463581e+01    0.4501946    0.1057915  51.18  0.001576169    4.543    0.780
        28 -11.3597     13.0243    241.0110   1.5105103001e+02   2.4589139328e+01    0.3415181    0.1622402  81.50  0.002392398    1.767    0.434
        29  -8.8095    152.5101    212.9352   1.2419027226e+02   1.0616223465e+01    0.1558993    0.1255274 -52.16  0.000377206    1.474    0.322
        30  -9.3408     32.1635    206.9637   1.4606047978e+02   2.8584547432e+01    0.2437772   0.09900439  56.13  0.001112256    2.129    0.530
        31 -11.3140     66.0414    199.1877   1.3918496576e+02   2.6145108610e+01    0.3009174    0.2143587 -49.46  0.001220185    1.834    0.455
        32  -9.9552    193.4963    195.9821   1.1365528585e+02   6.0953344974e+00    0.5054142    0.2602851 -60.29  0.001671647    5.706    0.825
        33  -8.9426     51.5966    197.2909   1.4175856734e+02   2.8268320352e+01    0.1859204    0.1292233  72.08 0.0005786267    1.225    0.184
        34 -11.5705     71.6497    191.2387   1.3726927295e+02   2.6961722628e+01    0.2478315    0.2107133 -62.55 0.0005169414    1.343    0.256
        35 -14.2755     47.3666    226.7076   1.4481882806e+02   2.3381566909e+01     1.540019     1.466122 -18.32  0.007397364    1.767    0.434
        36  -8.6275    104.1004    180.1196   1.2917767107e+02   2.4494933259e+01    0.1664078    0.1328986  73.13 0.0009973198    1.235    0.191
        37 -13.0866     68.1890    176.3342   1.3629273369e+02   3.0410073673e+01    0.4664616     0.264781 -45.51   0.00180376    2.341    0.573
        38 -10.7537     80.8709    178.4690   1.3387815066e+02   2.8269630977e+01    0.2139311    0.1942072 -87.38 0.0003423468    1.113    0.102
        39  -8.7416    171.4836    173.4694   1.1385230000e+02   1.3829836676e+01    0.1383633    0.1257849  30.17 5.390386e-05    1.004    0.004
        40 -11.6384     87.9578    168.9217   1.3106526500e+02   2.9226015642e+01    0.6016099    0.5245275  68.76  0.003879892    1.052    0.050
        41 -10.7497      2.3579    248.6340   1.5290599881e+02   2.4374440209e+01    0.4022049    0.1729935 -79.81  0.002751656    2.067    0.516
        42 -10.5061    190.8541    154.3951   1.0604509031e+02   1.3331772252e+01    0.5113677    0.3533604 -77.64  0.002090645    2.981    0.665
        43  -9.7895     99.8232    152.7261   1.2583199865e+02   3.0840839160e+01    0.3404715    0.2580828 -46.52 0.0007926254    1.412    0.292
        44  -9.1610    102.9122    148.2607   1.2431968413e+02   3.1300945614e+01    0.2161175    0.1688414 -20.64  0.001133761    1.765    0.434
        45 -11.8527     88.6423    152.0990   1.2835129699e+02   3.2702599121e+01     0.263661    0.2392589 -38.45 0.0005769875    1.289    0.224
        46 -12.2557     67.6768    143.3067   1.3196772171e+02   3.7554583448e+01     0.727388    0.4162813 -84.75  0.002305564    2.152    0.535
        47 -11.8538     64.6097    142.1978   1.3254274650e+02   3.8191948891e+01    0.7671008    0.3601814 -76.65  0.003258691    2.636    0.621
        48  -9.0321    184.6254    147.9293   1.0590029871e+02   1.5738816478e+01    0.2372182    0.2016268  79.86 0.0007892693    1.549    0.355
        49  -8.3537    192.0039    144.0253   1.0353156697e+02   1.4896844014e+01    0.1725553    0.1593195  -8.56 0.0004146782    1.057    0.054
        50  -8.9973    180.9232    143.8898   1.0576689733e+02   1.7233433404e+01    0.2185043    0.1815728 -88.14 0.0005671513    1.662    0.398
        51  -9.6241    110.7620    137.4967   1.2037842531e+02   3.2301461756e+01    0.3493271    0.2248451 -30.23  0.001133546    2.116    0.527
        52 -11.9621     24.9150    137.3181   1.4143405723e+02   4.3483866499e+01    0.3736369    0.2206213  80.72  0.001796323    1.730    0.422
        53 -10.4089     98.2062    134.8799   1.2296505049e+02   3.4979727064e+01    0.2484225    0.2073012 -41.93 0.0004253105    1.268    0.211
        54 -11.0348     57.5760    133.1089   1.3288982793e+02   4.1079667912e+01     0.473221    0.2420624 -89.86  0.001922261    3.127    0.680
        55 -10.0489    163.5828    127.9113   1.0579362236e+02   2.3907432903e+01    0.6970844    0.4347758  86.65  0.002105431    4.735    0.789
        56  -8.5185     69.7906    124.1673   1.2823596908e+02   4.1560361336e+01    0.1735793    0.1457256 -38.18 0.0003995799    1.318    0.241
        57  -9.3439    107.7151    124.1600   1.1834490928e+02   3.5731191596e+01    0.1940983     0.179391 -72.51 0.0003470051    1.076    0.071
        58 -10.2774     53.4970    118.4981   1.3156754607e+02   4.4842388745e+01    0.2869678    0.1116946 -62.74  0.001232786    2.243    0.554
        59  -8.4729     87.4235    137.1375   1.2607960230e+02   3.6164649487e+01    0.1757366    0.1221161 -74.18 0.0003225757    1.521    0.343
        60 -10.3085    167.9497    113.1774   1.0117007250e+02   2.5778652987e+01    0.3394624    0.2996812 -84.52  0.000907005    1.379    0.275
        61  -9.3446    203.2086    111.7668   9.3594175459e+01   1.8066334488e+01    0.2129209    0.1711549   8.61  0.000656539    1.361    0.265
        62  -9.9355     34.7599     93.1752   1.3234593895e+02   5.2443453397e+01    0.3232535    0.1825164  43.05  0.001761153    2.118    0.528
        63  -8.3855    184.6858     77.6261   8.7963547083e+01   2.8199880065e+01     0.163485    0.1168439  14.14 0.0007031946    1.790    0.441
        64 -10.7459     15.3217     65.9105   1.3317709368e+02   5.9887810158e+01    0.2651923    0.2277668  40.94 0.0009642597    1.491    0.329
        65 -11.1815     11.3025     54.4910   1.3207091067e+02   6.2527573991e+01    0.5145836    0.2154979  40.30   0.00253982    3.404    0.706
        66 -11.5973      5.2257     62.1341   1.3593139456e+02   6.1283163174e+01    0.4538774    0.3208494  53.37  0.001365433    1.918    0.479
        67  -9.2206    249.6769    249.6686   1.1269753854e+02  -9.2863151315e+00    0.1158834     0.064083  14.61 0.0004706075    1.701    0.412
        68 -10.4653    162.1937    249.0511   1.2722074691e+02   3.8489006021e+00     0.219458    0.1326922  41.13  0.001057759    1.274    0.215
        69  -8.8881     24.1326     58.8773   1.2839860717e+02   6.0734136534e+01    0.1671591    0.1448413 -63.91 0.0003889432    1.213    0.176
        70 -10.6641    196.4700    240.9998   1.2025549535e+02  -4.8015771217e-01    0.2728254    0.1674081 -41.98  0.001698477    2.108    0.526
        71 -10.1088     82.3937    243.3789   1.4023164207e+02   1.6287317971e+01    0.3769617    0.1641616  66.08  0.001890643    2.888    0.654
