#   1 NUMBER                 Running object number                                     
#   2 MAG_AUTO               Kron-like elliptical aperture magnitude                    [mag]
#   3 X_IMAGE                Object position along x                                    [pixel]
#   4 Y_IMAGE                Object position along y                                    [pixel]
#   5 X_WORLD                Barycenter position along world x axis                     [deg]
#   6 Y_WORLD                Barycenter position along world y axis                     [deg]
#   7 A_WORLD                Profile RMS along major axis (world units)                 [deg]
#   8 B_WORLD                Profile RMS along minor axis (world units)                 [deg]
#   9 THETA_WORLD            Position angle (CCW/world-x)                               [deg]
#  10 FWHM_WORLD             FWHM assuming a gaussian core                              [deg]
#  11 ELONGATION             A_IMAGE/B_IMAGE                                           
#  12 ELLIPTICITY            1 - B_IMAGE/A_IMAGE                                       
         1  -7.5158    143.4874      9.9124   5.7596294569e+01   4.7462851075e+01    0.1793059    0.1367345 -29.41 9.083425e-06    1.451    0.311
         2  -7.1496    224.2216      1.9986   4.9160976169e+01   2.9026413057e+01    0.1435403   0.08259024 -34.94            0    1.558    0.358
         3  -8.8847    243.9036    245.0340   9.4450397765e+01  -5.5112131772e+00    0.1901354    0.1256177  -7.58    0.0003469    1.136    0.120
         4  -9.6165    101.9514    247.9470   1.2168730335e+02   1.0928879223e+01    0.3333453    0.1714121 -54.75  0.001862063    2.465    0.594
         5 -16.9941     43.4366    240.2431   1.3396084568e+02   1.9240334790e+01     2.458584     1.626922  36.26  0.006252713    1.185    0.156
         6  -8.3872    139.7790    216.8085   1.0978597201e+02   1.1044310350e+01    0.1671357     0.135351  44.87 0.0003186033    1.322    0.244
         7  -8.1776      3.0519    212.5698   1.4195109668e+02   2.8629808413e+01    0.1864004    0.1520737 -61.85   0.00128362    1.567    0.362
         8  -8.8426     31.4375    205.8148   1.3483100632e+02   2.7445816909e+01     0.224512    0.1500583  35.32 0.0005951069    1.283    0.220
         9  -8.4038    247.0400    202.6225   8.7534424568e+01  -1.0733745280e+00     0.174799     0.137945 -12.13 0.0003701232    1.177    0.151
        10 -10.0803    137.6593    231.2882   1.1215167271e+02   8.9450283125e+00    0.2208983    0.1797935  18.37 0.0002692762    1.062    0.058
        11  -7.4564      4.4672    228.4971   1.4206238931e+02   2.5291214841e+01    0.1177222   0.08597442  52.10 0.0001540993    1.005    0.005
        12  -9.3238     75.1851    194.9333   1.2265217373e+02   2.4617449583e+01    0.3242053    0.2163273 -49.22   0.00118249    1.787    0.440
        13  -9.1076     36.1219    195.2491   1.3296638828e+02   2.9293919190e+01    0.3793548     0.215555  16.57 0.0008060864    2.024    0.506
        14  -7.9583     81.7294    186.7048   1.1995133549e+02   2.5530142913e+01    0.3077152    0.1182585  46.79 0.0009900962    2.504    0.601
        15  -9.3408    244.7500    184.5238   8.4855306211e+01   1.4444754003e+00    0.2711493    0.2316297 -41.53  0.001048899    1.654    0.395
        16  -7.2544    198.6319    224.8239   9.9099945723e+01   1.8641156940e+00    0.1394793    0.1044934 -40.18 0.0004840744    1.702    0.412
        17  -7.1158    157.8145    182.9481   1.0051059718e+02   1.4262575343e+01     0.169347    0.1028362 -42.65  0.000349361    1.754    0.430
        18  -8.2027    138.9597    224.3316   1.1097750666e+02   9.8988183608e+00    0.1861703    0.1669876  43.24 0.0006167304    1.279    0.218
        19  -8.8556    232.9242    179.6525   8.5813437519e+01   3.5810906217e+00    0.2127676    0.1751847  20.77 0.0004145111    1.290    0.225
        20  -7.8730     96.6365    179.3614   1.1495463249e+02   2.4949080761e+01    0.2461704     0.223908  -0.43 0.0009457935    1.228    0.185
        21  -8.3250     85.9947    178.4713   1.1772016411e+02   2.6769728659e+01    0.2228506    0.1283801  33.29 0.0005293207    1.553    0.356
        22  -8.9670    101.0338    176.1545   1.1329653401e+02   2.4971992817e+01    0.2185318     0.201182  85.33            0    1.188    0.158
        23  -7.4603      4.1473    176.3692   1.4047552404e+02   3.6590173944e+01    0.1736354    0.1298793  49.23  0.000646873    1.139    0.122
        24  -9.0343    233.8566    174.6859   8.4785407251e+01   4.1351397575e+00     0.258797     0.179017  -9.76 0.0003953941    1.314    0.239
        25  -8.6703    234.0524    170.0353   8.3917113070e+01   4.7487799200e+00    0.1739338    0.1417765 -13.97 0.0002961696    1.046    0.044
        26  -7.5642    199.9901    235.2646   1.0037930870e+02   3.4481942481e-01    0.1616342    0.1209141   7.25 0.0009072679    1.009    0.009
        27  -9.6222     88.7769    170.1803   1.1576548990e+02   2.8259798529e+01    0.4175077    0.2749534  20.15  0.001942741    1.682    0.405
        28  -8.5408    154.9754    170.0148   9.8811914688e+01   1.7139168915e+01    0.2041989    0.1841329  11.03  0.001194043    1.023    0.023
        29  -8.7943     35.6180    168.9429   1.3108798050e+02   3.5559313538e+01    0.3360206    0.1744399  30.63  0.001012704    1.759    0.431
        30 -10.0282    202.0253    167.2425   8.8739066824e+01   9.8307406115e+00    0.2282029    0.2012893   0.77  0.000336929    1.059    0.056
        31  -7.1019     39.6296    173.7235   1.3033375106e+02   3.3959864910e+01    0.1314255    0.1034783 -24.51 0.0007007133    1.685    0.406
        32  -6.8490      2.3059    167.3232   1.4062575745e+02   3.8880119882e+01    0.1223101   0.09077061 -48.81  0.000523367    1.642    0.391
        33  -7.0158    192.2573    165.6865   9.0248721151e+01   1.1635332656e+01    0.1158044    0.1044474 -66.45 0.0001714522    1.530    0.346
        34  -7.6953     93.9966    164.9677   1.1349004773e+02   2.8651534077e+01    0.2268612    0.1768903 -15.24 0.0007525865    1.663    0.399
        35  -9.1839     93.5888    219.5439   1.2073688846e+02   1.7056140134e+01    0.2443967    0.2021784  12.45 0.0009288135    1.290    0.225
        36  -7.4226    113.4859    158.9975   1.0705931786e+02   2.6734582730e+01    0.2083707    0.1497854 -55.82 0.0005052015    1.508    0.337
        37  -7.6840    157.8190    158.1780   9.5891563265e+01   1.8903084172e+01    0.2052018    0.1875705  66.44 0.0006651988    1.313    0.238
        38  -7.2400     33.7308    158.6502   1.3074481848e+02   3.8322710414e+01    0.1903556    0.1112403  37.97 0.0004474669    1.538    0.350
        39  -6.9564     99.6385    156.7265   1.1050685128e+02   2.9649831609e+01    0.1499426    0.1166534  -3.60 0.0007003131    1.658    0.397
        40  -8.7699     87.7676    155.0129   1.1367019028e+02   3.2024710001e+01    0.2457387    0.2047199  28.29 0.0002297694    1.194    0.162
        41  -8.9929     88.9427    151.5086   1.1272527717e+02   3.2683555221e+01    0.3185001    0.2743164  15.87 0.0007900057    1.263    0.208
        42  -7.3703     39.8197    155.1311   1.2850291862e+02   3.8568173803e+01    0.1838735    0.1636503 -36.46 0.0004813649    1.333    0.250
        43  -7.4315    131.8688    151.1635   1.0070569301e+02   2.5120265254e+01    0.1924374    0.1689058  -1.46 0.0002624424    1.235    0.190
        44  -8.8452    221.8714    150.0701   8.2055825820e+01   9.3956192301e+00    0.1836695    0.1622332   1.31 0.0003274754    1.106    0.096
        45  -7.7849    207.6938    149.0979   8.4198608936e+01   1.1806945341e+01    0.2337641    0.1477021 -40.17  0.001257741    1.513    0.339
        46  -8.1845    149.8633    147.1395   9.5463184545e+01   2.2557685229e+01    0.2017693    0.1955988  54.44 0.0003456445    1.116    0.104
        47  -9.3207     68.6234    143.2868   1.1768098900e+02   3.7910588967e+01    0.6564256    0.3287267  58.69   0.00242393    2.546    0.607
        48  -8.2215    154.7999    142.6748   9.3368518515e+01   2.2505924176e+01     0.239833     0.191814 -28.21  0.000728477    1.303    0.232
        49  -7.0153      6.2883    142.2869   1.3820149130e+02   4.4831165913e+01     0.126734   0.09365464 -48.31            0    1.534    0.348
        50  -7.8432     11.2944    140.3762   1.3644056442e+02   4.4974903270e+01    0.2365345    0.1546777  38.25 0.0005639505    1.452    0.311
        51  -7.2678    249.0273    137.5329   7.5698344479e+01   7.1538930174e+00    0.1453416    0.1148356  36.81 0.0004742472    1.497    0.332
        52  -8.2225    101.9872    136.7875   1.0602510764e+02   3.3975761443e+01    0.2432244    0.2183745 -53.04 0.0003166902    1.168    0.144
        53  -7.0983    107.6809    132.2811   1.0338236379e+02   3.3981856979e+01      0.15712    0.1184784  68.55 0.0001956762    1.583    0.368
        54  -7.5578    242.2315    128.6470   7.4864801380e+01   9.3937754940e+00    0.1467822    0.1076012  29.84 0.0003143644    1.585    0.369
        55  -7.5313    178.0721    124.6580   8.4390383109e+01   2.1364322504e+01    0.1876566    0.1740737  30.78 0.0002209269    1.105    0.095
        56  -7.4419     15.2108    126.8714   1.3403176589e+02   4.8211826645e+01    0.1755093    0.1514441 -47.62 0.0004205168    1.266    0.210
        57  -7.8310    137.9810    107.0305   8.8950559192e+01   3.3318747087e+01    0.2464336    0.1902062  88.10   0.00110929    1.694    0.410
        58  -8.5631    164.8036    101.6236   8.1475737513e+01   2.8401555647e+01    0.2397182    0.2132514 -43.61   0.00034497    1.095    0.087
        59  -7.4527    127.3307     99.8792   8.9792839427e+01   3.7206582235e+01    0.2085678    0.1974111 -47.98 0.0003484417    1.080    0.074
        60  -9.6974    221.0104     95.3914   7.0699422285e+01   1.7852254570e+01    0.2507529    0.2060128 -37.32 0.0003217356    1.056    0.053
        61  -8.1551    225.4851     91.7620   6.9320458894e+01   1.7557403508e+01     0.194691     0.180921  63.67 0.0006035067    1.248    0.199
        62  -7.3200    216.5347     85.0050   6.8938533169e+01   2.0254853738e+01    0.1848369   0.08989081 -53.09 0.0005604022    2.275    0.560
        63  -7.1114    223.6617     84.6513   6.7966139631e+01   1.8933623909e+01    0.1266974   0.09740283   5.77 -8.387493e-05    1.787    0.441
        64  -8.5574    108.1023     81.0840   8.9790748329e+01   4.5575213680e+01    0.3393704    0.2633753  75.27   0.00117305    1.519    0.342
        65  -7.3535     16.7299     79.9895   1.2762554276e+02   6.0486738310e+01    0.1888271    0.1629632 -70.62 0.0004191908    1.081    0.075
        66  -6.8636    247.7089     78.3236   6.3960658148e+01   1.5468248581e+01    0.1234501   0.07510713 -54.73 0.0004278083    1.612    0.380
        67  -7.5194    165.4841     74.9992   7.4233657427e+01   3.2974737237e+01    0.2050146    0.1411832 -37.70 2.657364e-05    1.432    0.301
        68  -8.3166    139.8915     63.7863   7.6012835475e+01   4.1152725348e+01    0.3746865    0.2194745  35.61   0.00133471    2.314    0.568
        69 -10.3566    122.2102     59.7094   7.8821411478e+01   4.6302621772e+01    0.2728132    0.2535668 -47.54 0.0002302286    1.120    0.107
        70  -7.0809     85.6302     59.5203   8.9937466231e+01   5.5074439423e+01    0.1468047    0.1453026  70.39 0.0001126235    1.039    0.038
        71  -7.3416    133.6001     56.8767   7.5173283974e+01   4.3902168519e+01    0.2021541    0.1354407 -50.78 0.0002436956    1.552    0.356
        72  -7.5886    162.0421     56.0000   6.9408560356e+01   3.6860107030e+01    0.2387609    0.0804613  62.34  0.000802002    2.939    0.660
        73  -9.2472    218.2002     46.8207   5.9869242174e+01   2.5223015885e+01    0.3510455    0.2267023 -37.28   0.00104207    1.368    0.269
        74  -7.4748    191.9929     39.2564   6.0657237741e+01   3.1968361812e+01    0.1809823    0.1559204 -68.28  0.000227494    1.016    0.016
        75  -9.0866    181.7150     34.2297   6.0453717872e+01   3.5037187145e+01    0.4195892    0.2572665   5.80  0.001708272    3.320    0.699
        76  -7.4368    164.9970     28.7292   6.0875037981e+01   3.9844634442e+01    0.1903823    0.1597227  88.58  0.001086116    1.086    0.079
        77  -7.2305    211.6609     20.6507   5.4216987513e+01   2.9753158930e+01    0.1177256   0.09427426  34.89 0.0007045679    1.791    0.442
        78  -7.8063    125.0000    247.9066   1.1677525437e+02   7.9997458611e+00    0.2578525   0.07036565 -55.09  0.001034672    4.784    0.791
