#   1 NUMBER                 Running object number                                     
#   2 MAG_AUTO               Kron-like elliptical aperture magnitude                    [mag]
#   3 X_IMAGE                Object position along x                                    [pixel]
#   4 Y_IMAGE                Object position along y                                    [pixel]
#   5 X_WORLD                Barycenter position along world x axis                     [deg]
#   6 Y_WORLD                Barycenter position along world y axis                     [deg]
#   7 A_WORLD                Profile RMS along major axis (world units)                 [deg]
#   8 B_WORLD                Profile RMS along minor axis (world units)                 [deg]
#   9 THETA_WORLD            Position angle (CCW/world-x)                               [deg]
#  10 FWHM_WORLD             FWHM assuming a gaussian core                              [deg]
#  11 ELONGATION             A_IMAGE/B_IMAGE                                           
#  12 ELLIPTICITY            1 - B_IMAGE/A_IMAGE                                       
         1 -14.3905    199.5541     17.0690   6.5232338822e+01   3.2565148216e+01     2.846415     1.628584  30.91   0.01214106    2.555    0.609
         2 -12.7963      2.2797     13.8939   1.2434493413e+02   7.2302469088e+01     2.122019     0.195383 -56.18  0.005640496    8.875    0.887
         3 -13.4062     13.6911     11.3852   1.1694517297e+02   7.1969853165e+01     1.158284     0.765906 -39.81    0.0079337    1.263    0.208
         4 -12.3740    127.3165    244.7414   1.3088185651e+02   9.1740179043e+00    0.4141172    0.2016186  40.48  0.002223411    1.635    0.388
         5 -11.6077    247.8549    248.9759   1.0984898134e+02  -1.0284222478e+01    0.4043921    0.2317699  44.80  0.002465606    2.009    0.502
         6 -11.9288    139.9647    248.6344   1.2898842996e+02   6.5846608227e+00    0.3398053    0.2902437  78.39  0.002462477    1.379    0.275
         7 -10.8737    110.7142    249.3795   1.3439451847e+02   1.1023104137e+01    0.2420797    0.1606868  77.95  0.001438732    1.746    0.427
         8 -11.5580    106.1634    246.9595   1.3498449171e+02   1.2085940140e+01    0.3060219    0.1739347  44.30 0.0009713186    1.362    0.266
         9 -11.9993     98.5827    249.0178   1.3654006438e+02   1.2880530321e+01    0.4618862      0.21492  47.70  0.002142596    1.601    0.375
        10 -11.5471    100.9758    245.7003   1.3580562197e+02   1.3058538012e+01    0.2977508    0.1789133  54.58  0.001379615    1.310    0.237
        11 -11.8797     80.7205    248.3729   1.3965107540e+02   1.5519468514e+01    0.3904732    0.2199848  74.14   0.00238936    1.860    0.462
        12 -11.3435     41.3599    206.4895   1.4365290149e+02   2.8104632323e+01    0.3049979    0.2162814 -62.23 0.0002733067    1.665    0.399
        13 -14.8853     32.7065    247.3407   1.4771434810e+02   2.1686156458e+01       8.3906     2.847127  30.15   0.03290842    6.002    0.833
        14 -11.2374     75.5829    242.5179   1.4009434523e+02   1.7191876287e+01    0.2674747    0.1548285  74.57  0.001028465    1.730    0.422
        15 -11.7742    120.3669    239.0853   1.3155781697e+02   1.1155412668e+01    0.3638743    0.2286199  87.74  0.002030532    2.297    0.565
        16 -14.9068     50.0036    219.9283   1.4301372608e+02   2.4515787030e+01      1.93586     1.520634  79.05  0.009949552    1.121    0.108
        17 -11.5427    150.0373    229.3181   1.2470334949e+02   7.8311069423e+00    0.4748206    0.1364265  41.04   0.00184199    2.792    0.642
        18 -15.6214      2.7391    229.0061   1.5174200347e+02   2.7902866032e+01     11.31145    0.2111843 -74.58   0.03635868    8.643    0.884
        19  -9.3633     94.7426    216.8795   1.3409940569e+02   1.8962791537e+01    0.2298183    0.1195984  59.80 0.0006388713    1.882    0.469
        20  -8.7667    152.5441    213.0554   1.2191990014e+02   1.0010765115e+01    0.1585659    0.1329332 -50.68 0.0002911691    1.443    0.307
        21 -10.3911    193.1983    195.4472   1.1081171313e+02   5.3917894885e+00    0.7617875    0.3859359 -61.79  0.002015551    8.396    0.881
        22 -11.5168     68.0904    195.8945   1.3733411962e+02   2.6882265317e+01    0.3472704    0.2401558 -45.41   0.00136146    2.043    0.511
        23 -11.6721     73.1331    188.6449   1.3547551679e+02   2.7679564009e+01    0.2597421    0.2273486 -64.87 0.0005426881    1.326    0.246
        24  -9.3347    120.4761    188.1558   1.2497013480e+02   2.0270591384e+01    0.2646023    0.1696826  25.21  0.001130551    2.022    0.505
        25  -9.1478    126.3919    185.7468   1.2328426240e+02   1.9694851175e+01    0.3646027    0.1131553  36.36  0.001169155    3.608    0.723
        26 -10.9393     82.0396    176.4044   1.3198632980e+02   2.8986743440e+01    0.2343689    0.2050731  72.12 0.0003864762    1.025    0.024
        27 -13.2380     69.5671    173.9508   1.3454110149e+02   3.1298719859e+01    0.4765411    0.2775864 -44.74   0.00174462    2.338    0.572
        28  -9.7390    127.1823    174.1616   1.2119816015e+02   2.1881640341e+01    0.2071546     0.160653  67.35  0.001091856    1.355    0.262
        29 -12.3673     88.1491    166.9986   1.2923781297e+02   3.0104003747e+01     1.596681    0.5976897  53.42  0.003752767    3.175    0.685
        30 -12.9159     67.2989    144.4315   1.3103830363e+02   3.8235466473e+01     1.053536    0.6052795  86.21   0.00473169    2.304    0.566
        31 -12.4202     58.5660    133.1015   1.3159755625e+02   4.1992008840e+01     1.998768    0.6814585 -77.00  0.004560047    8.618    0.884
        32  -9.3388    103.7433    147.0707   1.2203822412e+02   3.1974234775e+01    0.2545152     0.189459  -9.23  0.001173885    2.164    0.538
        33 -11.9610     89.7236    150.5411   1.2624305585e+02   3.3534054725e+01    0.2737556    0.2496902 -41.02  0.000514216    1.277    0.217
        34  -9.6613    134.3589    147.8488   1.1450728157e+02   2.6011097594e+01    0.4168935    0.1424406 -55.25  0.001262733    3.796    0.737
        35 -10.8663     46.2876    147.9710   1.3691094404e+02   4.0007821936e+01    0.2884668    0.1702425 -47.12  0.001509591    1.992    0.498
        36  -8.7871    192.1915    144.2092   1.0054048723e+02   1.4314512339e+01    0.1902473    0.1769618 -85.73 0.0003781826    1.295    0.228
        37  -9.8287    111.3597    136.4319   1.1795422459e+02   3.2994918481e+01    0.3082676    0.2378588 -13.66   0.00127392    1.846    0.458
        38 -10.4550     98.9345    133.7779   1.2071383553e+02   3.5830371999e+01    0.2624317    0.2290844 -19.83 0.0006502241    1.400    0.286
        39 -10.8463     50.2682    129.9418   1.3337935317e+02   4.3713883968e+01    0.2537785     0.186516  46.21 0.0006183967    1.430    0.301
        40 -11.2978     43.9564    129.1222   1.3499101041e+02   4.4598123270e+01    0.3323055    0.1677346 -80.43  0.001543179    2.117    0.528
        41 -14.4187      9.7604    207.0698   1.4956686329e+02   3.1265197265e+01     2.550653      1.63187 -45.18   0.01393985    2.751    0.637
        42  -9.5423    108.0276    123.6507   1.1606764740e+02   3.6502013488e+01    0.2007846    0.1785598  43.87 0.0004209266    1.131    0.116
        43 -11.1603    168.2001    113.3748   9.8230392273e+01   2.5651344024e+01    0.3720682    0.3238506 -70.86 0.0007400725    1.328    0.247
        44  -9.9724    100.7800    151.1863   1.2354625788e+02   3.1561936008e+01    0.2889959    0.2694992 -34.40 0.0008374746    1.254    0.202
        45 -11.4069     43.6700    109.3315   1.3192614852e+02   4.9226750052e+01    0.2936022    0.2385609  32.29  0.001699025    1.411    0.291
        46 -13.7801     45.0265    229.7141   1.4459800617e+02   2.3323441819e+01     1.166383     0.303604  43.29  0.001736387    2.739    0.635
        47 -10.5978    163.2863    249.3894   1.2480880136e+02   2.7256590514e+00    0.2391151    0.1231263  46.56  0.001326373    1.566    0.361
        48 -11.4445     69.4899    235.3466   1.4061999100e+02   1.9240569975e+01    0.3336348    0.2011513  89.99  0.001668221    1.714    0.417
