#   1 NUMBER                 Running object number                                     
#   2 MAG_AUTO               Kron-like elliptical aperture magnitude                    [mag]
#   3 X_IMAGE                Object position along x                                    [pixel]
#   4 Y_IMAGE                Object position along y                                    [pixel]
#   5 X_WORLD                Barycenter position along world x axis                     [deg]
#   6 Y_WORLD                Barycenter position along world y axis                     [deg]
#   7 A_WORLD                Profile RMS along major axis (world units)                 [deg]
#   8 B_WORLD                Profile RMS along minor axis (world units)                 [deg]
#   9 THETA_WORLD            Position angle (CCW/world-x)                               [deg]
#  10 FWHM_WORLD             FWHM assuming a gaussian core                              [deg]
#  11 ELONGATION             A_IMAGE/B_IMAGE                                           
#  12 ELLIPTICITY            1 - B_IMAGE/A_IMAGE                                       
         1 -10.2470     24.4906     16.5905   1.0946288372e+02   6.8160959782e+01    0.3340657    0.3039229 -14.61 0.0007478023    1.476    0.323
         2  -9.0606     31.8184     10.3385   1.0370134020e+02   6.8219499323e+01    0.3671666    0.1797493 -17.65  0.001839644    2.135    0.532
         3 -10.0312      9.3064     19.7615   1.1739854593e+02   6.8974811027e+01    0.3472574    0.1855834   3.77 0.0005946463    1.996    0.499
         4  -9.6783     63.9360     14.3865   9.3146457084e+01   6.3423702339e+01    0.3756059    0.2053513  25.00 0.0007954626    1.806    0.446
         5  -9.1437     74.3025     13.9075   8.9531619678e+01   6.1777540892e+01     0.338111    0.2049967  17.90  0.001816022    1.684    0.406
         6  -8.8964     80.0402     12.6362   8.7248398515e+01   6.0907579240e+01    0.2666056    0.2260035  22.20  0.001143207    1.074    0.069
         7  -9.2497    233.0871     12.1324   6.0591711988e+01   2.5997641155e+01    0.2730872    0.1836575 -33.11  0.001099323    1.691    0.409
         8  -8.1462    134.8078     13.1514   7.4114996568e+01   4.9476672707e+01    0.1806888    0.1343911  35.07 0.0003510053    1.320    0.242
         9  -8.6593     89.5474     12.5943   8.4474017296e+01   5.9157355127e+01    0.2773555    0.1392255  34.38  0.001318505    1.880    0.468
        10  -8.1819    156.7358     10.2713   6.9395531041e+01   4.4560755918e+01    0.2543526    0.1478348 -46.83   0.00127362    1.989    0.497
        11  -8.9292     97.0774     11.8896   8.2171842874e+01   5.7761499389e+01    0.2664464    0.1814789  41.68 0.0006020818    1.256    0.204
        12 -10.6903     20.1152      8.8666   1.0815990038e+02   6.9612568766e+01    0.2756257    0.1666917   8.03 0.0004269578    1.543    0.352
        13  -6.9810     65.2982      9.3268   9.0578526345e+01   6.3753278236e+01    0.1235294   0.07550362  13.41 0.0002803784    1.633    0.388
        14  -8.0783      2.2366      8.2679   1.1622141391e+02   7.1138719514e+01    0.1743904     0.139708 -25.68  0.001449619    1.282    0.220
        15  -8.1785    128.4020      7.8008   7.3616958530e+01   5.1437606741e+01    0.1682809    0.1186559   5.03 0.0005878243    1.674    0.402
        16  -8.2653     76.0579      7.1993   8.6261621574e+01   6.2152232616e+01     0.287587    0.1345246  31.09  0.001434419    2.100    0.524
        17  -7.7687     39.7397      8.3787   9.9581802539e+01   6.7517820010e+01    0.1500934   0.08713259  21.84  0.000377007    1.587    0.370
        18  -7.6178    119.4310      6.8190   7.5102724924e+01   5.3528607595e+01    0.1634499    0.1148064   8.28  0.000929144    1.613    0.380
        19  -7.7694     84.3956      6.2958   8.3454718877e+01   6.0727798936e+01    0.1346035    0.0736478  27.23 0.0007004436    1.798    0.444
        20  -9.8310     49.0534      4.7036   9.4338585477e+01   6.6684725691e+01    0.2304319     0.156297   9.04 0.0003912153    1.254    0.203
        21  -9.0613    110.8936      4.5132   7.6137517798e+01   5.5575791945e+01    0.2458099    0.1855387 -37.14 0.0003910762    1.593    0.372
        22  -8.5589     68.6684      3.7085   8.7112655366e+01   6.3750317876e+01    0.2854953    0.1681065 -16.77  0.001714126    1.683    0.406
        23  -8.9169     56.8223      4.4858   9.1419179453e+01   6.5570107045e+01    0.3116337    0.1381149  28.72  0.001297647    2.261    0.558
        24  -8.6442     12.2112      4.7002   1.0997826912e+02   7.0860047959e+01    0.2397828    0.1524302  28.69   0.00173087    1.859    0.462
        25  -8.1179    125.2716      3.7475   7.2885304751e+01   5.2491299343e+01    0.1777907    0.1238752  38.08 0.0006949576    1.323    0.244
        26  -8.1986    153.7809      3.3704   6.7841028654e+01   4.5897865840e+01    0.1840516   0.09733776  56.69 0.0001915601    1.565    0.361
        27  -7.8272    182.2903      2.0498   6.3597672903e+01   3.9134688338e+01    0.1694103    0.1487887  89.69 0.0003036928    1.076    0.071
        28  -7.8728    143.1638      2.1686   6.9169657897e+01   4.8512295684e+01     0.165446    0.1387048 -88.79 0.0002584028    1.284    0.221
        29  -8.0255    105.3299      2.3004   7.6595090233e+01   5.6931536720e+01    0.1330596   0.07637691  33.03 0.0004162251    1.645    0.392
        30  -7.6869      3.1462      1.2920   1.1284036063e+02   7.2018637476e+01    0.1187983   0.07774161  18.87 0.0002866731    1.628    0.386
        31  -8.8658    247.4694    225.8255   1.0467434393e+02  -1.0850830442e+01    0.3325326    0.2394696 -22.97  0.002085859    1.352    0.261
        32  -8.2487    233.1038    248.3667   1.1111185695e+02  -1.1589524491e+01     0.255588    0.1263725 -30.55  0.001158885    2.237    0.553
        33  -9.0187    212.9777    250.1543   1.1504110596e+02  -8.6683850749e+00    0.2781942     0.187187  58.87  0.001474508    2.164    0.538
        34  -9.2047    209.5979    247.1859   1.1519302009e+02  -7.7200138731e+00    0.3159628    0.2120699  -5.37  0.001796462    1.878    0.467
        35  -9.5394    200.5266    249.1941   1.1718466257e+02  -6.5063320828e+00    0.3362213    0.2097828  20.55  0.001162926    1.755    0.430
        36  -8.9729    151.0078    249.4831   1.2651171035e+02   1.8659719006e+00    0.2475946    0.1848829  25.95 0.0008453024    1.523    0.343
        37  -7.5444    123.7753    250.4410   1.3171426250e+02   6.2974480707e+00    0.1726669    0.1043269  35.94 0.0009368706    1.709    0.415
        38  -8.2747    186.9341    226.6622   1.1617616462e+02  -7.4885159724e-01    0.2167268    0.1469622  27.49 0.0005914836    1.478    0.323
        39  -7.9060    110.7819    227.4139   1.3140084912e+02   1.2658379935e+01    0.1756438    0.1145598  37.63 0.0003832731    1.596    0.373
        40  -7.5800     93.2942    227.6839   1.3483990866e+02   1.5437761556e+01       0.1321   0.08240751  71.37 0.0005214525    1.602    0.376
        41  -8.0743    223.7007    225.4396   1.0892904084e+02  -6.9744767304e+00    0.2534332    0.1438835 -21.79  0.001256015    2.130    0.531
        42  -7.4436     70.3212    226.3208   1.3906507576e+02   1.9150189325e+01    0.1056997   0.09736996 -40.75 0.0004128794    1.671    0.402
        43  -7.3919    206.5372    222.4706   1.1165577482e+02  -3.5747691788e+00    0.1344026    0.1120099  18.26 0.0001307239    1.107    0.097
        44  -7.8860     51.4946    221.4707   1.4210516863e+02   2.2685677620e+01    0.1206626   0.09340133  77.74 0.0008098318    1.023    0.022
        45  -8.8989    239.7130    219.3953   1.0490086365e+02  -8.7362953875e+00    0.2508553    0.1839302 -13.90 0.0007396505    1.335    0.251
        46  -8.3284    226.0334    219.2096   1.0738097143e+02  -6.4475729527e+00    0.3555744    0.1948882 -11.75  0.001508619    2.951    0.661
        47  -8.3153    182.1374    219.9023   1.1599335581e+02   1.2531392868e+00    0.3065728    0.1716154  30.26  0.001013491    1.921    0.479
        48  -7.9604    130.7390    220.3739   1.2646310522e+02   1.0581904112e+01    0.1850325    0.1168933  36.82 0.0003659054    1.601    0.376
        49  -7.7795    173.5952    219.1951   1.1758473000e+02   2.9540980985e+00    0.1763127     0.128226 -29.51  0.000700678    1.680    0.405
        50  -7.3882     95.0006    218.4982   1.3342426391e+02   1.7008245539e+01    0.1968071   0.08621592  59.24 0.0008104666    2.544    0.607
        51  -7.5672    203.8083    216.3794   1.1110840950e+02  -2.1172384413e+00    0.1927597    0.1122643  31.83 0.0005729813    1.661    0.398
        52  -8.3238    193.8017    215.4084   1.1290039386e+02  -1.3306577139e-01    0.2598675    0.1812199  19.91  0.001151791    1.601    0.376
        53  -6.9658    219.6736    215.2915   1.0786401705e+02  -4.7600915419e+00    0.1207865     0.104558  69.81  0.000701721    1.619    0.382
        54  -9.1010    248.9968    212.7573   1.0200994969e+02  -9.2764039041e+00    0.3010791    0.2352719 -38.13  0.001871895    1.463    0.316
        55  -7.6340     84.0543    215.0000   1.3518971199e+02   1.9436077411e+01     0.200631    0.0662175  40.51 0.0004101309    2.862    0.651
        56  -7.8738    122.2215    212.8546   1.2712952529e+02   1.3575904070e+01    0.1728579    0.1594025  25.84 0.0004890615    1.330    0.248
        57  -8.2922    232.4824    211.9517   1.0485058109e+02  -6.4494604244e+00    0.2550678     0.162104  21.03  0.001338144    1.638    0.390
        58  -7.6251    143.3060    212.3052   1.2266780205e+02   9.8679641060e+00    0.1303287    0.1088253   7.20 0.0003339207    1.604    0.376
        59  -7.8635     54.2440    211.0085   1.4060932936e+02   2.4492521497e+01    0.1841354    0.1309282 -20.94 0.0008919045    3.538    0.717
        60  -7.6272    186.4493    210.4389   1.1348847338e+02   2.0898112976e+00    0.1385283    0.1222304  26.14 0.0008042855    1.071    0.066
        61  -7.7181    132.9824    209.7525   1.2442511997e+02   1.2269432872e+01    0.1857882    0.1074244  43.84 0.0008798791    1.569    0.363
        62  -7.8956    162.8016    208.1270   1.1792781915e+02   7.0036647448e+00    0.1911143    0.1609757  17.93 0.0006034903    1.346    0.257
        63  -9.8761    173.2585    205.1695   1.1524500496e+02   5.5556196920e+00    0.3031083    0.2283717  33.58 0.0002659653    1.285    0.222
        64  -7.6368    246.8772    205.1059   1.0094196554e+02  -7.8217533292e+00    0.1831911    0.1350629   8.52  0.001065864    1.326    0.246
        65  -8.1335    236.5972    204.5472   1.0269532139e+02  -6.0204027102e+00    0.2309152    0.1501865 -34.85 0.0006974253    1.548    0.354
        66  -7.8627    215.9575    205.5037   1.0675765669e+02  -2.5413267269e+00    0.2038123    0.1224341  37.18 0.0007464539    1.550    0.355
        67  -7.8776    117.7760    205.1593   1.2693646891e+02   1.5939475896e+01     0.177215    0.1650904  18.65 0.0005760279    1.362    0.266
        68  -7.9411    195.9631    200.4371   1.0973853278e+02   2.0505433463e+00    0.2210603    0.1275745  40.61  0.001028124    1.609    0.378
        69  -7.6599    184.6200    200.2145   1.1200315309e+02   4.2767791434e+00    0.1924881    0.1315417 -30.03 0.0006620908    1.708    0.414
        70  -7.4905    250.5249    198.9486   9.9108713845e+01  -7.5000654169e+00    0.1853975    0.1015354 -13.09 0.0008090822    2.510    0.602
        71  -7.5107     99.6359    199.2675   1.2994849472e+02   2.0299190511e+01    0.1439787   0.09191187  68.18 0.0006992343    1.651    0.394
        72  -8.2308    165.9271    197.5163   1.1540651242e+02   8.4391734264e+00    0.2651148    0.1940803  29.19 0.0009099421    1.464    0.317
        73  -7.8743    243.8503    197.2233   9.9961999387e+01  -6.1240377833e+00    0.1822538    0.1369977  -3.28 0.0004551191    1.332    0.249
        74  -8.3573    192.8609    194.7530   1.0928535670e+02   3.6745295281e+00    0.3683535    0.1927552 -30.94  0.001516559    2.411    0.585
        75  -8.4485    228.5955    200.1404   1.0333142328e+02  -3.9377174290e+00     0.253865    0.1550865 -20.88  0.001216407    1.873    0.466
        76  -7.6226      2.3265    194.3015   1.4895532095e+02   3.3666521191e+01    0.1013167   0.07274615 -59.70 0.0004149207    1.640    0.390
        77  -7.2670    209.6495    192.7024   1.0552055845e+02   7.9862854144e-01    0.1454885    0.1043515   9.49 0.0004964414    1.686    0.407
        78  -7.7959     90.0226    192.1715   1.3102673783e+02   2.3417045051e+01    0.1974776    0.1609964   6.04  0.000924807    1.953    0.488
        79  -7.5956    246.3521    190.2740   9.8144432064e+01  -5.4664255099e+00     0.135943   0.09376836   7.80 0.0004421392    1.638    0.390
        80  -7.6991    224.5398    189.4776   1.0199979780e+02  -1.4466609720e+00    0.1390329    0.1232154   5.04 0.0001667942    1.049    0.046
        81  -7.4959    186.3417    189.3151   1.0957421995e+02   5.9745958664e+00    0.1487571    0.1115709   7.70 0.0007047898    1.707    0.414
        82  -7.7108     65.0301    189.4855   1.3606461867e+02   2.7723759605e+01    0.1822263     0.119561  45.24  0.000553511    1.533    0.348
        83  -7.2344    149.2612    185.3703   1.1678748221e+02   1.4195409126e+01    0.1426716    0.1162303 -12.92 0.0004023703    1.652    0.395
        84  -7.6475    165.7892    182.4226   1.1260040275e+02   1.1484414485e+01    0.2151919    0.1353274  32.77 0.0009430957    1.737    0.424
        85  -7.6337    156.3468    181.2813   1.1445002448e+02   1.3636038420e+01    0.1467956    0.1173889   9.36 0.0007013222    1.642    0.391
        86  -7.7229     96.5394    178.4609   1.2752828317e+02   2.5450983678e+01    0.1390484      0.12676  87.26 5.745014e-05    1.054    0.051
        87  -7.1440    121.5154    177.4890   1.2162023066e+02   2.1268292096e+01    0.1454291     0.135243  76.29 0.0001097012    1.023    0.023
        88  -7.7651     46.5045    175.5257   1.3838691077e+02   3.3251760501e+01    0.1908257    0.1289766  18.06  0.001029995    2.315    0.568
        89  -7.9476    148.7492    174.6069   1.1485573804e+02   1.6594411660e+01    0.2827622       0.1401  39.08 0.0008460451    2.066    0.516
        90  -7.6779    150.5109    165.5536   1.1264090712e+02   1.8203265143e+01    0.1501646    0.1454847  50.86 0.0001914309    1.050    0.048
        91  -8.0559    168.7078    163.5807   1.0811685057e+02   1.4797628800e+01    0.3046291    0.1437586  39.83  0.001131892    2.189    0.543
        92  -7.7065    122.5876    162.6185   1.1860760521e+02   2.4443536595e+01    0.2800086     0.139138  28.38 0.0009518099    3.180    0.686
        93  -7.3509    188.3153    155.3272   1.0205546851e+02   1.2278870636e+01    0.1557804    0.1212311   3.12 0.0003508507    1.673    0.402
        94  -7.4192    196.3335    154.3323   1.0015667359e+02   1.0739528152e+01    0.1573706    0.1197795   4.60 0.0007052221    1.730    0.422
        95  -7.6933    205.3103    152.3330   9.7883623255e+01   9.1986351057e+00    0.1539555    0.1179975   2.43 0.0007043061    1.675    0.403
        96  -7.9435    133.1630    148.0808   1.1305885211e+02   2.5691919975e+01    0.2352132    0.2143488 -22.08  0.001221547    1.264    0.209
        97  -9.4162     67.2880    144.7704   1.2905699481e+02   3.7788531811e+01    0.4770416    0.3014991  71.39  0.002285867    1.986    0.497
        98  -9.7700    230.8629    135.3236   8.9199579943e+01   6.9815337302e+00    0.2675312    0.2503419  58.76 0.0004496055    1.155    0.134
        99  -7.0045    107.9578    137.0000   1.1700156840e+02   3.3145515373e+01    0.2345518   0.08521245  40.55 0.0006253816    2.859    0.650
       100  -7.8193    139.8035    137.8028   1.0913069606e+02   2.6648515295e+01    0.2583016    0.1762523  -3.91 0.0009460645    2.812    0.644
       101  -8.1893      4.2860    134.4099   1.4329157580e+02   4.6516783216e+01    0.1736963    0.1182847  10.35   0.00112561    2.143    0.533
       102  -7.9089     40.9984    129.4791   1.3334656693e+02   4.4519609848e+01    0.1663719    0.1292887  31.25 0.0004705196    1.547    0.353
       103  -8.2511     25.0126    129.4708   1.3752157942e+02   4.6035069552e+01    0.1594532    0.1252484  23.61  0.001007437    1.631    0.387
       104  -7.8619    132.7697    124.4441   1.0770403864e+02   3.1140663463e+01    0.2205609    0.1493593  32.17 0.0009483989    1.705    0.413
       105  -9.2511     13.8363    120.1799   1.3912133831e+02   4.9017685717e+01    0.4436253    0.1446726 -42.56  0.001733971    3.968    0.748
       106  -7.8438    118.8175    119.2258   1.1003396450e+02   3.5167685608e+01     0.244773    0.1235632  32.17 0.0008837939    2.548    0.607
       107  -7.8043     99.2571    119.5741   1.1539450190e+02   3.8748284150e+01    0.1995619    0.1438283  23.76 0.0009411479    1.704    0.413
       108  -9.2778    249.0266    116.5821   8.1952607567e+01   6.5697635002e+00    0.2664451    0.1903435 -37.36 0.0004130379    1.283    0.220
       109  -7.6617    142.4887    111.9851   1.0211108641e+02   3.1770792281e+01      0.22189    0.1384637 -20.72 0.0008095625    2.516    0.603
       110  -7.2337     84.2914    121.7192   1.2001781123e+02   4.0736142770e+01    0.1380469    0.1082941  83.01 0.0002496066    1.529    0.346
       111  -9.1912      2.8582    109.3742   1.4055269026e+02   5.2121867785e+01    0.3872236    0.1548028 -44.67  0.001963854    2.439    0.590
       112  -8.0089    133.6775    106.6371   1.0292340264e+02   3.4847869975e+01    0.2341098    0.1856372   0.33 0.0005008875    1.661    0.398
       113  -7.6104    124.3558    107.2858   1.0552127453e+02   3.6683641274e+01    0.1546507    0.1218722   3.39 0.0003568407    1.671    0.402
       114  -9.5611     13.9645    105.8598   1.3695877348e+02   5.2182372818e+01    0.3431149    0.1580887 -40.01  0.001456651    2.323    0.570
       115  -7.4467     66.6546    104.7131   1.2125276423e+02   4.7177170928e+01    0.1375335   0.09907264 -24.44 0.0007021349    1.650    0.394
       116  -7.7048     93.9760    103.4935   1.1293194240e+02   4.3281188201e+01    0.2139671    0.1444554  36.77  0.001029287    1.586    0.370
       117 -10.0655      8.7257     96.9157   1.3702542785e+02   5.4468041363e+01    0.5225849    0.2492653 -18.04  0.002503045    3.466    0.712
       118  -9.3739     20.0375     92.7397   1.3289086679e+02   5.4604627629e+01    0.5032183    0.1371009 -43.77  0.001940009    3.549    0.718
       119  -7.4656    129.3218     97.3596   1.0153257943e+02   3.7735689209e+01    0.1594747    0.1217596  -1.23 0.0007043582    1.772    0.436
       120  -7.5619     53.9808     93.3102   1.2244734988e+02   5.1275588306e+01    0.1988457   0.08566844  51.27   0.00070414    4.208    0.762
       121  -8.8424     44.7277     91.7466   1.2498582891e+02   5.2635923017e+01    0.3289568    0.2009358 -21.20   0.00166723    2.149    0.535
       122  -8.2348     96.5603     90.3344   1.0865642271e+02   4.5647185481e+01    0.3165036    0.2071054   2.03   0.00130704    2.534    0.605
       123  -7.7935    110.0006     90.6690   1.0489062401e+02   4.3077048860e+01    0.2417614    0.1182494  23.94 0.0007051887    4.358    0.771
       124  -8.4895     66.8839     86.1555   1.1658199706e+02   5.1170709058e+01    0.3633339    0.1923308  20.24  0.001590536    2.592    0.614
       125  -9.4956     36.2387     81.7994   1.2540505230e+02   5.5582483709e+01    0.5904512    0.2656859 -28.74  0.002453574    3.252    0.693
       126  -7.9129    126.0144     84.4824   9.8741346185e+01   4.1029517207e+01    0.2165514       0.1268  25.10 0.0008100523    2.522    0.603
       127  -8.6599     88.7011     78.8726   1.0771968931e+02   4.9327169313e+01    0.5541547    0.2110957  29.14  0.001732823    4.331    0.769
       128  -9.9490      8.2814     77.1454   1.3358905393e+02   5.8651079459e+01    0.5192642    0.1963265 -37.27  0.002262364    2.668    0.625
       129  -7.9293    184.4781     78.0253   8.3612430031e+01   2.8393472170e+01    0.2269616    0.1485573 -39.44 0.0004694964    1.542    0.352
       130  -8.8111     48.9230     77.0067   1.1999431823e+02   5.5274436050e+01    0.3102798    0.2192866 -24.81  0.001797025    1.444    0.307
       131  -7.9591     74.7019     74.7143   1.1087644980e+02   5.2373067047e+01    0.2312645    0.1579153  18.75 0.0006513286    1.686    0.407
       132  -8.6463     29.6965     68.6722   1.2439140159e+02   5.8833468589e+01    0.3022996    0.1799405 -19.79  0.001690436    1.940    0.485
       133  -9.4504     24.1890     72.8414   1.2732188660e+02   5.8448841171e+01    0.4614149    0.1830606 -40.18  0.002049255    2.276    0.561
       134  -8.2952     23.5058     69.4869   1.2675142061e+02   5.9174383287e+01    0.2224244    0.1626036 -31.25 0.0006827043    1.241    0.194
       135  -8.7587     62.0000     66.9993   1.1275492954e+02   5.5650614739e+01    0.3108929    0.1573407 -41.18  0.001214952    1.760    0.432
       136  -9.6689     65.5502     61.2655   1.0978129920e+02   5.6232374145e+01    0.4161183    0.2771899 -20.40 -1.585996e-05    1.583    0.368
       137  -7.5307    129.3568     69.3005   9.3327027279e+01   4.3105575463e+01    0.1541747    0.1127302  16.72 0.0004459973    1.709    0.415
       138  -8.3090     42.8896     68.0699   1.1962812196e+02   5.7703402659e+01    0.2440713    0.1405126 -34.66  0.001323141    1.601    0.375
       139  -7.1810    116.5030     68.4693   9.6460845341e+01   4.6015737006e+01    0.1447974    0.1354476   8.60 2.356562e-05    1.035    0.034
       140  -8.2377     80.4835     67.9999   1.0698949951e+02   5.2759474379e+01    0.2227119    0.1780762   9.00 0.0003392007    1.312    0.238
       141  -8.6314     84.0588     63.8000   1.0452813267e+02   5.2943353118e+01    0.3596039    0.2301948  10.83  0.001497044    2.098    0.523
       142  -7.7870    106.4896     67.4755   9.8945644200e+01   4.8216195343e+01    0.1436193      0.13068   1.89 0.0004836953    1.064    0.060
       143  -9.6292     17.8016     62.1492   1.2695231124e+02   6.1035113277e+01    0.3960488    0.1918766 -41.88   0.00155315    1.646    0.392
       144  -9.0010     51.3663     60.7164   1.1451300227e+02   5.8161427531e+01    0.3535732    0.2960376 -54.68  0.001628067    1.368    0.269
       145 -10.8005     38.3889     57.6479   1.1823576712e+02   6.0144383514e+01    0.4869478    0.2691078 -15.41 0.0005238344    2.366    0.577
       146  -9.7095    242.5154     60.5780   7.0237667057e+01   1.7305265620e+01    0.2679268    0.2373909  21.91  0.001119026    1.552    0.356
       147  -9.5454      3.0471     55.5441   1.3070427768e+02   6.3203045973e+01     0.476925    0.2379985 -45.48  0.002962406    1.465    0.317
       148 -10.0845      9.7685     47.7296   1.2616282844e+02   6.4271196915e+01    0.5130501    0.2554294 -22.67  0.001982029    2.152    0.535
       149  -9.1249      2.2464     45.7433   1.2855063674e+02   6.5062660092e+01    0.2627161    0.2095579 -17.92  0.001379701    1.252    0.201
       150  -7.2686    111.5176     58.4886   9.4650178573e+01   4.8746898806e+01    0.1416826    0.1301901  11.04  0.000810143    1.029    0.029
       151  -9.8850     17.2623     38.7970   1.2054598803e+02   6.5333842635e+01    0.4779965    0.1590316 -31.01  0.001979437    3.646    0.726
       152  -7.7604     99.2810     53.9854   9.6648675272e+01   5.1896689618e+01    0.1769991     0.117277 -34.33 0.0006087437    1.498    0.332
       153  -9.2391     74.8921     50.5828   1.0311331276e+02   5.6694237807e+01    0.3539951    0.2324019  -4.09  0.000416602    1.850    0.460
       154  -8.0331    118.4495     51.1591   9.0388666911e+01   4.8454282418e+01    0.2595025    0.1824191  67.72 0.0007980833    1.814    0.449
       155  -7.5137     81.3377     51.6829   1.0138642001e+02   5.5472187390e+01    0.1225441    0.1080319 -84.26 0.0003208984    1.702    0.412
       156 -10.2937     45.3882     49.0849   1.1298142168e+02   6.0933642295e+01    0.2578932     0.185929 -16.48 0.0005359386    1.287    0.223
       157  -7.5275     91.3625     49.2741   9.7418222690e+01   5.4115323796e+01    0.1393244   0.09633045  11.95   0.00070043    1.661    0.398
       158  -8.4147    106.8831     48.1608   9.2508727470e+01   5.1312745054e+01    0.1905292    0.1798165  36.87 -0.0006383859    1.128    0.113
       159  -9.9414     24.9342     46.9973   1.2006937609e+02   6.3303338882e+01    0.5680676    0.2507052   6.12  0.002569712    3.588    0.721
       160  -8.5458     31.6120     44.1658   1.1658758011e+02   6.3205350195e+01    0.1928915    0.1500284  -5.57 0.0004569894    1.218    0.179
       161  -8.7142     94.0222     42.5827   9.4284893526e+01   5.4635778538e+01    0.4450499    0.2179482  26.88  0.001797896    2.772    0.639
       162 -10.1714     83.1601     40.1242   9.6742842404e+01   5.6947070017e+01    0.2889651    0.2200641  -0.96  0.001696894    1.296    0.228
       163  -9.6055     38.7101     42.0397   1.1313839242e+02   6.2856473454e+01    0.3005013    0.1674851  12.36   0.00133371    2.092    0.522
       164  -8.7681     42.2931     44.0312   1.1245024094e+02   6.2138059127e+01    0.2498964    0.1640238 -19.84  0.001514495    1.429    0.300
       165  -7.7358    123.1789     40.9268   8.5809253212e+01   4.8900634430e+01    0.2249365      0.15045   7.70 0.0007606577    1.972    0.493
       166  -8.7122      3.5549     39.6059   1.2634556398e+02   6.6086629994e+01    0.2909563    0.0956945 -59.24  0.001127215    3.052    0.672
       167  -8.7000    106.3938     36.8803   8.8759215483e+01   5.3011775357e+01    0.3543117    0.2058582  23.89  0.001622158    2.116    0.527
       168  -9.8439    138.5895     36.0131   8.0666352985e+01   4.6038686201e+01    0.2427662    0.2298805  49.76 0.0003630908    1.045    0.043
       169  -9.4015     96.0553     33.1959   9.0335361254e+01   5.5544353360e+01    0.2381282    0.1961108  29.23 0.0003257383    1.096    0.088
       170  -9.4442     54.6571     36.7523   1.0525298481e+02   6.1802853389e+01    0.2554233    0.1804114   6.03 0.0007128398    1.389    0.280
       171  -9.2242     37.8964     35.4478   1.1114660024e+02   6.4010483380e+01    0.3193468    0.1933456  -0.77   0.00113539    1.846    0.458
       172  -8.8245     70.5255     35.6930   9.9256827526e+01   5.9667198503e+01    0.2641369    0.1343061  26.85  0.001264335    2.182    0.542
       173  -9.2622      7.6220     33.7380   1.2291067229e+02   6.6853921157e+01    0.3942661      0.20114 -34.90  0.002493956    1.523    0.343
       174  -8.5246     77.0325     34.0318   9.6476059445e+01   5.8849814088e+01     0.197153    0.1711391  -1.88 0.0008259484    1.058    0.054
       175  -8.4920     81.8040     32.2498   9.4281861464e+01   5.8279562144e+01    0.2496832    0.1759942   2.53 0.0002284042    1.472    0.321
       176  -8.7175     92.9034     36.5637   9.2471941598e+01   5.5693317748e+01     0.350136    0.1974229  26.78 0.0009998023    1.992    0.498
       177  -8.7338    127.8659     30.2369   8.1159109168e+01   4.9222514436e+01    0.2175039    0.1868393  -0.39 0.0002619737    1.239    0.193
       178  -8.4428    112.2971     29.9059   8.4774331848e+01   5.2673537954e+01    0.3802177    0.1797689  33.22  0.001581584    2.477    0.596
       179  -7.7725    104.5494     31.5106   8.7364518522e+01   5.4081332165e+01    0.1326223    0.1167584  22.18 0.0001967698    1.006    0.006
       180  -8.8630      1.4389     29.9881   1.2434553620e+02   6.7847425274e+01    0.2503265   0.08018132 -52.62  0.001199596    2.455    0.593
       181  -7.3001    153.2997     27.3237   7.5043318070e+01   4.3589036690e+01    0.1413746   0.09740277  32.82 0.0003401088    1.630    0.386
       182  -9.6973     71.4971     25.9871   9.5237736916e+01   6.0827626053e+01    0.3500984    0.1777445  38.35  0.001223563    1.860    0.462
       183  -8.9070     61.7219     27.0206   9.9003265552e+01   6.2205456085e+01    0.2063652    0.1449364  17.22 0.0005992372    1.322    0.243
       184  -8.7800     57.4857     25.3595   9.9870936636e+01   6.3039911136e+01    0.2631451    0.1849711  30.93   0.00085915    1.397    0.284
       185  -8.8171     48.0920     25.8111   1.0355103132e+02   6.4244437337e+01    0.2970405    0.1410209  24.45  0.001444436    2.289    0.563
       186  -8.1819     80.3559     23.3138   9.1342617437e+01   5.9663763921e+01    0.2243005    0.1164053 -21.66  0.001123925    2.025    0.506
       187  -8.9729     84.6790     21.7065   8.9399047543e+01   5.9081864243e+01    0.2812546    0.1957759  34.87 0.0008467038    1.280    0.219
       188  -8.9388     64.7154     22.8350   9.6303181140e+01   6.2297373688e+01    0.1987192    0.1672576  70.92  0.001233507    2.096    0.523
       189  -9.2674    224.3556    246.6323   1.1240373296e+02  -1.0012631905e+01    0.2906319    0.1577714 -44.29  0.001056494    2.378    0.579
       190  -9.7952    192.8213    244.4569   1.1789257833e+02  -4.5359359204e+00    0.2950603    0.2399909 -34.86  0.001630913    1.444    0.307
       191  -7.3747    130.7027     21.6942   7.7722182771e+01   4.9550317323e+01    0.1378086    0.0914057  31.13 0.0001839666    1.587    0.370
       192  -7.8336     74.7570    247.3802   1.4025097393e+02   1.4466690446e+01    0.1562335    0.1007753  38.98 0.0009421236    1.714    0.417
       193  -7.6672    116.8146     20.1820   8.0292606414e+01   5.2811099117e+01    0.1815683    0.1330766  31.11 0.0002369707    1.297    0.229
       194  -7.9596     45.6109     19.8154   1.0210441214e+02   6.5367679127e+01    0.2011073    0.1319765 -34.09  0.001285672    1.511    0.338
       195  -8.5802     92.2077     21.1548   8.6988996071e+01   5.7742560416e+01     0.312295    0.1910838  21.37  0.001559709    1.753    0.429
       196  -7.5720    101.6538     19.6740   8.3861604646e+01   5.6047967282e+01    0.1397566   0.08497959  24.90 -2.991975e-05    1.746    0.427
       197  -8.0326    127.8193     16.8848   7.6740512401e+01   5.0708708889e+01    0.2009131    0.1541855  37.54 0.0003364201    1.206    0.171
       198  -7.4616     31.8424    247.3930   1.4746447402e+02   2.0085502283e+01    0.1314485   0.09465314  42.80 0.0005585057    1.659    0.397
       199  -7.5126    207.2982     15.6841   6.4040018041e+01   3.1666262506e+01    0.1374761   0.08734775 -69.48 0.0002152106    1.610    0.379
       200  -7.7322     17.9470    247.7654   1.4967634851e+02   2.1600191134e+01     0.127245   0.07330476  48.00 0.0008739302    1.611    0.379
       201  -7.8832    218.4681    245.0396   1.1321785673e+02  -8.8655172563e+00    0.1675552    0.1163305 -26.99  0.001020716    1.591    0.371
       202  -8.6496     50.3924     14.9865   9.8272267517e+01   6.5343060564e+01    0.2134018    0.1416356  20.37 0.0005887694    1.351    0.260
       203  -8.1430    146.7950     14.2190   7.2237729178e+01   4.6559676120e+01    0.1844966    0.1609846  69.62 0.0003230057    1.087    0.080
       204  -7.9458    120.7729     14.2421   7.7355748520e+01   5.2548132138e+01    0.2267672   0.07395495  49.14 0.0008984632    2.486    0.598
       205  -9.3750    157.1818    244.8673   1.2471701398e+02   1.5511735311e+00    0.2317193    0.1671634  34.70 0.0008381611    1.304    0.233
       206  -8.4595    243.3222    244.1160   1.0858978933e+02  -1.2595765311e+01    0.1872941     0.127123  -4.36 0.0009391679    1.481    0.325
       207  -8.1445    233.8688    243.4528   1.1016211468e+02  -1.1080857938e+01    0.1972011    0.1415316   6.81 0.0005736729    1.332    0.249
       208  -7.7813     43.0097    244.1995   1.4542150168e+02   1.9323638096e+01     0.143658   0.07397645  45.59 0.0008607353    1.754    0.430
       209  -8.5019     95.9808    243.4809   1.3606248909e+02   1.2007911312e+01    0.1865191    0.1013931  46.60 0.0005156384    1.552    0.356
       210  -7.9284    106.0020     10.5031   7.9421142068e+01   5.6076328211e+01    0.1913243    0.1097853  53.14 0.0004888931    1.535    0.349
       211  -7.7239    202.6135    240.1868   1.1537584049e+02  -5.5719470832e+00    0.1630888    0.1150171 -21.52 0.0009435604    1.665    0.399
       212  -8.8886    250.2032    244.3619   1.0742366916e+02  -1.3635624207e+01    0.2638135    0.1227147 -18.86  0.001253974    2.807    0.644
       213  -9.0505    242.2858    237.0182   1.0756484951e+02  -1.1537906147e+01    0.3555454    0.2053931 -12.58  0.001903437    2.060    0.515
       214  -8.5932    122.1973    239.0296   1.3063618669e+02   8.5684626727e+00    0.2315522    0.1511471  34.83  0.001269895    1.650    0.394
       215  -7.7462    249.8035    238.3891   1.0647323017e+02  -1.2838753894e+01     0.167979   0.09302656  26.87 0.0009364894    1.627    0.386
       216  -7.3943     79.4997    238.5189   1.3857224448e+02   1.5436196032e+01    0.1213936    0.0974104  69.09 5.012858e-06    1.058    0.054
       217  -7.5370    231.0191    237.0160   1.0959086877e+02  -9.7884044987e+00    0.1464201    0.1220639  10.02            0    1.053    0.050
       218  -7.3533    148.2659    237.3852   1.2538953865e+02   4.3635765017e+00     0.121034   0.09978464   0.76 0.0006984699    1.695    0.410
       219  -7.9448    195.6443    235.9783   1.1601670426e+02  -3.7541923828e+00    0.1734903    0.1553827  15.73 0.0004572481    1.102    0.092
       220  -9.7410    188.7707    234.5952   1.1711128710e+02  -2.3424266589e+00    0.3292602    0.2539379  55.92   0.00109434    1.416    0.294
       221  -8.2530    161.9968    234.3839   1.2227942100e+02   2.4441894478e+00    0.2143946    0.1818867  -9.79 0.0006723159    1.505    0.335
       222  -9.0310    170.1086    240.0290   1.2154571914e+02   7.6946652054e-02    0.2633849    0.1784289  11.02   0.00117273    2.207    0.547
       223  -8.2694    248.6697    233.0713   1.0574750370e+02  -1.1991389195e+01    0.1681144    0.1320426  -4.46  0.000504922    1.137    0.121
       224  -8.3343    237.0519    229.5289   1.0719958128e+02  -9.7271304551e+00    0.1808348    0.1488335 -11.11 0.0003919939    1.174    0.148
       225  -7.3142    204.5340    230.5668   1.1342798425e+02  -4.4721476641e+00    0.1300032    0.1096029  26.38 7.766763e-05    1.012    0.012
       226  -7.8225    195.4143    228.7910   1.1488049111e+02  -2.6026461181e+00    0.1697388      0.12117 -22.59 0.0009375904    1.665    0.399
       227  -7.5477    100.6868    229.6423   1.3363906133e+02   1.3879815418e+01    0.1142872      0.10281 -13.63 0.0007043667    1.743    0.426
       228  -7.8846    229.5313    227.4811   1.0821035768e+02  -8.2320385126e+00    0.2512658    0.1198731 -36.21  0.001228777    2.236    0.553
