#   1 NUMBER                 Running object number                                     
#   2 MAG_AUTO               Kron-like elliptical aperture magnitude                    [mag]
#   3 X_IMAGE                Object position along x                                    [pixel]
#   4 Y_IMAGE                Object position along y                                    [pixel]
#   5 X_WORLD                Barycenter position along world x axis                     [deg]
#   6 Y_WORLD                Barycenter position along world y axis                     [deg]
#   7 A_WORLD                Profile RMS along major axis (world units)                 [deg]
#   8 B_WORLD                Profile RMS along minor axis (world units)                 [deg]
#   9 THETA_WORLD            Position angle (CCW/world-x)                               [deg]
#  10 FWHM_WORLD             FWHM assuming a gaussian core                              [deg]
#  11 ELONGATION             A_IMAGE/B_IMAGE                                           
#  12 ELLIPTICITY            1 - B_IMAGE/A_IMAGE                                       
         1 -15.4049    175.6343     41.3354   3.9454439505e+01   3.6598041567e+01    0.9830074    0.8498197  77.61  0.003685955    1.067    0.063
         2 -13.4238    189.5324     14.9809   3.0864271048e+01   3.6472826653e+01    0.2664458    0.2271592 -51.46  0.001053921    1.220    0.181
         3 -14.9465    201.4288      6.1007   2.7565031821e+01   3.4688067487e+01    0.6638829     0.425434  25.89  0.003428017    2.833    0.647
         4 -11.0238    143.4418      9.2239   3.5415518358e+01   4.7855203260e+01    0.1610996      0.11532 -45.31 0.0006275109    1.562    0.360
         5 -10.3796    132.3344      4.7445   3.5840297026e+01   5.0838296294e+01    0.1229519   0.08989321 -82.13 0.0002828314    1.567    0.362
         6 -11.8595    236.7752    181.4304   6.1601976639e+01  -3.4525676125e-01    0.2415119    0.1614524 -35.15 0.0005655386    1.329    0.248
         7 -13.3113    167.6178    212.8801   8.1377615911e+01   5.3165889520e+00    0.4451874    0.2890532  31.34 0.0006982316    1.441    0.306
         8 -15.6786    186.4162    244.1235   8.2551458509e+01  -3.0324694612e+00     2.423419      1.66636  31.25   0.01446082    1.268    0.211
         9 -15.3580    173.8154    222.3643   8.1652108973e+01   2.5552569748e+00    0.7764416    0.7031823   4.34  0.004310472    1.055    0.052
        10 -15.3099    179.8606    216.0937   7.9314482210e+01   2.7039418092e+00    0.8731121    0.6593986  66.59  0.004503771    2.055    0.513
        11 -20.6198     78.9106    168.5035   9.5346763207e+01   2.9954149603e+01     14.28992     6.776478 -62.81   0.05894155    2.042    0.510
        12 -10.5685     29.2708    171.9508   1.0863175807e+02   3.5089897052e+01    0.1691982    0.1364625 -76.07 0.0003716348    1.090    0.083
        13 -12.3167    211.0232    198.6369   6.9763432160e+01   7.5730997370e-01    0.2616897     0.222759  13.86 0.0005560528    1.106    0.096
        14 -11.5493     24.6776    164.3347   1.0898656180e+02   3.7373363290e+01    0.2216582     0.132937 -72.18 0.0004642498    1.410    0.291
        15 -14.4396    235.1335    160.3841   5.7652799749e+01   3.5638338251e+00    0.8741745    0.5327172  44.34    0.0044558    1.881    0.468
        16 -10.4827     34.6964    238.1809   1.1302749847e+02   1.9642322772e+01    0.1125405    0.0645039  55.34 0.0001979366    1.445    0.308
        17 -10.6709     16.4715    156.4816   1.1026995926e+02   3.9989050125e+01    0.1285397    0.1054162 -75.67 0.0004608383    1.052    0.050
        18 -11.6322    227.3032    152.8690   5.7456956625e+01   6.2554473580e+00    0.2855707    0.1096226 -45.79  0.001059602    2.552    0.608
        19 -11.2026    163.4955    153.0847   7.0581128852e+01   1.8457226906e+01    0.2308944    0.1491511 -46.51 0.0005301434    1.529    0.346
        20 -11.9797     27.9615    145.4321   1.0592652516e+02   4.1742750013e+01    0.3287751    0.2170375 -79.13  0.001788453    1.359    0.264
        21 -10.4569      5.9818    139.3822   1.1128710183e+02   4.4908914750e+01    0.1330924    0.1047368 -42.35 0.0003811174    1.396    0.284
        22 -12.2755    241.9624    135.2317   5.1273282958e+01   6.8307603321e+00    0.2390018    0.1708666 -39.30 0.0003686184    1.201    0.167
        23 -10.5312     11.6442    233.3147   1.1707878662e+02   2.3032744394e+01    0.1255744   0.06071297  62.60 0.0007044931    1.742    0.426
        24 -10.3040     11.2888    135.2496   1.0936342575e+02   4.5562815751e+01    0.1209593   0.08175469 -46.97 0.0006851668    1.475    0.322
        25 -10.4884    223.9824    133.0052   5.3756709800e+01   1.0505689421e+01    0.1688947    0.1457633 -36.53 0.0009569772    1.032    0.031
        26 -12.4593    160.5846    128.1112   6.5443855673e+01   2.4509486537e+01    0.3804815    0.2961058 -52.82  0.001549909    1.312    0.238
        27 -12.0728    177.5960    121.8930   6.0101496496e+01   2.2154684514e+01    0.3317604    0.2491571 -64.08  0.001543229    1.559    0.359
        28 -12.9580    151.7708    120.6153   6.5692961703e+01   2.8027471573e+01    0.5571038    0.3524405 -17.41  0.002079841    2.510    0.602
        29 -13.2645    156.0721    222.8755   8.5531573736e+01   5.3377115171e+00    0.6660465    0.4336221 -24.99  0.002449064    1.951    0.487
        30 -10.8710      3.9561    224.0507   1.1801521934e+02   2.5653488684e+01    0.1279818   0.09707285  65.83 0.0005789591    1.101    0.092
        31 -12.1960     39.2603    115.5727   9.7910797000e+01   4.8111073318e+01    0.3098154    0.2296461 -20.22  0.001041331    1.565    0.361
        32 -12.1111     32.3944    222.3308   1.1235295087e+02   2.3193335915e+01    0.3078106    0.1995273  58.83  0.001278986    1.319    0.242
        33 -12.1728    167.3470    112.3794   5.9971228282e+01   2.6350489085e+01    0.4086393    0.3037547 -74.89 0.0009638119    1.782    0.439
        34 -11.7523     29.8894    218.6823   1.1259247924e+02   2.4246948786e+01    0.2488422    0.2035406  13.79 0.0009587565    1.726    0.421
        35 -14.7978    163.8498    219.7473   8.3345302454e+01   4.6512968102e+00    0.6931157     0.584933 -70.07   0.00400501    1.550    0.355
        36 -12.3294     24.2749    105.3174   1.0102812808e+02   5.1914024146e+01    0.3601024      0.24168 -70.72  0.001658143    1.371    0.271
        37 -12.7262    206.8944    213.2076   7.3273881727e+01  -1.0935786200e+00    0.2799653    0.1724712 -32.39  0.001015086    1.588    0.370
        38 -11.9218    152.3800    210.6759   8.4356278423e+01   8.3044193839e+00     0.430443     0.213524 -60.33  0.001715696    2.828    0.646
        39 -11.9609    147.1290    210.5335   8.5508532400e+01   9.2189631808e+00     0.336618    0.2043683 -58.78  0.001208726    1.970    0.492
        40 -13.3443    185.3827    206.7703   7.6501363764e+01   3.4945413085e+00    0.3905207     0.267613 -56.51  0.001522551    1.889    0.470
        41 -11.3728    177.2767     92.0557   5.2635592220e+01   2.8080089566e+01    0.2548647    0.2141787  74.91 0.0004351982    1.283    0.220
        42  -9.7593     20.4404    204.3696   1.1349853103e+02   2.8360007495e+01    0.1602078    0.1090563  67.13 0.0002120704    1.272    0.214
        43 -12.6921     27.1004     88.6574   9.6771996828e+01   5.5609376502e+01    0.2781982    0.2041173 -17.04 0.0005322114    1.456    0.313
        44 -12.6747     11.4507    206.0307   1.1548703198e+02   2.8834077439e+01    0.4355541     0.279806  20.52  0.002628213    2.086    0.521
        45 -11.2191     16.3101    205.9704   1.1447919563e+02   2.8397920114e+01    0.2752886   0.09696219 -88.68  0.001114045    3.152    0.683
        46 -14.2818      5.0144     84.7037   1.0416010013e+02   5.7951530711e+01    0.9564595    0.5115954 -50.80  0.005355544    1.447    0.309
        47 -14.9527      6.7303     74.2826   1.0152799600e+02   6.0194103554e+01     1.046294    0.3811713 -52.51   0.00394507    1.954    0.488
        48 -11.7758    185.5206     85.4632   4.9353590957e+01   2.7386562454e+01    0.2907294    0.2600645  11.83 0.0008528747    1.340    0.254
        49 -11.2235    148.0029    230.2807   8.8412594760e+01   5.2584231166e+00    0.3250825     0.172189 -38.84  0.001513812    2.251    0.556
        50 -13.6259    192.5731    194.5856   7.2724603375e+01   4.5462948567e+00     1.011691    0.5253179 -62.75  0.003193208    4.953    0.798
        51 -14.4591    150.3782     75.6782   5.3865059812e+01   3.7297806682e+01      1.40762    0.6702885  38.21  0.004187237    2.625    0.619
        52 -15.2304    162.3492     62.6340   4.7638842430e+01   3.6664786093e+01     1.052181    0.9892863   9.37  0.003650825    1.196    0.164
        53 -14.3784    167.3841     56.1231   4.4872526316e+01   3.6472373422e+01     0.645094    0.5994643 -16.42 0.0007581231    1.216    0.178
        54 -12.7683     41.1380     76.7984   8.8568101192e+01   5.6965954846e+01    0.2244415    0.1998387 -48.67 0.0003381885    1.152    0.132
        55 -12.5393    205.9927    196.7810   7.0406725403e+01   1.9002477119e+00    0.2463903    0.1881766 -33.02 0.0007064284    1.257    0.204
        56 -12.3869    178.3043    194.6996   7.5779219113e+01   6.9904449090e+00    0.3764729    0.2427075 -49.12 0.0005935811    1.678    0.404
        57 -11.4847    181.5778    195.5453   7.5232914231e+01   6.2562652306e+00     0.234726     0.220339  33.26 0.0005169204    1.155    0.134
        58 -12.5419    181.4051    192.2495   7.4643052373e+01   6.9255991134e+00    0.4670908    0.3080572  52.79   0.00220144    1.874    0.466
        59 -13.6613     13.3971     59.9662   9.5486253220e+01   6.2871090510e+01    0.2697673    0.2596127  59.07  0.001205104    1.400    0.286
        60 -11.7286    124.4984     60.0606   5.5369792900e+01   4.5889501348e+01    0.2652991    0.2037164  52.98 0.0003823047    1.276    0.216
        61 -11.5219    237.4025    188.6171   6.2891615950e+01  -1.6452601264e+00    0.2299662    0.1770432 -32.45 0.0006327862    1.197    0.164
        62 -11.9482    163.5301    183.6287   7.6938106649e+01   1.1879338156e+01    0.2705384    0.2561445 -88.35 0.0005626195    1.232    0.189
        63 -11.3445     25.5005    181.9513   1.1051928185e+02   3.3050355814e+01    0.3223331    0.1503035 -60.83  0.001578172    1.949    0.487
        64 -13.5649      8.0616     51.9912   9.5739561663e+01   6.4818035365e+01     0.376735    0.2122869  -9.32 0.0009256903    1.889    0.471
        65 -12.7073     12.6992     49.6848   9.2984622340e+01   6.4989587768e+01    0.2007417    0.1675363 -15.97 0.0003800104    1.155    0.134
        66 -10.8810     47.7878    249.3470   1.1131335209e+02   1.5918005066e+01    0.1316848   0.09619416  42.13 0.0003259615    1.306    0.234
        67 -10.7398    112.9417     41.7422   5.2322200420e+01   5.1210851322e+01    0.1891739    0.1632789  46.93 0.0002685977    1.091    0.084
        68 -12.9503    183.0749     23.5040   3.3753133249e+01   3.7035933680e+01    0.3239786    0.1919833 -78.10  0.001143615    1.948    0.487
        69 -11.0607    221.5190    248.0466   7.6392194792e+01  -8.5178082825e+00    0.1637428    0.1070693 -29.73 0.0004788111    1.521    0.343
        70 -12.4418     38.8134    243.9914   1.1263932942e+02   1.8015307108e+01    0.3266023    0.1423374  57.06  0.001700207    2.022    0.505
        71 -11.0181     97.3165    242.9364   1.0084630797e+02   1.0613643823e+01    0.1482079    0.1329119  -2.87 0.0005316886    1.440    0.305
