#   1 NUMBER                 Running object number                                     
#   2 MAG_AUTO               Kron-like elliptical aperture magnitude                    [mag]
#   3 X_IMAGE                Object position along x                                    [pixel]
#   4 Y_IMAGE                Object position along y                                    [pixel]
#   5 X_WORLD                Barycenter position along world x axis                     [deg]
#   6 Y_WORLD                Barycenter position along world y axis                     [deg]
#   7 A_WORLD                Profile RMS along major axis (world units)                 [deg]
#   8 B_WORLD                Profile RMS along minor axis (world units)                 [deg]
#   9 THETA_WORLD            Position angle (CCW/world-x)                               [deg]
#  10 FWHM_WORLD             FWHM assuming a gaussian core                              [deg]
#  11 ELONGATION             A_IMAGE/B_IMAGE                                           
#  12 ELLIPTICITY            1 - B_IMAGE/A_IMAGE                                       
         1 -11.2455     23.8786     58.3226   9.7800025489e+01   6.2961308386e+01    0.9777998    0.5354168 -44.49  0.004123898    1.486    0.327
         2 -10.8264    143.9903     31.3644   4.8635597912e+01   4.5228906664e+01     1.144622    0.6626967 -13.87  0.005125174    2.345    0.574
         3 -10.1738     40.2622     17.3348   7.4160987008e+01   6.8256599010e+01    0.8648961    0.3481756  20.90   0.00310232    4.440    0.775
         4 -11.6660    105.5882     21.2265   5.3324130285e+01   5.5488610988e+01    0.4752274    0.3554542  54.39 0.0004474264    1.216    0.177
         5 -12.5372    107.6144     29.0702   5.5759792216e+01   5.4136727813e+01     0.487405    0.4211114  27.34  0.002906088    1.106    0.096
         6 -11.2445     35.0405     29.0396   8.1972237708e+01   6.7232455975e+01    0.5526705    0.4185761   9.74  0.002298009    1.204    0.170
         7 -10.7127     26.6920     21.4064   8.2715982775e+01   6.9397010507e+01    0.3544225    0.2290687 -19.74  0.001844347    1.348    0.258
         8 -11.6209     18.9330     27.8809   8.9556209616e+01   6.9146889376e+01    0.5508074    0.3041582 -42.89 0.0008307408    1.584    0.369
         9 -10.6100    172.9574     23.1185   4.1620835545e+01   3.9064349870e+01    0.5813442    0.3365061  57.71  0.002184542    1.614    0.381
        10 -11.7537    166.0303     17.7234   4.1049119930e+01   4.1346399374e+01    0.6511142    0.4174248  16.53   0.00310827    2.488    0.598
        11 -10.5981    182.6637     17.6212   3.8930133437e+01   3.7317637573e+01    0.5501262    0.3678246  23.61  0.001382266    2.348    0.574
        12 -11.1518    175.9079     11.5273   3.8110465749e+01   3.9581743744e+01    0.5938805    0.3989893  61.35  0.001939937    1.384    0.277
        13 -11.7367      1.9808     24.9663   9.7602351111e+01   7.0941746330e+01    0.2813524     0.153674 -53.13   0.00060474    1.694    0.410
        14  -9.6710    149.4071     21.4913   4.4620141111e+01   4.5025403616e+01    0.3899166    0.2183659 -16.41  0.001808016    2.314    0.568
        15 -12.1867    117.0615     22.1969   5.0999948284e+01   5.2747222417e+01    0.3202483    0.2509995  42.33 0.0005309667    1.173    0.147
        16  -9.9655     62.1028     23.1649   6.7644738684e+01   6.4053282487e+01    0.9465234     0.542815  36.69  0.005071524    1.595    0.373
        17  -9.9378     67.1669     15.8604   6.2485191191e+01   6.4022233994e+01    0.3003342    0.2347289  57.18  0.001041118    1.567    0.362
        18 -10.1500     61.5500     17.4698   6.5277573711e+01   6.4851908777e+01    0.3104581     0.205979  32.35  0.001112784    1.331    0.249
        19 -10.1470     62.6263     14.3095   6.3416607468e+01   6.5022939809e+01     0.243864    0.2025458 -50.44 0.0008232932    1.757    0.431
        20 -11.2476    217.5796     18.5955   3.5583653457e+01   2.9081039394e+01    0.6219086    0.3393975 -84.10  0.002109655    1.877    0.467
        21 -10.0821    211.0111     15.0528   3.5372000440e+01   3.0959747992e+01    0.2951904    0.1751889 -63.72 0.0006552542    1.578    0.366
        22 -11.4972      7.1262     15.9750   9.0973804445e+01   7.2104152166e+01     0.516457    0.3644279  -3.75  0.002145307    1.236    0.191
        23 -10.3791     13.7812     11.1920   8.4875472183e+01   7.2260290592e+01    0.2373574    0.1689181 -17.56 0.0006284452    1.084    0.078
        24 -10.2477     16.7849      8.0372   8.1572535539e+01   7.2406063278e+01    0.2986815    0.1898143 -39.88 0.0003337856    1.699    0.411
        25 -11.6343     15.4167      3.6667   8.0050664809e+01   7.3135924832e+01    0.4627684    0.2324834   9.78 0.0005223919    2.215    0.548
        26 -11.6213     24.9325      6.9486   7.6533064481e+01   7.1624952295e+01    0.2500439    0.1821621 -29.58 0.0002911935    1.426    0.299
        27 -11.3554     20.9165      6.5014   7.8464666324e+01   7.2157901818e+01     0.352567    0.1828314 -30.52 0.0005985666    1.722    0.419
        28 -10.0351    198.3111     17.6362   3.7214328011e+01   3.3599831745e+01    0.5136179    0.2698568 -58.73  0.001758967    1.919    0.479
        29 -10.7851    192.3784      8.2693   3.5518558284e+01   3.5984408986e+01    0.5259166    0.3850552 -70.71  0.001535417    1.244    0.196
        30 -10.6479    195.2752      3.7627   3.4151031761e+01   3.5754032426e+01    0.5180595    0.2727871  70.15  0.002177102    1.666    0.400
        31 -10.1039    230.3863     14.7882   3.3674019340e+01   2.6713546730e+01    0.3816829      0.22058 -71.55  0.001585821    1.598    0.374
        32 -10.3741     16.6653     17.6970   8.6346250211e+01   7.1007515227e+01    0.4503714    0.1860675  16.51  0.001527184    2.799    0.643
        33  -9.3596    111.1055     16.4308   5.0230166762e+01   5.4726423438e+01    0.4404126    0.2307106  29.95  0.001255305    2.333    0.571
        34 -10.2886    117.0044     15.2309   4.8513999298e+01   5.3474018433e+01    0.3454611    0.2222286  41.58  0.000710323    1.465    0.317
        35 -10.4639    243.7786     13.5406   3.2417898558e+01   2.4048974923e+01    0.2620602    0.1670215  53.47  0.001266822    2.057    0.514
        36  -9.7149    127.9914      8.5889   4.4089457008e+01   5.1484346186e+01    0.3710519    0.2678423  70.54  0.001866558    1.266    0.210
        37 -10.2303     98.8912     13.2034   5.1883184330e+01   5.7800678816e+01    0.3570146    0.2568322  85.65  0.001917631    1.892    0.471
        38  -9.5957     98.1230      7.3024   4.9738576157e+01   5.8506141872e+01    0.2993318    0.1767607  -5.53 0.0009929801    2.040    0.510
        39  -9.7911     32.5950     12.6443   7.5533133104e+01   6.9920157354e+01    0.2103008    0.1847046 -13.93  0.001045795    1.336    0.252
        40  -9.2740    219.3494     12.3280   3.4033483953e+01   2.9393071002e+01    0.2665889    0.1548013 -55.42  0.001500173    1.522    0.343
        41 -10.6270    145.7572     12.5721   4.2451141469e+01   4.6824358371e+01    0.4859631    0.3044336  74.04  0.002038738    1.477    0.323
        42  -8.8060    152.9100     12.4654   4.1353192853e+01   4.5087844750e+01     0.476705     0.212468 -88.65  0.001660384    3.788    0.736
        43 -10.0846    133.0950     12.7069   4.4569234176e+01   4.9884909292e+01    0.2029947    0.1925361 -31.88 0.0003217295    1.196    0.164
        44  -9.9865     89.7922     11.4881   5.3548408811e+01   5.9942543399e+01    0.5124528    0.2947123   1.00  0.001970337    2.207    0.547
        45  -9.4145     88.5224      6.4588   5.1797436547e+01   6.0668230530e+01    0.2863483    0.1306263  53.97  0.001362483    1.837    0.456
        46  -9.7625     78.8538     11.6245   5.6747717234e+01   6.2202238997e+01    0.2075185    0.1664421  -2.53  0.000165025    1.252    0.201
        47 -10.9612     54.5096     11.1438   6.5022983385e+01   6.6790933020e+01    0.4844916    0.3500471  50.48 0.0007285241    1.633    0.388
        48  -8.3408     35.3444      1.8574   6.8571290397e+01   7.0823712335e+01    0.1585336    0.0992448 -19.97  0.000227337    1.497    0.332
        49 -10.2165     42.9774      9.8839   6.9255729589e+01   6.8789675808e+01    0.3300101    0.1796298  30.17  0.001159172    1.659    0.397
        50 -10.1508     38.9915      3.7958   6.7912351046e+01   7.0075240011e+01    0.2706718    0.2383443  -7.50  0.001878979    1.330    0.248
        51 -10.1169    224.3979      8.2829   3.2751318891e+01   2.8726223988e+01    0.4348681    0.1765755 -37.47  0.001228419    2.233    0.552
        52 -10.5154    213.4590      8.8818   3.3756852942e+01   3.1077431182e+01    0.3904125    0.2015021  46.40  0.001870551    2.764    0.638
        53 -10.6316    218.2825      2.9176   3.2057686678e+01   3.0626560464e+01    0.3258071    0.2534219  68.92  0.001011522    1.352    0.260
        54  -9.4538    120.0054      8.8585   4.5647564988e+01   5.3356569991e+01    0.2894228    0.1922999 -14.52 0.0009080222    1.766    0.434
        55  -9.8314    201.9426      8.4065   3.4650253191e+01   3.3745309009e+01    0.2989328    0.2188693 -84.58  0.001148596    1.179    0.151
        56  -8.9051    165.4474      8.8027   3.8622218747e+01   4.2381261462e+01    0.2324493    0.1137949 -35.25   0.00112297    2.121    0.529
        57  -8.6577     84.5939      8.7658   5.3836919795e+01   6.1293541028e+01    0.1688045    0.1259251  38.71 0.0005593126    1.133    0.117
        58  -8.2337    160.1302      8.6105   3.9240743140e+01   4.3692262672e+01    0.1734115    0.1011029  58.39 0.0002764336    1.532    0.347
        59 -10.0790    107.0690      5.4601   4.7015254427e+01   5.6647387848e+01    0.5237631    0.3402241 -12.03  0.002330684    1.783    0.439
        60  -9.1878    111.5364      4.0665   4.5578050659e+01   5.5734509451e+01    0.3177949    0.1981087 -25.98   0.00112863    1.812    0.448
        61 -10.5716    115.7810      1.9459   4.3991314342e+01   5.4916087016e+01    0.2353573    0.1638439  65.67 0.0003297934    1.265    0.209
        62  -9.2134    119.4964      1.5502   4.3174457151e+01   5.4077070460e+01    0.2364848    0.1626671  61.59 0.0008583875    1.226    0.184
        63  -8.7569     74.3556      7.9947   5.6530155515e+01   6.3449662774e+01    0.1883393    0.1472764  35.97 0.0006739544    1.077    0.072
        64  -7.1941     81.4931      1.5170   5.1572164190e+01   6.2558819317e+01    0.3438565    0.1078051  58.37  0.001388829    2.832    0.647
        65 -10.6373     74.2400      2.7265   5.4188066124e+01   6.3940082777e+01    0.3309454    0.2592391  36.16  0.001363328    1.051    0.049
        66 -10.1847     69.3605      2.0278   5.5372541766e+01   6.4962062746e+01    0.3036276    0.1556288  35.87 0.0007869794    1.714    0.417
        67  -7.7536      5.9429      8.4932   8.8180585009e+01   7.3354410292e+01     0.224909   0.08902505  29.42  0.001198309    2.698    0.629
        68  -9.9885    232.1169      4.6455   3.1424565279e+01   2.7459226269e+01    0.3490648    0.2108771 -24.61  0.002005044    2.119    0.528
        69 -10.4963    237.1463      2.9518   3.0740450161e+01   2.6583381143e+01    0.3187148    0.1669311  88.92  0.001806449    1.750    0.428
        70  -8.5627    170.2356      7.0166   3.7556590109e+01   4.1390062687e+01    0.1753423    0.1508385  86.64 0.0004048954    1.013    0.013
        71  -8.6196     69.6882      7.1227   5.7627451448e+01   6.4443630382e+01    0.1666301    0.1381551  13.71  0.000419899    1.093    0.085
        72 -10.8443    248.5679      4.0149   3.0225390801e+01   2.4137898532e+01    0.3106754    0.2784013   5.47  0.001203431    1.801    0.445
        73 -10.4012    209.0215      4.4962   3.3135427525e+01   3.2530598709e+01    0.3502715    0.2654337  27.33  0.001469872    2.042    0.510
        74  -8.7855    206.5129      1.5799   3.2678037369e+01   3.3388657724e+01      0.19447    0.1184421 -69.40 0.0001590955    1.494    0.331
        75  -9.3286     61.9800      5.3520   5.9420380398e+01   6.6062506777e+01     0.214589    0.1547545   5.80 0.0008713463    1.312    0.238
        76 -10.1178    153.1947      4.0579   3.8825121041e+01   4.5787413508e+01      0.23809    0.2073066 -58.14 0.0007751295    1.223    0.183
        77 -11.2294    160.3964      2.7689   3.7546838537e+01   4.4153842962e+01    0.6466177    0.2416977  67.46  0.001153962    2.196    0.545
        78 -10.1309     31.0139      3.2145   7.1408323445e+01   7.1286571700e+01    0.2503802    0.1849155 -42.74 0.0006280596    2.022    0.505
        79 -11.7057    179.5881      2.0977   3.5241304370e+01   3.9602940181e+01    0.2652613    0.1827521  78.23 0.0004330407    1.243    0.195
        80 -10.5368     90.7059      1.9348   4.9361634374e+01   6.0570788153e+01       0.3437    0.1846342  63.44  0.001170238    1.790    0.441
        81  -8.8804      3.0879      2.7114   8.7026384261e+01   7.4428796763e+01    0.1976551   0.09521055 -22.75 0.0005509648    1.880    0.468
        82  -9.4808     50.6452      1.8037   6.1905117346e+01   6.8405648586e+01    0.3244164    0.1279658  41.94  0.001030805    2.139    0.533
        83  -8.4352    185.9584      1.1717   3.4382277129e+01   3.8180012642e+01    0.1718736   0.08109993  75.48 0.0004827091    1.843    0.457
        84  -8.6654    141.7651      3.5884   4.0261860091e+01   4.8596423146e+01    0.2695998   0.09713147  62.94  0.001141199    2.203    0.546
        85  -8.6245    128.3083      1.2994   4.1590768670e+01   5.2011618911e+01     0.172129    0.1033024  72.82 0.0008994893    1.520    0.342
        86  -8.7929    121.6712    112.1200   7.8655437046e+01   3.6026118842e+01    0.2511866    0.1940477 -64.83 0.0008490101    1.464    0.317
        87  -9.2340    201.5266    249.6598   8.7977051930e+01  -6.1045819187e+00    0.2189687    0.1536402  20.59 0.0006233468    1.176    0.150
        88 -10.3572    115.9336    248.5638   1.0487690814e+02   6.8931080499e+00    0.2603255    0.2212041  50.61  0.001135827    1.058    0.055
        89  -9.3325      3.4990    102.9604   1.1507206520e+02   5.4150270657e+01    0.4436486    0.1513719 -74.48  0.001746157    2.601    0.616
        90 -10.8882      7.2354    107.7379   1.1451108567e+02   5.2791194190e+01    0.4734615    0.2632056 -54.53  0.001828865    1.476    0.323
        91 -10.0445      2.4084    109.1818   1.1626432426e+02   5.2714197525e+01    0.3675654    0.2245016  82.89 0.0009528904    1.764    0.433
        92 -10.3851     62.9155    110.7346   9.6444967944e+01   4.6688900950e+01    0.2787677    0.2080866 -51.39            0    1.213    0.176
        93  -9.6985     63.2879    104.4695   9.4852994342e+01   4.8164492676e+01    0.3130328    0.2443344 -20.11 0.0008319372    1.446    0.308
        94  -9.9645     17.2411     98.8403   1.0972726802e+02   5.4295238120e+01    0.4325929    0.2611969 -19.25  0.002257542    2.056    0.514
        95 -10.3480     22.6046     94.7888   1.0707338978e+02   5.4870861598e+01      0.39161    0.2454074 -40.37 0.0006031516    1.497    0.332
        96  -9.9187     52.3279     90.0923   9.5132988304e+01   5.3008804555e+01    0.4622984     0.219707 -56.29    0.0019848    1.929    0.482
        97  -9.6751     36.4784    108.2293   1.0481706145e+02   5.0398324119e+01    0.3686588    0.1914728 -51.42  0.001141706    1.647    0.393
        98 -10.6136     38.3393    101.7365   1.0287187464e+02   5.1801300397e+01    0.6411902    0.5182379  71.01  0.003651629    1.496    0.331
        99 -10.7142     32.5176     92.6513   1.0302246009e+02   5.4541590454e+01    0.6228702    0.3041253 -44.34  0.002758341    1.838    0.456
       100  -9.2974     27.5649     91.7933   1.0465993066e+02   5.5181984971e+01    0.2175332    0.1786456 -86.81  0.000301023    1.372    0.271
       101 -10.3939     47.4945     90.2719   9.6951346664e+01   5.3546453474e+01    0.7005369    0.1603146 -51.08  0.002274111    3.351    0.702
       102 -10.4000     43.6050     88.2401   9.7885989910e+01   5.4459159286e+01    0.3744189    0.2310542  22.44 0.0005834288    1.823    0.451
       103 -10.8116     22.0360     87.7418   1.0586913393e+02   5.6580502712e+01    0.4230119    0.2611088  29.79  0.001680519    1.879    0.468
       104 -11.0405     30.1822     85.4207   1.0227668781e+02   5.6449166417e+01    0.4966606     0.309184 -46.89   0.00266923    1.355    0.262
       105 -10.5352    117.2275    106.7804   7.8465236465e+01   3.8161187443e+01    0.5405871    0.3426557 -27.99  0.001526622    1.967    0.492
       106  -8.5511    183.8009    107.1993   6.2516991733e+01   2.3139764970e+01    0.1992155     0.175059 -10.91 0.0002736236    1.282    0.220
       107  -9.2727     85.0201    102.4462   8.7105367531e+01   4.5288213570e+01    0.2637337     0.214185  11.42  0.000848249    1.403    0.287
       108  -9.5528     94.2022    104.8091   8.4812966641e+01   4.3115398586e+01    0.4196796    0.2909576 -88.49  0.001694079    2.391    0.582
       109 -10.9527     89.0994    103.8851   8.6177587600e+01   4.4244746080e+01     0.445913    0.3185839  72.02 0.0003465873    2.052    0.513
       110  -8.4491     45.6827    106.6485   1.0135976908e+02   4.9826034659e+01    0.1986254    0.1176159 -14.37 0.0005449301    2.556    0.609
       111 -10.6889     49.4419    101.4703   9.8923717618e+01   5.0657646796e+01    0.5075774    0.3995301 -61.52  0.002809383    1.184    0.155
       112  -9.0151     43.4333     99.8210   1.0066578500e+02   5.1733480278e+01    0.3713202    0.2087925  48.81  0.001687592    2.282    0.562
       113  -8.9789     43.1379     96.1515   9.9944487728e+01   5.2645969175e+01    0.2074375    0.1600505 -42.24 0.0003124903    1.174    0.148
       114  -9.7836     71.8580    104.1337   9.1881528144e+01   4.7006490862e+01    0.5651398     0.214819  44.71  0.001951032    3.147    0.682
       115  -9.9012    108.0245    104.0246   8.0383431649e+01   4.0656714356e+01    0.2911973    0.2138722 -64.90 0.0009030083    1.595    0.373
       116 -11.4778    102.0976    101.6432   8.1507913444e+01   4.2360842736e+01    0.5411042    0.4283719 -46.94 0.0005104133    1.227    0.185
       117 -11.3095    108.9534     96.6405   7.8028641521e+01   4.2118447221e+01    0.6198078    0.4518918 -58.92  0.001638555    1.526    0.345
       118 -11.7794     21.2380    119.3327   1.1169631533e+02   4.8988112288e+01    0.6641942    0.4715983  75.20  0.003725613    1.567    0.362
       119  -8.7679    134.4587    103.4588   7.2840443085e+01   3.5181634066e+01    0.1557911    0.1534201 -58.39 1.403306e-05    1.021    0.020
       120  -9.2470     28.3239    102.8962   1.0659828126e+02   5.2451407243e+01    0.1913067    0.1470965 -57.40  0.000392449    1.091    0.083
       121  -9.5361     72.2360     99.9240   9.0677100140e+01   4.7949537267e+01     0.227598    0.1983712 -84.57  0.001215006    1.340    0.254
       122  -9.6793    124.2486     98.0810   7.4066099165e+01   3.8583340271e+01     0.450774    0.3055458   9.05  0.001752083    2.379    0.580
       123 -10.6755    117.5964     97.9750   7.5897699936e+01   4.0033487859e+01    0.2680947     0.240957  35.21 0.0002251603    1.131    0.116
       124  -9.3865     77.9688     99.3226   8.8591110948e+01   4.7190072614e+01    0.2033348    0.1941558  -1.65 0.0004699757    1.077    0.072
       125  -9.4135      1.9840     92.8195   1.1410338968e+02   5.6634864458e+01    0.4530267    0.1876005  38.58  0.002125855    2.997    0.666
       126  -9.5350      1.6681     88.0805   1.1347040256e+02   5.7759277960e+01    0.2689622    0.1135692 -61.36 0.0008123099    1.739    0.425
       127  -9.3011      6.9258     89.1647   1.1173855602e+02   5.7235531812e+01     0.533367    0.1926394 -70.28  0.001753725    2.410    0.585
       128  -9.5543      8.5212     98.5530   1.1271437444e+02   5.4924015269e+01    0.2585366    0.1754535 -70.14 0.0006055327    1.234    0.190
       129  -9.5225      4.4766     98.1919   1.1405121587e+02   5.5236278683e+01    0.3343001    0.2570827 -46.82  0.002157831    1.199    0.166
       130 -10.3127    136.8215     96.7343   7.0339409778e+01   3.6072200387e+01    0.3719339    0.2670003 -56.49   0.00166257    1.529    0.346
       131  -8.3693    130.4688     96.4304   7.1911652177e+01   3.7564112373e+01    0.1547822     0.151319   1.63 0.0003397887    1.034    0.033
       132  -8.9564     63.4912     96.4522   9.2784127169e+01   5.0048215816e+01    0.2471334    0.1254219  43.58   0.00102486    2.277    0.561
       133  -9.2574     12.9103     95.6568   1.1070165302e+02   5.5346659339e+01    0.2630155    0.1670356 -72.91  0.001463533    1.415    0.293
       134  -9.3432    155.9777     95.0131   6.5211722214e+01   3.1990897723e+01    0.2520755    0.1963673   1.38  0.001132605    1.724    0.420
       135  -8.7867     80.4064     94.8198   8.6547500468e+01   4.7831171124e+01    0.2297684    0.1826515  23.56  0.000493104    1.350    0.259
       136  -8.6603    166.7971     94.4090   6.2657220973e+01   2.9563822198e+01    0.2088366    0.1436654  40.52 0.0003099566    1.582    0.368
       137  -8.4451     59.2972     93.3461   9.3459576587e+01   5.1351615866e+01    0.1511598    0.1000882 -28.54  0.000631905    1.675    0.403
       138 -10.9071     86.4433     87.8953   8.2542656645e+01   4.8341361006e+01    0.4236291    0.3648973 -37.02 0.0005647581    1.104    0.094
       139  -9.4139     97.7599     88.3629   7.9022873936e+01   4.6138078160e+01    0.3512818    0.2406369 -62.36 0.0006228469    1.810    0.447
       140 -10.2208     16.5937     87.1967   1.0780029026e+02   5.7101366512e+01    0.3647413    0.2245481 -61.61  0.001109599    1.338    0.253
       141  -9.9213    123.7979     87.1433   7.0989822227e+01   4.0965574246e+01    0.3444818    0.3003319  83.28 0.0009086523    1.349    0.259
       142 -10.9214    128.9746     85.3861   6.9070741214e+01   4.0158528056e+01    0.5221382    0.3842623  21.18  0.002318141    1.691    0.409
       143  -9.5432    132.7322     82.3293   6.7172509541e+01   3.9900202881e+01    0.2247145    0.2000505  60.38 0.0003880383    1.159    0.137
       144  -8.8135     94.0197     87.7364   8.0023733709e+01   4.6987015603e+01    0.2046462    0.1993421  83.15 0.0001841347    1.146    0.127
       145 -10.6020     65.3724     85.5781   8.9164169759e+01   5.2277850570e+01    0.3127721    0.2560727 -30.91 0.0004266704    1.157    0.136
       146  -9.1010     70.5000     86.5196   8.7604731661e+01   5.1296697794e+01    0.2764125     0.192542 -46.00  0.001100239    1.331    0.249
       147 -10.8139     80.9373     83.6320   8.3120336082e+01   5.0230632181e+01    0.3576194    0.3134968  16.49 0.0007596482    1.169    0.145
       148 -10.5695     73.7294     80.7596   8.4756772647e+01   5.2050546798e+01    0.6454087    0.4081058 -54.07  0.002080637    1.647    0.393
       149  -8.6648     58.0006     87.2342   9.2301338108e+01   5.2936045939e+01    0.1821164    0.1736345 -14.59 0.0003193272    1.088    0.081
       150 -10.2943    155.1210     84.4779   6.2437382892e+01   3.4227074006e+01     0.411948    0.2332616 -40.16  0.001092321    1.752    0.429
       151 -11.0619    150.2423     80.7603   6.2464915627e+01   3.6084827756e+01    0.5641636    0.2561417  54.22  0.001562563    2.234    0.552
       152 -10.3113    117.6676     83.6339   7.1631209729e+01   4.3020599917e+01    0.3897073    0.2481694 -37.07  0.001273948    1.594    0.373
       153 -10.3979     55.5434     83.1831   9.2090870119e+01   5.4178092249e+01    0.5825269    0.3241939 -21.44  0.002368341    2.619    0.618
       154 -12.8165     52.9954     74.6808   9.0605775623e+01   5.6382788865e+01    0.6169305    0.3159185 -53.50 0.0007552895    1.870    0.465
       155 -10.5774     45.4032     68.5169   9.1749995159e+01   5.8641258661e+01    0.5024065    0.2746497 -29.66  0.001037899    1.988    0.497
       156 -10.5750     45.9614     81.8713   9.5351056890e+01   5.5653624567e+01    0.9398562    0.2480976  38.94  0.002739756    4.439    0.775
       157 -10.4891     20.2100     77.3852   1.0431569409e+02   5.9104539877e+01    0.9221416     0.336122 -63.52  0.001831545    2.458    0.593
       158 -11.6834     14.6923     38.3907   9.5727873876e+01   6.7630064498e+01     0.569342    0.3845587 -53.84  0.002421846    1.493    0.330
       159 -11.2133      5.2993     36.1848   9.9764739463e+01   6.8688675410e+01    0.6717178    0.3645561 -53.88  0.003948777    1.602    0.376
       160 -10.8252     31.1580     52.8602   9.2841484803e+01   6.3397074464e+01     1.194112    0.2020099  32.40  0.003794576    5.525    0.819
       161 -11.6495      2.3077     66.5080   1.0922780458e+02   6.2617331367e+01    0.3799081    0.1681503 -57.77  0.001150589    1.676    0.403
       162 -10.1481     15.4135     59.9871   1.0201493806e+02   6.3263229984e+01    0.3051458    0.2097046 -30.11 0.0001142804    1.296    0.229
       163  -9.9804     14.4341     54.4940   1.0093757732e+02   6.4478709150e+01    0.6654831    0.2295467 -50.75  0.003064987    2.145    0.534
       164 -11.5401      8.9786     50.8395   1.0242489459e+02   6.5583687593e+01     0.640492    0.3383555 -42.37  0.001943228    1.478    0.323
       165 -10.1862     17.3978     46.4793   9.7121787844e+01   6.5873302744e+01    0.3317413    0.2421404 -41.30  0.001244696    1.128    0.114
       166  -8.6292    192.3238    248.3135   8.9532846746e+01  -4.5999428717e+00    0.1265666   0.08273257   5.13  0.000342477    1.660    0.398
       167 -10.4870     38.3543     46.6924   8.7460592030e+01   6.3799490905e+01    0.6810512    0.3656149   5.08  0.003117261    2.554    0.608
       168  -9.9817      9.3963     61.1864   1.0496951214e+02   6.3394279277e+01    0.3636684     0.291274 -18.31  0.002329626    1.244    0.196
       169 -10.6525      4.0140     59.7240   1.0697639985e+02   6.4002876246e+01    0.4297995    0.2420206 -31.61  0.001998151    1.623    0.384
       170 -10.4839     42.1313     51.9667   8.7691856765e+01   6.2361823281e+01    0.4864776    0.3958661 -77.85  0.002790447    1.935    0.483
       171 -10.3794     46.6657     47.9345   8.4272361428e+01   6.2543230145e+01    0.4222144    0.3865262  37.15   0.00052001    1.389    0.280
       172  -9.7544      2.4118     80.6575   1.1193532018e+02   5.9438046162e+01    0.2253759    0.1993105 -58.21 0.0009750953    1.124    0.110
       173  -9.2327    166.4723     80.5401   5.8899650495e+01   3.2230128220e+01    0.1484217    0.1472438  89.78 -4.641968e-06    1.045    0.043
       174 -11.8226     97.2164     63.9016   7.1340999691e+01   5.1111953109e+01    0.3337468    0.2754384   2.21 0.0002524661    1.296    0.228
       175  -9.4197     82.5060     75.2456   7.9969532183e+01   5.1721240040e+01    0.4359393    0.2828137   8.82  0.001871347    2.189    0.543
       176 -10.8398     88.3931     72.6450   7.7134805434e+01   5.1172098675e+01    0.9440851    0.6667216 -32.00  0.003376913    1.416    0.294
       177  -9.9591     93.2796     74.3418   7.6082532888e+01   4.9906154050e+01    0.4009951    0.2680445 -46.12 0.0007008582    1.518    0.341
       178  -9.9569     95.3610     71.7213   7.4555678962e+01   5.0014439045e+01    0.3439673    0.2826419 -87.88  0.001068471    1.726    0.421
       179 -10.1701     25.1461     46.5955   9.3491776956e+01   6.5193844215e+01    0.5270506    0.3107499 -25.34  0.002118839    1.619    0.382
       180  -8.8741    130.1889     77.6139   6.6392767846e+01   4.1386139832e+01    0.2215959    0.1380234  39.18 0.0009400342    1.691    0.409
       181  -9.3419    110.8506     76.6554   7.1414089949e+01   4.5871012381e+01    0.2899567    0.2198985 -45.21 0.0006903368    1.347    0.258
       182  -8.8494    111.7083     70.7781   6.9274396735e+01   4.6804856914e+01     0.376892    0.2014529 -29.30  0.001295276    2.189    0.543
       183  -9.7052    184.9790     75.9311   5.4130584405e+01   2.8598756203e+01     0.219801    0.2072218 -64.85 0.0003638342    1.016    0.015
       184 -10.0670     64.1133     74.7273   8.6395315323e+01   5.4828346110e+01    0.3180198    0.2294262 -57.99  0.001515237    1.536    0.349
       185  -8.7839     64.7352     69.6894   8.4563899386e+01   5.5784003413e+01    0.2957744    0.1902264 -56.68  0.001417336    1.782    0.439
       186  -9.1912     28.3277     75.8232   1.0069289031e+02   5.8801793412e+01    0.2764796     0.153461 -44.56  0.001100576    1.514    0.340
       187  -9.9903    180.9321     73.7287   5.4259374234e+01   2.9939702243e+01    0.3786395    0.2557958  -2.76  0.001282047    2.528    0.604
       188  -9.3316    174.9862     74.9873   5.5692580630e+01   3.1155442309e+01    0.2320393    0.1723683 -73.93 0.0003396407    1.579    0.367
       189  -9.7154     69.0288     74.5263   8.4518039745e+01   5.4121598549e+01    0.2477831    0.1936451 -41.35  0.000364319    1.200    0.167
       190  -9.3185     38.3280     79.8858   9.7774540192e+01   5.6935732092e+01    0.2228258    0.1502799 -56.91 0.0007872095    1.355    0.262
       191 -10.4821    170.2660     73.2803   5.6118101644e+01   3.2589097330e+01    0.2714479    0.2640814  58.00 0.0005971317    1.075    0.069
       192 -10.3371    137.5483     72.9736   6.3122186572e+01   4.0524707634e+01    0.4166688    0.2411022 -31.50 0.0008306178    1.883    0.469
       193  -8.8376    152.3881     73.2656   5.9787776147e+01   3.6924091640e+01    0.2611761    0.1876158  81.11  0.001019401    1.750    0.428
       194 -10.0671    145.8991     70.8456   6.0513098140e+01   3.8911915344e+01    0.4504603    0.3023367  20.40  0.001871788    2.201    0.546
       195 -11.0678    144.2133     66.3975   5.9544438819e+01   4.0083211590e+01    0.4186874    0.3160452  44.00  0.001042029    1.333    0.250
       196 -12.1782     79.5220     70.0189   7.9299452753e+01   5.3300491508e+01    0.3639571    0.2812715  16.36 -5.518642e-05    1.374    0.272
       197 -10.1136     83.1211     63.8506   7.5962632749e+01   5.3846605298e+01    0.5192357    0.3130491 -58.38  0.001731917    2.382    0.580
       198  -9.4004    199.5264     71.7280   5.0630015631e+01   2.5871886174e+01    0.2688361    0.2364889  19.62    0.0009279    1.438    0.305
       199  -9.6472    185.9005     70.5017   5.2527920843e+01   2.9288345934e+01    0.3891624    0.2004906 -57.85   0.00149833    2.437    0.590
       200  -8.8619    159.6884     72.6672   5.8058274989e+01   3.5260983023e+01    0.1527459    0.1190664  17.11 0.0007044013    1.677    0.404
       201 -10.3059    102.3193     70.0575   7.1827976558e+01   4.8928061867e+01    0.3062267    0.2629816  37.26 0.0004909299    1.151    0.131
       202  -9.4111    105.3669     65.5932   6.9419013913e+01   4.9114978991e+01    0.4936717     0.276238  60.54  0.001954506    2.418    0.586
       203 -10.2838     10.5817     69.1385   1.0635108333e+02   6.1594190708e+01    0.2387906    0.1658661 -39.40 6.000276e-05    1.219    0.180
       204  -9.3499    173.6212     69.0432   5.4306265258e+01   3.2489665085e+01    0.2755793    0.2096029  53.17 0.0006589896    1.325    0.245
       205 -10.6050    120.0645     67.7285   6.5948033804e+01   4.5510680814e+01    0.6882507    0.3399896  34.96  0.001925371    2.520    0.603
       206  -9.2748    157.6782     67.8619   5.7077004403e+01   3.6570022797e+01    0.2375707    0.1956728  -6.74  0.001081979    1.487    0.328
       207 -10.7281    135.3190     65.4237   6.1316199320e+01   4.2375730350e+01    0.4579848     0.390302  50.21  0.001739202    1.140    0.123
       208  -9.5186     75.1077     65.9892   7.9515066653e+01   5.4854661745e+01    0.2336471    0.1896754 -23.93 0.0003505682    1.177    0.150
       209  -8.4055     77.3251     62.2836   7.7447751386e+01   5.5180696016e+01    0.2017769    0.1780283  16.94  0.001152014    1.099    0.090
       210  -9.6307     66.1899     63.3523   8.1905931298e+01   5.6826649150e+01    0.3034756    0.2839783 -54.07 0.0009530124    1.270    0.213
       211  -9.5119    202.6918     63.0588   4.7967424147e+01   2.6513208182e+01    0.2484312    0.1984747  57.63  0.000700705    1.322    0.243
       212  -9.6796    194.0956     60.8234   4.8670003540e+01   2.8877648417e+01    0.3540973    0.2161786 -40.93  0.000377053    1.565    0.361
       213  -9.0209    160.5026     61.4487   5.4634963847e+01   3.6930449451e+01    0.2786999    0.1750976 -46.70  0.001265399    1.632    0.387
       214  -9.6743    162.9563     57.3527   5.2972021893e+01   3.6970858937e+01    0.4224926    0.2488469 -19.94  0.001130234    2.281    0.562
       215  -9.4458    151.3318     60.4998   5.6205277185e+01   3.9327261684e+01     0.300351    0.2349181  42.11  0.001441384    1.325    0.245
       216 -10.2665    141.1401     60.2373   5.8334820648e+01   4.1844715441e+01    0.3510801    0.2282289  39.05 0.0009726668    1.661    0.398
       217 -10.1159     70.8445     60.1383   7.9049570848e+01   5.6690366949e+01     0.349683    0.2247842  44.62 0.0009926611    1.729    0.422
       218  -9.6857     53.3600     60.6456   8.5997470666e+01   5.9238043031e+01     0.350738    0.2708218 -63.47 0.0009509051    1.676    0.403
       219  -8.5641     53.2118     54.0559   8.3761010021e+01   6.0527449633e+01    0.2472832     0.152688 -32.67  0.001054085    1.515    0.340
       220  -8.5267     56.4467     52.6123   8.1920794543e+01   6.0334544750e+01    0.1958761    0.1424619  -2.98 9.778106e-05    1.444    0.307
       221  -8.6629    241.0340     59.7304   4.2378667547e+01   1.8588132079e+01    0.1749139    0.1476148 -66.69 0.0002633979    1.050    0.048
       222 -11.2018     39.6165     57.8037   9.0765990978e+01   6.1514688940e+01    0.2794869    0.2280873 -42.36 0.0008161577    1.165    0.142
       223  -9.7065    171.1148     58.6187   5.1845352053e+01   3.4772729612e+01    0.3581845    0.2444627 -69.01  0.001110163    1.743    0.426
       224  -9.4375    167.1978     56.5156   5.1949817789e+01   3.6056871396e+01    0.2390082    0.1957143 -37.22 0.0002543225    1.262    0.207
       225 -10.0290    105.3634     57.8687   6.6783365889e+01   5.0465901090e+01    0.2884837    0.2355163 -19.83 0.0003284481    1.270    0.212
       226  -9.5136    146.8344     52.6117   5.4731198259e+01   4.1651052801e+01    0.4267464    0.2677371  36.62  0.001905287    1.859    0.462
       227  -9.5874     85.8443     57.4909   7.2799577740e+01   5.4495496568e+01    0.2283203    0.1863532 -31.09 -5.33744e-05    1.206    0.171
       228 -10.4120     82.4352     53.3328   7.2453824921e+01   5.5861755543e+01    0.5194786    0.3983921 -14.94  0.001960807    1.340    0.254
       229  -9.8671    136.0545     56.2758   5.8241958699e+01   4.3700201937e+01    0.4358746    0.3198459  25.75   0.00209403    1.631    0.387
       230  -9.5199    128.3529     57.2654   6.0394107642e+01   4.5372510324e+01    0.2540184    0.2029531  60.46 0.0007243378    1.262    0.208
       231  -9.7042     65.0144     56.5089   7.9956776972e+01   5.8313064993e+01    0.2392756     0.218455 -13.64  0.000338971    1.075    0.069
       232  -9.5555     61.4875     52.0364   7.9697698702e+01   5.9681755675e+01    0.3045945    0.2615401  77.43  0.001230674    1.824    0.452
       233  -8.1763    242.3704     56.2343   4.1476988374e+01   1.8820991841e+01    0.1144382   0.09696168  40.14 0.0002467699    1.604    0.377
       234  -9.6532    133.9380     27.6749   4.9361107473e+01   4.8115076593e+01    0.4158804    0.1900624 -27.75   0.00177931    2.410    0.585
       235  -9.5207    163.3227    246.3497   9.4965312155e+01   2.5281854307e-02    0.1971013    0.1376443   3.47 0.0007464802    1.727    0.421
       236  -9.9314    133.9811     44.7661   5.4984912351e+01   4.5915216278e+01       1.1939    0.2285798  60.34  0.002623933    7.172    0.861
       237 -10.7311    128.0384     39.9943   5.4727271396e+01   4.7996199372e+01    0.8686545    0.3739843 -36.08  0.003528402    2.405    0.584
       238 -11.0044    118.1073     52.7362   6.1479210956e+01   4.8468727291e+01    0.5861393     0.452181  37.37  0.001041298    1.273    0.215
       239 -10.1359    136.3574     37.3645   5.2056825575e+01   4.6341281511e+01    0.3687065    0.2824696 -87.30  0.001000255    1.544    0.353
       240 -10.6550    131.6206     35.4590   5.2421348070e+01   4.7730861540e+01    0.4439808    0.3133435 -47.98 0.0009902818    1.585    0.369
       241 -10.7246    123.6744     48.2829   5.8555689167e+01   4.7857379736e+01    0.5745848    0.4016381  77.68  0.002310892    1.851    0.460
       242 -10.5245    124.4983     45.2829   5.7339985657e+01   4.8100866011e+01    0.4533376    0.2110896  60.39 0.0001835541    2.241    0.554
       243  -9.3244    191.3917     54.0668   4.7318887833e+01   3.0540844329e+01    0.2650499    0.2125351  -9.79 0.0009780881    1.635    0.388
       244  -9.4428    151.1630     54.5558   5.4439983983e+01   4.0297076721e+01     0.250659    0.2147272  72.44 0.0003848129    1.155    0.135
       245  -8.9032     98.5182     54.8862   6.7789468910e+01   5.2413961885e+01    0.2064431    0.1749318 -46.60 0.0004146861    1.312    0.238
       246  -9.7658     93.6905     54.4272   6.9131735790e+01   5.3481578925e+01    0.3629203     0.256409  -6.10  0.001136262    1.724    0.420
       247  -9.1914    172.1586     53.3768   5.0188695375e+01   3.5311126198e+01    0.2274588    0.1839179 -78.68 0.0003499118    1.288    0.224
       248 -10.1281    174.9135     50.2634   4.8858035152e+01   3.5091666381e+01    0.3764738    0.2535621  61.98 0.0008514287    1.423    0.297
       249  -9.1623    106.8395     52.8615   6.4606821646e+01   5.0969728219e+01    0.2152684    0.1813488  21.63 0.0003138279    1.194    0.162
       250 -10.9899     55.1676     33.5887   7.4953800201e+01   6.3729337258e+01    0.5744187    0.3072765  46.99 0.0003533549    2.293    0.564
       251  -8.4741      1.3539    244.1841   1.2650000029e+02   2.2157103158e+01    0.1482901   0.07516052  81.54 0.0003729247    1.618    0.382
       252 -10.0514     71.7686     50.7426   7.5293169614e+01   5.8226487823e+01    0.6427769    0.3561946 -26.13   0.00291905    2.007    0.502
       253 -10.6948     40.9741     21.6680   7.5876030483e+01   6.7562911496e+01    0.2796752    0.2374183 -37.87 0.0003920381    1.506    0.336
       254 -10.9694     68.1717     45.8095   7.4756962250e+01   5.9675138333e+01    0.6462016    0.3575167 -32.43  0.002342236    1.785    0.440
       255 -12.8994     61.9042     44.1908   7.6545773820e+01   6.0976559469e+01    0.4210903    0.3448331 -26.96  0.000609878    1.168    0.144
       256  -9.5864    164.3173     51.8348   5.1121251217e+01   3.7467629749e+01    0.2901935     0.219168  61.53 0.0005030062    1.265    0.209
       257 -10.6755    154.1282     48.9648   5.2162299176e+01   4.0397758170e+01     0.453067    0.3448394  83.87  0.001157184    1.433    0.302
       258 -11.3292     50.6785     28.1358   7.4489839280e+01   6.5229130506e+01    0.6365945    0.3891378  61.07  0.002621194    4.172    0.760
       259  -9.7723    181.2724     48.3454   4.7322974142e+01   3.3813195375e+01    0.3433661    0.1881006 -56.42  0.001490418    2.046    0.511
       260 -10.5469    114.3582     46.3457   6.0253027242e+01   5.0294485611e+01     0.381488    0.2666465 -19.58 0.0006282316    1.606    0.378
       261  -8.6405    112.9307     41.3049   5.8844785203e+01   5.1341782767e+01    0.1923208    0.1673843  42.83 0.0001805947    1.064    0.060
       262  -8.8986     96.7707     48.9822   6.6196135954e+01   5.3734651375e+01    0.1881132    0.1720192  -3.00  0.000366703    1.064    0.060
       263  -9.1479     88.2410     48.4867   6.8712376732e+01   5.5546309875e+01    0.2695056    0.2233333  88.87  0.001410431    1.812    0.448
       264  -9.2149     54.5830     49.2551   8.1438790668e+01   6.1214364143e+01    0.3680242    0.2002888  44.55  0.001737787    2.254    0.556
       265 -10.0813     32.2332     47.9311   9.0674264756e+01   6.4242926320e+01    0.2238033    0.1877469  31.77  0.001083719    1.450    0.310
       266  -8.5912     87.8693     52.2768   7.0235731322e+01   5.4999551160e+01    0.2215175    0.1127308  63.07 0.0006978114    4.368    0.771
       267  -8.3278     76.7136     44.6344   7.1173194113e+01   5.8359093459e+01    0.2151429    0.1301846  38.19 0.0007362174    1.593    0.372
       268  -8.6652     79.0000     47.9692   7.1645217467e+01   5.7399550451e+01    0.2778769    0.1312281 -41.46 0.0009201317    2.195    0.544
       269  -9.3406     81.8891     44.6689   6.9387362874e+01   5.7385425482e+01    0.3320504    0.2761238  41.35  0.001662813    1.228    0.186
       270  -8.8766    234.8217     46.8904   4.0222157434e+01   2.1714985108e+01    0.1737858    0.1616907 -66.03 0.0003068494    1.181    0.153
       271  -9.9276    245.3601     43.8223   3.8530408544e+01   1.9942387759e+01    0.3396744    0.2369792 -42.36  0.002053449    1.302    0.232
       272  -9.6045     93.9861     45.0521   6.5601092219e+01   5.4920460358e+01    0.2046508    0.1875793  16.23 0.0003555583    1.013    0.012
       273  -9.7743     90.9541     40.9583   6.4998108028e+01   5.6153737703e+01    0.3911552    0.3020304  78.68  0.002003197    1.946    0.486
       274  -8.3666     90.5711     37.3942   6.3744912867e+01   5.6742096311e+01    0.1995014    0.1459321  18.69  5.18357e-05    1.432    0.302
       275  -8.8508    137.1906     49.3756   5.5772754968e+01   4.4477296076e+01    0.2020072    0.1342196  68.20  0.000935534    1.611    0.379
       276  -8.7356    149.8842     43.9428   5.1446351524e+01   4.2152173816e+01     0.208603    0.1824961  39.22 0.0004492518    1.198    0.165
       277 -11.0589    103.0368     42.9602   6.2136420922e+01   5.3310001363e+01    0.4979431    0.2710312  54.34 0.0003083041    1.844    0.458
       278 -11.9788    103.6579     38.7544   6.0411591722e+01   5.3768860211e+01    0.4030815    0.2707132  58.09 0.0003035086    1.543    0.352
       279  -7.8271      1.2948     52.3109   1.0639163773e+02   6.5698223918e+01    0.1272758   0.06488987 -38.39 0.0002191163    1.593    0.372
       280 -10.2670     36.0408     41.2703   8.6480376921e+01   6.5051940877e+01    0.4314266    0.2244194  15.26  0.001571488    2.230    0.552
       281 -12.0765     41.7700     37.9870   8.2577138445e+01   6.4923773861e+01    0.3149946    0.2044112 -11.88 0.0004430053    1.595    0.373
       282  -8.3262    200.4400     42.5350   4.3126983458e+01   3.0025262856e+01    0.1322742    0.1231333 -85.74 0.0001751542    1.097    0.089
       283  -9.1539    222.9296     40.2372   3.9970221606e+01   2.5196787507e+01    0.2176438    0.1680493 -23.64  0.001261272    1.595    0.373
       284  -8.5800     24.1414     39.7509   9.1544659035e+01   6.6572159514e+01    0.3674688    0.1041666 -40.16  0.001447741    3.063    0.674
       285 -10.6351    228.7591     38.4484   3.8968145775e+01   2.4157731046e+01    0.4250696    0.2137373 -50.97  0.001153649    1.763    0.433
       286  -9.3784    157.8819     38.8654   4.8448132341e+01   4.0861928293e+01    0.2458482      0.22786  27.87  0.001005547    1.213    0.176
       287  -9.2585    120.8508     38.8057   5.5991193865e+01   4.9854106763e+01    0.2452049    0.2013608 -50.87  0.001008515    1.380    0.275
       288  -9.3189    238.6109     37.5516   3.7825313131e+01   2.2174786600e+01    0.2337001    0.1852385  36.85 0.0009675901    1.869    0.465
       289 -10.2477    177.7811     36.8858   4.4724789402e+01   3.6219650923e+01    0.5134166    0.3002749 -88.13  0.001971487    2.099    0.524
       290  -8.9928     84.3211     37.5656   6.5807187253e+01   5.7977550003e+01    0.4748117    0.2201041  26.42  0.001694866    3.419    0.707
       291 -10.7283     77.9496     34.4630   6.6703755673e+01   5.9652764875e+01    0.4978032    0.3973913 -25.83 0.0004587098    1.273    0.215
       292 -10.0840     85.1145     32.4765   6.3525043029e+01   5.8523222201e+01    0.4762247    0.3076579  56.21  0.001134056    1.721    0.419
       293  -9.3720     71.4704     29.5820   6.6955894509e+01   6.1536228156e+01    0.2356341     0.180189  27.98    0.0005302    1.177    0.151
       294  -9.9711     74.1632     26.9062   6.4874346662e+01   6.1387317932e+01    0.2739428    0.2231041 -40.76 0.0009170963    1.486    0.327
       295  -8.7706    193.5837     36.6116   4.2502371783e+01   3.2435821534e+01     0.257194    0.1805264  25.61  0.001264526    2.203    0.546
       296  -9.3083    186.5147     36.7199   4.3458362693e+01   3.4118612836e+01    0.3060187    0.2057599 -72.75  0.001194067    1.585    0.369
       297  -9.6599    209.3688     34.7144   4.0151129694e+01   2.8981148568e+01    0.2938302    0.2728894  -3.86  0.001131445    1.417    0.294
       298  -8.1821    162.3392     36.3038   4.6941261337e+01   4.0092245476e+01    0.1432043    0.1014594  36.36  0.000703952    1.674    0.403
       299  -9.2707    202.8340    242.1754   8.6558462054e+01  -5.2314028888e+00    0.1749106    0.1445963  21.27 0.0004402651    1.134    0.118
       300  -8.4929    189.5279    240.4549   8.8866410162e+01  -3.0274597133e+00    0.1263106    0.1039605  17.40 0.0005054309    1.013    0.013
       301 -10.3987    117.2921     32.7195   5.4702999928e+01   5.1470784308e+01    0.2586914    0.2127421  13.33 0.0001911522    1.323    0.244
       302 -10.9534    113.6446     32.1997   5.5398409090e+01   5.2379335012e+01    0.4131808    0.2510697 -39.62 0.0002294923    1.815    0.449
       303  -9.1202     96.0006     35.4321   6.1348196778e+01   5.5876023922e+01    0.3572167    0.1649029  46.62  0.001179393    1.970    0.492
       304  -8.1154     66.5136     34.5524   7.0866284192e+01   6.1720458632e+01     0.131831    0.1141309   7.32 0.0001111644    1.021    0.021
       305 -11.8644     31.7754     64.1958   9.6105525585e+01   6.1018928344e+01    0.6758907    0.3546527 -43.09  0.003429235    1.605    0.377
       306  -9.0529    221.4831    237.4855   8.2289386915e+01  -7.1921731107e+00    0.1237393    0.0964992   5.56 0.0004747971    1.024    0.023
       307  -8.9691    168.3070    237.6397   9.2680584696e+01   6.6252059022e-01    0.1232741   0.09798463  64.48 0.0005459758    1.734    0.423
       308 -11.2469     25.0153     30.6899   8.7590724901e+01   6.8083842808e+01    0.3691645    0.3139965 -54.84  0.001819622    1.616    0.381
       309  -8.7671    139.8877    237.1031   9.8479208476e+01   5.2346506466e+00    0.1959269    0.1592235  51.72 0.0005081564    1.224    0.183
       310  -9.4740    233.4402     31.0486   3.6899578168e+01   2.4107010111e+01    0.3170204      0.19149  53.98   0.00172943    1.995    0.499
       311  -9.6990    187.4242     30.9880   4.1836861415e+01   3.4623331528e+01    0.4071001    0.2778189  23.93  0.001979841    2.316    0.568
       312  -8.6618    158.9647     31.9145   4.6203600181e+01   4.1473703056e+01    0.2247992    0.1544257 -69.18  0.001119348    1.670    0.401
       313  -9.1268    153.6582     32.0891   4.7141158873e+01   4.2762044124e+01    0.2361507    0.1731453  54.17  0.001258812    1.285    0.222
       314  -8.9548     42.3486     28.7140   7.8420049855e+01   6.6339769528e+01    0.1598718     0.121339 -42.95 0.0005421021    1.562    0.360
       315  -9.5556    248.3975     30.7868   3.5560715096e+01   2.1031842867e+01    0.2567544    0.1548347 -67.83  0.001485621    1.506    0.336
       316  -9.0184    124.0130     30.0000   5.2212699609e+01   5.0222776517e+01    0.3576833    0.1394425  50.87  0.001337705    2.237    0.553
       317  -9.1464    222.8113     34.3373   3.8641158517e+01   2.5997076653e+01    0.2615865     0.112877  80.30  0.001101977    2.694    0.629
       318 -10.1128    221.9021     27.8515   3.7266369699e+01   2.7015923848e+01    0.3022961    0.2838329 -47.07  0.002052309    1.272    0.214
       319  -8.7186     32.0675    232.5233   1.2024838115e+02   2.1285366509e+01    0.1627768   0.09928917  42.45 0.0003432602    1.488    0.328
       320  -9.4149    182.2212     28.5297   4.1860714057e+01   3.6179337747e+01     0.278521    0.1658752  58.71 0.0008440383    1.600    0.375
       321 -10.0172    179.5774     25.2122   4.1318462110e+01   3.7212408328e+01     0.334755    0.2207838 -83.00 0.0005232933    1.585    0.369
       322  -9.7868    164.2189     26.9240   4.3928161913e+01   4.0772410501e+01    0.4544208    0.2851179  56.87  0.001455718    1.482    0.325
       323  -8.5501    177.2494    231.2303   8.9866221638e+01   3.1263380635e-01    0.2084005   0.08893975  44.58 0.0008818838    2.421    0.587
       324  -8.8506    162.2747    225.3912   9.2040571441e+01   3.7107225417e+00    0.3185476    0.2138907  83.43  0.001329176    3.486    0.713
       325  -9.1034    223.7110    225.0965   7.9775473358e+01  -5.7406719929e+00     0.198465    0.1512048  27.93 0.0006228076    1.288    0.224
       326  -8.7039    120.5328     28.4895   5.2458924096e+01   5.1224115870e+01    0.2545267    0.1774277 -33.23  0.001343576    1.555    0.357
       327  -9.6227    207.9513     26.5173   3.8350372799e+01   3.0329990744e+01    0.2200374    0.1760717 -67.26 0.0003706454    1.099    0.090
       328 -10.3124    207.0185     22.3598   3.7460065467e+01   3.1039240258e+01    0.3332194    0.2715225 -83.43  0.002095431    1.059    0.055
       329  -8.5160    192.8387     27.1511   4.0185211387e+01   3.3793409069e+01    0.1737281    0.1494479  50.48 0.0006915712    1.338    0.253
       330  -8.8013    131.9195    225.1783   9.8506984143e+01   8.7119955126e+00    0.2041085    0.1666313  58.75 0.0005008453    1.268    0.211
       331  -9.9194    241.2848     25.1239   3.4972747087e+01   2.3193184035e+01     0.267043    0.1559827  68.37  0.001071809    1.743    0.426
       332  -9.6210    231.5892     23.2154   3.5374488478e+01   2.5469706076e+01    0.3537628    0.1736663 -79.39   0.00163024    2.310    0.567
       333 -10.3283    153.6616     22.9863   4.4392632321e+01   4.3817057207e+01    0.2579626    0.2180269  79.12 0.0003133405    1.090    0.083
       334  -8.2127      1.7208    224.3137   1.2554273754e+02   2.6059928231e+01    0.1185575   0.06068937  66.14 0.0002002264    1.568    0.362
       335  -8.9492    196.4655    222.5052   8.4555586388e+01  -1.2798423152e+00    0.1319874    0.1103847   8.65 -6.400945e-05    1.029    0.028
       336  -9.2897     88.5821    221.0788   1.0746242816e+02   1.6316051254e+01    0.2401802    0.1795917  35.77 0.0005895873    1.318    0.241
       337  -8.7104    203.1416    217.8334   8.2426954376e+01  -1.5667654040e+00    0.1785919    0.1585541  14.87 0.0002863606    1.132    0.116
       338  -8.2503    242.3172    209.6935   7.3668942691e+01  -6.1018459219e+00    0.1048152    0.1007515 -51.32  0.000214717    1.630    0.387
       339  -9.0688    231.0224    209.1394   7.5581790992e+01  -4.4128759747e+00    0.1960556    0.1421001  -0.79 0.0004520306    1.278    0.217
       340  -8.8161     35.4876    201.4678   1.1719028030e+02   2.7597929022e+01    0.1268975    0.1037684  77.77 0.0001520922    1.007    0.007
       341  -8.5358    120.2033    199.2345   9.7253348839e+01   1.5971733341e+01    0.1937688    0.1578993  69.76 0.0006599819    1.330    0.248
       342  -9.3371    188.6462     22.2656   3.9432475326e+01   3.5365618711e+01    0.2956682    0.2381035  12.88  0.001701126    1.762    0.433
       343  -8.6643    124.9939     23.3248   4.9697591289e+01   5.0752380712e+01    0.1873797    0.1483716  60.84 0.0003104785    1.149    0.130
       344  -8.5980     79.5658     22.1721   6.1060146439e+01   6.0922852922e+01    0.2289041    0.1175575 -33.98  0.001107405    2.086    0.521
       345  -8.8179     10.5718     22.6846   9.1906487834e+01   7.0735725038e+01      0.14081    0.1002561 -50.34 0.0009184123    1.570    0.363
       346  -9.8884    132.1474     21.3080   4.7594013977e+01   4.9253395644e+01    0.2903061     0.217742  61.82 0.0007707905    1.191    0.160
       347  -8.8007     93.0088     20.2087   5.6220767296e+01   5.8367586234e+01    0.4235104    0.2093092  60.31  0.001916464    2.138    0.532
       348  -8.9333      6.4223    194.7773   1.2297602450e+02   3.1992549016e+01     0.162787   0.09020171 -69.73 0.0005953509    1.621    0.383
       349  -8.6176    242.3300    193.7206   7.0679519614e+01  -3.6946055497e+00    0.1088036    0.1032416 -64.99 0.0002963004    1.602    0.376
       350  -8.9260      5.7293    182.9389   1.2234212667e+02   3.4749264087e+01    0.1686734    0.1240387  88.96 0.0003023847    1.074    0.069
       351  -8.8752     55.1194    181.3022   1.1053299437e+02   3.0009761013e+01    0.1872093    0.1590396  68.96  0.000491625    1.082    0.075
       352  -9.8472      7.2412    174.6793   1.2140390845e+02   3.6550446818e+01    0.1915199    0.1307474  60.97  0.000743915    1.357    0.263
       353  -9.9035     18.4545    174.0681   1.1871744678e+02   3.5731865179e+01    0.2168438    0.1810718 -15.94  0.001375909    1.710    0.415
       354 -10.8188     15.3479    165.6320   1.1872025429e+02   3.8032996386e+01    0.4003403    0.2635304 -12.59  0.002133135    2.492    0.599
       355  -8.6735    200.9230     13.7471   3.6013828259e+01   3.3417259577e+01     0.175576    0.1608089  77.38 0.0003753287    1.201    0.167
       356 -10.5236      7.5515    166.2553   1.2067242386e+02   3.8522175180e+01    0.2501809    0.1808685  11.79  0.001036828    1.907    0.476
       357 -12.2355     30.8323    154.9931   1.1363229607e+02   3.9230538132e+01    0.7692828    0.4876359  58.92  0.003038814    1.643    0.391
       358  -9.7968    245.8662     19.1381   3.3393589774e+01   2.2971695525e+01    0.1474049    0.1356274  86.53 0.0005938443    1.319    0.242
       359  -9.7749    233.4897     18.5050   3.4214587457e+01   2.5622593982e+01    0.3796917    0.1605384  89.39  0.001545777    2.779    0.640
       360 -10.9985     39.8017    160.4112   1.1189969224e+02   3.6954334637e+01    0.3828516    0.3181396 -74.01  0.001295311    1.081    0.075
       361  -9.5566    144.4911     17.7809   4.4272751877e+01   4.6618983832e+01    0.3206931    0.2294913  36.06  0.001102223    1.549    0.355
       362 -11.1655     35.6988    158.9898   1.1281342764e+02   3.7744096134e+01    0.4244512    0.3403499 -44.79  0.001964607    1.423    0.297
       363  -9.3656    225.9000     16.5216   3.4407771550e+01   2.7484734610e+01     0.228095    0.1490152 -48.72 0.0006958517    1.357    0.263
       364 -10.3052     24.4848    162.8858   1.1616463755e+02   3.7885560700e+01    0.2501568    0.1821876  37.67 0.0002995248    1.504    0.335
       365  -9.3491     20.5907    160.8111   1.1694621819e+02   3.8748608260e+01     0.243855    0.1684798 -84.81  0.001141517    1.228    0.186
       366  -8.5852    103.5301     16.1251   5.1881665393e+01   5.6480863633e+01    0.1657258    0.1289042 -12.63 0.0002792582    1.409    0.290
       367  -9.9842      1.6372    158.1832   1.2146180490e+02   4.0891996411e+01    0.2868049    0.1456233 -72.11  0.001297028    1.570    0.363
       368  -8.8387    127.4933     14.4786   4.6174210047e+01   5.1062448798e+01    0.1720325    0.1302471   1.00 0.0006927554    1.588    0.370
       369 -10.4603      2.1198    153.6430   1.2097079428e+02   4.1947367040e+01    0.3520754    0.1887746  85.45  0.001530412    1.698    0.411
       370  -9.5279    249.0271    153.5076   6.1544752346e+01   1.7701163151e+00    0.1785342    0.1312278  40.01   0.00052403    1.572    0.364
       371  -9.2631     45.9272    151.3435   1.0903310005e+02   3.8550587240e+01    0.2152685    0.1662131 -81.26 0.0003490833    1.178    0.151
       372 -10.4855     20.0567    151.0803   1.1606956217e+02   4.1189810181e+01    0.4173059    0.2142392 -42.96  0.001822683    2.364    0.577
       373 -10.8286      4.6119    146.9254   1.1974092781e+02   4.3399570328e+01    0.4568496    0.2705508  61.05  0.002352986    1.743    0.426
       374 -11.5563     12.6742    150.6933   1.1798518535e+02   4.1888444561e+01    0.4543849    0.3755678   0.65  0.002918903    1.626    0.385
       375 -10.4346     13.4753    145.0489   1.1719324969e+02   4.3213104846e+01    0.3980635    0.1957529 -65.71  0.001373988    1.646    0.393
       376 -11.0773     18.6581    140.5679   1.1526563957e+02   4.3912596971e+01    0.3887354    0.2946769  10.50 0.0009883426    1.708    0.414
       377 -10.2408      3.6423    140.5825   1.1940182509e+02   4.5007346305e+01    0.4635136    0.2214681  50.45  0.001873487    2.282    0.562
       378  -9.0512     41.3485    138.9204   1.0852304556e+02   4.2200974655e+01    0.2272396    0.1584298  88.49  0.001173736    1.492    0.330
       379  -8.8117     75.5254     13.4800   5.8601737617e+01   6.2679395697e+01    0.2017065    0.1613796  52.96 0.0009396075    1.327    0.246
       380  -9.1884    236.0955    136.8650   6.0097820634e+01   6.8345465839e+00    0.2037286    0.1780121 -55.49 0.0005101608    1.251    0.200
       381  -9.1693    230.6807    136.9967   6.1016283202e+01   7.8017361082e+00    0.1984344    0.1669113 -31.33  0.000604353    1.048    0.046
       382  -8.4735     68.8772     11.5255   5.9917868384e+01   6.4166140164e+01    0.2278998    0.1167423  55.53  0.001114828    2.108    0.526
       383  -8.6923     74.9662    135.5775   9.7933281945e+01   3.8749573054e+01    0.3373785    0.1592091 -33.38  0.001053709    3.832    0.739
       384 -10.0305     54.2581    146.1065   1.0589231043e+02   3.8890687020e+01    0.2208261    0.2157198  83.15 0.0002464682    1.122    0.109
       385 -10.2485     14.8762    135.8448   1.1578071910e+02   4.5380027569e+01    0.2958755    0.1811859  -7.00  0.001514275    2.443    0.591
       386  -9.0473     46.1894    127.8288   1.0525968981e+02   4.4481267184e+01    0.2314309    0.1494864 -39.33 0.0005326303    1.686    0.407
       387  -8.4185     49.7219    135.3039   1.0546051430e+02   4.2181580688e+01    0.2026779    0.1156731  86.46 0.0001744173    2.416    0.586
       388 -11.2009     43.1887    131.8224   1.0685575881e+02   4.3801140389e+01    0.5050207    0.4475039  40.58   0.00193525    1.258    0.205
       389 -11.4072      3.7688    129.9248   1.1828689041e+02   4.7597998556e+01    0.7506524    0.2322381 -64.03   0.00205688    2.329    0.571
       390 -10.5787      7.8689    123.1739   1.1632104605e+02   4.8991458683e+01    0.3128521    0.1833903 -70.01 0.0008842432    1.357    0.263
       391  -8.9406    248.6234    134.1968   5.7569104419e+01   5.0775647721e+00    0.1929747    0.1103468 -30.00 0.0004516966    1.640    0.390
       392  -9.3888     56.0924    132.6476   1.0307225571e+02   4.2085001605e+01    0.2218271    0.1868838  14.63 0.0006204888    1.400    0.286
       393 -11.5973     28.5482    132.0560   1.1130223542e+02   4.5194662449e+01    0.2776549    0.2455839   4.98 6.373528e-05    1.389    0.280
       394  -9.3983     61.8564    131.3268   1.0106922141e+02   4.1676759638e+01    0.2447132    0.1828127 -73.62 0.0005730506    1.315    0.240
       395 -10.8301     10.2113    131.2878   1.1658872550e+02   4.6842402155e+01    0.4097279     0.204025 -59.29  0.001544527    1.655    0.396
       396 -10.0454     12.7254    127.3293   1.1538164501e+02   4.7642792236e+01    0.2209743    0.1573346 -82.93 0.0006715987    1.232    0.188
       397  -9.9621     34.7043    128.3157   1.0888267047e+02   4.5558854227e+01    0.4316678    0.2730159  48.47  0.001784253    1.772    0.436
       398 -10.5419     33.1852    124.1590   1.0869403625e+02   4.6749420750e+01    0.4735917    0.2711644 -87.47  0.001824885    2.031    0.508
       399 -10.0280     34.6901    136.6366   1.1014054648e+02   4.3462168619e+01    0.2570192    0.2439855  58.57 0.0009355776    1.178    0.151
       400  -9.5508     88.5110    128.0406   9.2278099067e+01   3.8494588767e+01    0.2582775    0.2229504  35.40 0.0003157608    1.222    0.182
       401 -10.0780     19.8677    131.0509   1.1374139231e+02   4.6183264721e+01    0.3006361    0.1996498  72.30  0.001327763    1.641    0.391
       402  -9.0998     72.0195    123.7127   9.6383315951e+01   4.2174977137e+01    0.1945632    0.1912898  45.01 0.0003479257    1.095    0.087
       403  -8.9638    241.4816    123.5007   5.6349663067e+01   8.1720057047e+00    0.1378396    0.1178412 -38.74 -8.200448e-06    1.017    0.017
       404 -10.6327     20.2977    109.0617   1.1040683127e+02   5.1592432909e+01      0.35634    0.2417432 -54.87  0.001474727    1.241    0.194
       405 -10.7077     13.7850    113.5351   1.1321676886e+02   5.0964028888e+01    0.3602503    0.2362867   9.97  0.001419704    1.927    0.481
       406  -9.5052     13.8324    109.8062   1.1265510139e+02   5.1872335456e+01    0.1947507    0.1597465 -74.28 0.0003519845    1.083    0.077
       407  -9.0172    221.1716    121.1815   5.9063475941e+01   1.2479055551e+01    0.1970451    0.1614114 -59.24  0.001062627    1.293    0.227
       408  -9.1235    124.1324    121.1244   8.0320247452e+01   3.3443860571e+01    0.3082934    0.2110233  52.50 0.0007625487    1.576    0.366
       409  -9.7043     93.9619    118.6451   8.8430687536e+01   3.9863566231e+01     0.419352     0.269104 -22.95  0.001669651    2.262    0.558
       410  -8.5301    211.5203     28.5186   3.8451752794e+01   2.9267959652e+01     0.131289    0.1099222 -74.48 -5.44058e-06    1.014    0.014
       411 -10.0356     43.2045    119.2912   1.0467533005e+02   4.6959183072e+01    0.3390448    0.2255362  41.55  0.000903291    1.673    0.402
       412  -9.9809     71.0985    116.8861   9.5171123114e+01   4.4010895358e+01    0.6155568    0.3439001  66.64  0.002037032    3.432    0.709
       413  -9.2252     67.7893    118.6156   9.6616112081e+01   4.4060141536e+01    0.2285964     0.192197  69.54 0.0004534906    1.355    0.262
       414 -10.4479      3.7083    116.8769   1.1682022582e+02   5.0780228321e+01    0.3234877    0.3009348 -62.63  0.002281904    1.178    0.151
       415  -9.3593     54.5419    118.0199   1.0076162289e+02   4.5968626347e+01    0.2394879    0.2132401  28.13 0.0003074521    1.251    0.201
       416  -9.3581     83.1788    116.6138   9.1272231148e+01   4.2198649151e+01    0.2929154    0.2634118  84.24  0.001555831    1.229    0.186
       417 -10.5238     29.0029    116.7829   1.0882142045e+02   4.8974346336e+01    0.3043915    0.2396176  39.94  0.001793041    1.451    0.311
       418  -8.8307     62.2632    115.0641   9.7625578712e+01   4.5708343328e+01    0.2070851    0.1715381 -60.13 0.0002605748    1.113    0.102
       419  -9.6792     48.8631    113.4774   1.0170175437e+02   4.7779769270e+01    0.4297136    0.1645845 -57.31  0.001686102    2.191    0.544
       420  -9.9756     32.4655    112.4894   1.0695250174e+02   4.9727562730e+01    0.4029419    0.2199649  84.43  0.001647707    2.820    0.645
