#   1 NUMBER                 Running object number                                     
#   2 MAG_AUTO               Kron-like elliptical aperture magnitude                    [mag]
#   3 X_IMAGE                Object position along x                                    [pixel]
#   4 Y_IMAGE                Object position along y                                    [pixel]
#   5 X_WORLD                Barycenter position along world x axis                     [deg]
#   6 Y_WORLD                Barycenter position along world y axis                     [deg]
#   7 A_WORLD                Profile RMS along major axis (world units)                 [deg]
#   8 B_WORLD                Profile RMS along minor axis (world units)                 [deg]
#   9 THETA_WORLD            Position angle (CCW/world-x)                               [deg]
#  10 FWHM_WORLD             FWHM assuming a gaussian core                              [deg]
#  11 ELONGATION             A_IMAGE/B_IMAGE                                           
#  12 ELLIPTICITY            1 - B_IMAGE/A_IMAGE                                       
         1 -13.5373    220.7240      7.5169   3.0451788511e+01   2.9649817660e+01     1.125401    0.5585484 -49.27  0.006451013    1.743    0.426
         2 -13.4080    209.4135      9.2494   3.1696697317e+01   3.1868447293e+01    0.9163672    0.3523277  65.83  0.002403521    2.324    0.570
         3 -13.2035    224.5529     23.3000   3.3349566921e+01   2.7078747263e+01     0.629846    0.4777066 -17.15  0.003931634    1.964    0.491
         4 -13.1822    231.1362     15.3076   3.1221411863e+01   2.6649447788e+01    0.7891105    0.5262539 -27.38  0.004900293    1.939    0.484
         5 -14.7848    246.6009     19.7488   3.0945834550e+01   2.3073818186e+01     2.484485     1.160653 -30.44   0.01295973    2.622    0.619
         6 -12.6860    241.7141      4.8629   2.8508393948e+01   2.5693489896e+01    0.5847706    0.4914922 -28.51  0.004356976    1.659    0.397
         7 -12.2540    233.8796      2.7023   2.8601206220e+01   2.7468834235e+01    0.5811178    0.3089299  88.92  0.003353555    1.659    0.397
         8 -12.3652     25.0484     16.9930   7.6509751731e+01   6.9674219480e+01    0.4275628    0.2471072   9.94  0.002458167    1.783    0.439
         9 -12.1046    134.1104     16.7167   4.2576234001e+01   4.8479051841e+01    0.3779575    0.2716337  18.95   0.00210555    1.827    0.453
        10 -11.7357     88.2622     16.5632   5.2336050110e+01   5.8864033166e+01    0.3733349    0.2743543  69.76  0.001375431    1.549    0.354
        11 -10.6161    101.4209     13.4180   4.7909847703e+01   5.6316042500e+01    0.2197277    0.1837678  46.85 0.0005121859    1.030    0.029
        12 -11.1941     66.7719     13.9181   5.7693806079e+01   6.3444958844e+01    0.2044484    0.1704443 -43.22  0.001165774    1.571    0.363
        13 -12.7849      6.5378     10.6080   8.3622314828e+01   7.2537827311e+01    0.6014094    0.2010135 -43.55  0.002968144    2.812    0.644
        14 -12.1016      9.5888      2.1686   7.7653107012e+01   7.3365352161e+01    0.5238453    0.1669022  26.64  0.002457876    3.113    0.679
        15 -11.7239    112.9418     12.1891   4.5019513064e+01   5.3833759710e+01    0.2424347    0.2252489  51.43 0.0005290703    1.093    0.085
        16 -12.1727     13.2517     10.5504   7.9751602151e+01   7.1888214052e+01    0.2709772    0.1406688 -41.44  0.001598804    2.019    0.505
        17 -10.3594     41.9880     11.3092   6.5910207753e+01   6.8020388161e+01    0.1700785    0.1263359  23.16 0.0004059495    1.113    0.102
        18 -13.0959     22.5982      6.8769   7.2903787743e+01   7.1278863288e+01    0.5003181    0.3777707   4.48  0.002975918    1.017    0.017
        19 -11.4993     28.6727     10.4603   7.1614699546e+01   7.0053954531e+01    0.2667892    0.1760222  20.93 0.0008537798    1.296    0.228
        20 -11.4917     32.1825      6.5941   6.8032186855e+01   7.0018041734e+01    0.2692133     0.171598  21.10 0.0008354746    1.346    0.257
        21 -10.5590    155.5022      9.9726   3.7462672121e+01   4.4074694076e+01    0.1697722     0.125786 -31.45 0.0007063635    1.562    0.360
        22 -10.5291    107.6764     10.1666   4.5400551246e+01   5.5211613458e+01    0.2158237    0.1546958  70.40 0.0005687044    1.340    0.254
        23 -10.6464    127.6335      9.2235   4.1361709825e+01   5.0702472563e+01    0.1568599    0.1214994   1.20 0.0008471718    1.636    0.389
        24 -10.3424    176.4707      7.6165   3.4400763135e+01   3.9406157268e+01    0.2250496    0.1264015  70.46 0.0005901624    1.516    0.340
        25 -12.1334    112.7534      5.6646   4.2856473098e+01   5.4444275792e+01    0.4706639    0.2549118  58.90  0.002213228    1.500    0.334
        26 -10.3013    109.6943      3.3202   4.2641546213e+01   5.5329202441e+01    0.1934292     0.160507  78.49 0.0007391336    1.209    0.173
        27 -12.5089     65.9774      4.4834   5.3884917329e+01   6.4493834466e+01    0.4456062    0.3533784  47.09  0.002991527    1.179    0.152
        28 -10.5255    169.0711      4.1407   3.4331901093e+01   4.1444248612e+01    0.2422578    0.1826211  -3.98  0.001477492    1.912    0.477
        29 -10.9750     95.2530      5.0297   4.6252065159e+01   5.8408116307e+01    0.2213578    0.1495901  74.47  0.001026947    1.602    0.376
        30 -11.2452    186.8650      3.7264   3.2449144650e+01   3.7409633105e+01    0.2209385    0.1531085 -51.27 0.0006598297    1.408    0.290
        31 -11.2592    201.8148      3.0962   3.1006420396e+01   3.4148064591e+01     0.193211    0.1344578 -70.78 0.0008196491    1.226    0.184
        32 -10.5820     78.0114      2.7212   4.9620480861e+01   6.2248783491e+01    0.1711171    0.1327779  46.08 0.0003064337    1.068    0.064
        33 -10.2650     40.2449      2.9121   6.2601920235e+01   6.9183159444e+01    0.2386971    0.1165505  24.60  0.001236406    2.129    0.530
        34 -10.8628    140.7519     12.1695   4.0155169206e+01   4.7350118173e+01     0.293332     0.169473  31.26  0.001421709    2.386    0.581
        35 -11.4570    149.6937      2.7418   3.6234782883e+01   4.6090072040e+01    0.3364805    0.1781372  51.41  0.001762941    1.820    0.451
        36 -10.3012    102.9739      7.5032   4.5454046111e+01   5.6497934342e+01    0.1965368    0.1087036  62.96 0.0008543382    1.579    0.367
        37 -10.1095    242.3314    200.0336   6.7040146784e+01  -4.1496787304e+00    0.1810467     0.137957 -26.26 0.0007829123    1.126    0.112
        38 -10.3918    249.4853    250.0539   7.4373845107e+01  -1.2088837742e+01     0.161462   0.09081756 -27.46  0.001016507    1.566    0.361
        39 -10.2301     21.3210    249.4302   1.1963791405e+02   1.8836000513e+01        0.207    0.1068332  73.29  0.001181249    1.782    0.439
        40 -10.1919     13.1100    249.2211   1.2116438446e+02   1.9741606164e+01    0.2355097    0.1018382  68.15  0.001242857    2.132    0.531
        41 -10.1227      3.5426    250.5136   1.2297861676e+02   2.0449131400e+01    0.2138772   0.09341272  34.40  0.001209956    2.162    0.538
        42 -10.2998    229.0132    199.9992   6.9349041021e+01  -2.2771020876e+00    0.1822675    0.1625527 -68.56  0.001141258    1.709    0.415
        43 -10.7299    247.7252    193.7733   6.4994669988e+01  -3.9083189834e+00    0.2248269    0.1862031 -43.42  0.001476044    1.419    0.295
        44 -10.2730    231.6415    194.1301   6.7796440199e+01  -1.7025722109e+00    0.2002166    0.1778265  32.07  0.001306819    1.342    0.255
        45 -11.0689    237.3911    187.7899   6.5613552788e+01  -1.5031246783e+00    0.3070949    0.1546466 -39.83  0.001101855    1.780    0.438
        46 -10.5164    210.5592    188.7594   7.0635215065e+01   2.4456327497e+00    0.1861467    0.1224603 -48.02 0.0009519445    1.651    0.394
        47  -9.7742    250.0000    185.9915   6.3186770413e+01  -3.0000446393e+00    0.2039812   0.06020686 -39.47 0.0007964973    2.901    0.655
        48 -10.8913    224.4203    183.7385   6.7109680140e+01   1.1258582260e+00    0.2530798    0.1158773 -43.61  0.001132077    2.091    0.522
        49 -11.3957      3.5394    188.0307   1.1941963463e+02   3.3859469609e+01    0.2443975    0.1378314  50.44  0.001015423    1.662    0.398
        50 -10.6946    241.9964    180.1764   6.3400724827e+01  -9.2943380014e-01    0.2868552    0.1723316 -45.89  0.001535842    1.693    0.409
        51  -9.7468    230.6568    180.3119   6.5349205756e+01   7.4647295145e-01    0.1204937    0.1041334 -73.18 0.0007046197    1.703    0.413
        52 -10.2151    219.2210    178.4129   6.7014807525e+01   2.8770049031e+00    0.1740618    0.1276921  49.27 0.0009459167    1.674    0.402
        53 -10.0743    233.5449    174.3153   6.3692031562e+01   1.3190973952e+00    0.2510402    0.1129318 -43.22  0.001130936    2.051    0.513
        54 -10.7042    225.7960    173.2808   6.4829974654e+01   2.7180622347e+00    0.3023009    0.1636791 -37.99  0.001476614    1.650    0.394
        55 -12.2843      5.3630    172.0511   1.1776938161e+02   3.7490327065e+01    0.2835172    0.2229782 -51.74  0.001539611    1.416    0.294
        56 -10.2330    193.1704    165.8254   6.9464669929e+01   9.7152728388e+00    0.2049666     0.166374  -9.10  0.001039096    1.324    0.245
        57 -11.0281    213.1292    163.6743   6.5180523544e+01   6.5549771702e+00    0.2857253    0.1900914 -33.68  0.001195584    1.394    0.283
        58 -10.3297    246.0341    157.9649   5.8465965694e+01   2.1453507824e+00    0.1997156    0.1694911 -31.46 0.0009417081    1.036    0.035
        59 -10.4168    226.7595    157.0747   6.1423138778e+01   5.4132583105e+00    0.2717929    0.1530386 -35.53  0.001321822    1.605    0.377
        60  -9.5838    237.3265    169.6575   6.2149803265e+01   1.5239520698e+00    0.1245028    0.1002295 -65.88  0.000705108    1.738    0.425
        61 -10.3827    242.6528    153.5246   5.8118241077e+01   3.4235397821e+00    0.3167551    0.1077888 -40.63  0.001268569    2.499    0.600
        62 -11.9192    244.6011    148.0214   5.6726083579e+01   4.0440667386e+00    0.6113583    0.2041772 -38.82  0.002435593    2.572    0.611
        63 -10.7772    221.9491    153.6657   6.1552502671e+01   6.8462691794e+00    0.2281875    0.1386463 -67.69 0.0008947117    3.247    0.692
        64 -10.0869    206.4869    153.4892   6.4296430974e+01   9.6414804983e+00    0.1413483    0.1286072 -27.42 8.526677e-05    1.005    0.005
        65 -10.7714    250.3921    151.4583   5.6529970410e+01   2.5557149209e+00     0.326451   0.09992456 -43.67  0.001254894    2.857    0.650
        66 -10.1562    235.7476    148.1698   5.8135846069e+01   5.4683960512e+00    0.2106102    0.1398703 -73.12 0.0009488181    2.766    0.639
        67  -9.7065    182.6573    148.6913   6.7957891846e+01   1.5135729269e+01    0.1519203    0.1155434  -0.82 0.0007044115    1.694    0.410
        68 -11.0794    224.3641    145.9736   5.9550052792e+01   7.8091674047e+00     0.326583    0.2150503 -36.12  0.001595295    1.362    0.266
        69 -10.1595     17.3235    146.6828   1.1208413076e+02   4.2734864828e+01    0.1365323   0.08836224  67.58 0.0006458851    1.668    0.401
        70 -10.0211    230.3804    141.1855   5.7568460769e+01   7.6073574431e+00     0.200613    0.1105366 -47.98 0.0009484056    1.729    0.422
        71  -9.9425    250.5027    140.0910   5.4279542051e+01   4.4293936537e+00    0.1994123    0.1073011 -39.24  0.001018199    1.547    0.353
        72 -10.6224    224.6266    140.1718   5.8296916450e+01   8.8044881500e+00    0.2004626    0.1161856 -32.44  0.000877588    1.682    0.405
        73 -10.9114    218.5434    138.5101   5.8967459333e+01   1.0209678656e+01    0.2291868     0.135435  60.95  0.001032738    2.318    0.569
        74 -11.7887    242.1667    133.8405   5.4246059476e+01   6.8554543628e+00    0.5216524    0.2992583 -25.94  0.002306886    2.002    0.500
        75 -11.2662    248.8765    134.9001   5.3483442066e+01   5.5593420652e+00     0.389899    0.1609617 -42.81  0.001222561    2.030    0.507
        76 -11.0166    248.7666    130.5717   5.2635601089e+01   6.3012301537e+00    0.2320355    0.1679136 -54.39  0.000997675    1.379    0.275
        77 -11.3628    234.7259    134.4196   5.5487684226e+01   8.0352142089e+00    0.2687159    0.1644492 -41.17  0.001394346    1.409    0.290
        78 -10.5365    209.6939    137.9850   6.0395899664e+01   1.1962829372e+01    0.2086065    0.1705121 -39.51 0.0006340442    1.114    0.102
        79 -11.0392    221.5205    129.9352   5.6643583052e+01   1.1213447427e+01    0.1984542    0.1936511  64.46  0.001240353    1.154    0.133
        80 -10.0853    186.9276    128.4779   6.2540343836e+01   1.8327226854e+01     0.212494    0.1471127  49.07 0.0008243651    1.527    0.345
        81 -10.6587      2.0284    127.0055   1.1428230466e+02   4.8686629710e+01    0.2017555    0.1646728 -72.78  0.001297579    1.015    0.015
        82 -11.9533    241.4380    124.9558   5.2544473860e+01   8.4926861112e+00    0.3166398    0.2161852 -46.49  0.001306103    1.277    0.217
        83 -10.3849    206.5041    126.5019   5.8443825509e+01   1.4731809124e+01    0.1425424    0.1300533 -47.05 -1.932471e-05    1.024    0.023
        84  -9.3506    131.9730    126.0072   7.4463309813e+01   3.0524822456e+01    0.1804646    0.1766042  46.28 0.0009501716    1.029    0.028
        85 -10.7321    228.5132    124.9826   5.4478887466e+01   1.0800404838e+01    0.2172351    0.1190445 -40.31  0.001035709    1.599    0.375
        86 -10.0966    188.6450    123.5100   6.1058505012e+01   1.8944490683e+01    0.2645903    0.1325225 -42.17 0.0008501781    1.885    0.470
        87 -10.3350    212.8556    122.8039   5.6534264429e+01   1.4164235418e+01    0.1976916    0.1588016 -65.40 0.0007653159    1.355    0.262
        88  -9.7082     69.1637    122.8201   9.2091882339e+01   4.2807723458e+01    0.1932805    0.1621284 -29.27 0.0002777836    1.265    0.210
        89  -9.6771    243.4890    118.9851   5.1035637676e+01   9.1431000560e+00    0.1900255   0.09331863 -56.26 0.0008096538    2.469    0.595
        90 -10.7290    249.4619    118.1350   5.0048989948e+01   8.2518474830e+00    0.2119628    0.1878682  53.71  0.001396768    1.350    0.259
        91 -12.3596    231.2644    116.3357   5.2237109596e+01   1.1799217605e+01    0.4040136    0.2521088 -51.07   0.00163622    1.501    0.334
        92 -12.9379    242.3392    104.5740   4.8240982542e+01   1.1746706519e+01    0.6909327    0.2563335 -38.06  0.002871503    2.406    0.584
        93 -11.1795    249.2043     98.1941   4.6072586077e+01   1.1544231776e+01    0.2632051    0.1711173 -56.63 0.0009873781    1.441    0.306
        94 -12.5811    248.0383    112.2729   4.9058394628e+01   9.4640788907e+00    0.4645741    0.4466846 -12.37  0.003190798    1.228    0.186
        95 -12.7887    248.0158    104.5214   4.7496299220e+01   1.0735703349e+01    0.9860563    0.3140357 -49.97  0.003623061    3.283    0.695
        96  -9.7191    104.9685    111.5364   7.8275350830e+01   3.9296073559e+01    0.2277189    0.1508168  40.95 0.0005212723    1.523    0.343
        97  -9.7716    207.3259    110.3249   5.4676204059e+01   1.7545452266e+01    0.1389177    0.1117181   1.61 0.0007049067    1.692    0.409
        98 -10.8128    236.3267    107.9560   4.9753013302e+01   1.2287887867e+01    0.1966219     0.149201 -45.32 0.0009682832    1.129    0.114
        99 -10.0552    121.2912    104.2610   7.1719663798e+01   3.7564474292e+01    0.2485404    0.1807421  88.16   0.00104344    2.067    0.516
       100 -11.4036    238.9965     84.2415   4.4467665086e+01   1.5650574699e+01    0.2915554    0.2238683 -75.10  0.001767252    1.322    0.244
       101 -12.8322    238.9915     64.6130   4.0425678077e+01   1.8637552643e+01    0.8895389    0.3159224 -56.14  0.003363065    3.403    0.706
       102 -12.6563    242.9577     91.5921   4.5498368061e+01   1.3738283324e+01    0.6601279    0.2386461 -36.76  0.002703755    2.605    0.616
       103 -13.2394    235.5153     74.7466   4.2909104312e+01   1.7800696962e+01    0.8176357    0.4146315 -54.43  0.003994146    1.862    0.463
       104 -12.1453    247.5228     85.2706   4.3670303403e+01   1.3888737541e+01    0.5179057    0.3295829 -66.77    0.0028675    1.683    0.406
       105 -12.6998    246.1595     78.2716   4.2414591095e+01   1.5219580381e+01     1.175962    0.4847582 -63.58  0.003985136    4.656    0.785
       106 -12.1297    236.9163     90.2711   4.5978995715e+01   1.5088902501e+01     0.351517    0.2368652 -53.72  0.001302686    1.316    0.240
       107 -11.2416    231.8481     91.2735   4.6844188923e+01   1.5904509852e+01    0.1997212    0.1430913 -49.09  0.001132894    1.205    0.170
       108  -9.6903     98.9738     90.4632   7.4304042472e+01   4.5069228117e+01    0.2181638    0.1451393  42.72 0.0005871808    1.500    0.333
       109 -11.0450    216.4628     88.8778   4.8435576308e+01   1.9390445954e+01    0.3206547    0.1555502  63.17  0.001405118    2.353    0.575
       110  -9.7013     27.6819     88.3614   9.8951973593e+01   5.6025164707e+01     0.130039   0.09996501  72.81 0.0007001208    1.766    0.434
       111 -10.9487    226.7066     86.2546   4.6448975588e+01   1.7735451781e+01    0.3625894    0.2012402 -23.61  0.001549158    2.734    0.634
       112 -11.1366    231.8038     83.1173   4.5120134093e+01   1.7225575382e+01    0.4202034    0.1515295 -50.59  0.001644284    2.745    0.636
       113  -9.8085    135.3957     83.2399   6.2233730816e+01   3.8656321658e+01    0.2095867    0.1380802 -52.17  0.000712689    1.645    0.392
       114 -10.1401    219.9675     81.9838   4.6419447607e+01   1.9796182199e+01    0.1638518    0.1446469 -65.82 0.0008286044    1.025    0.024
       115 -11.0124    195.7406     82.1236   5.0006806769e+01   2.4969934187e+01    0.2312157     0.194171  61.27 0.0002638812    1.235    0.190
       116  -9.8968     88.5180     82.0440   7.5105224894e+01   4.8810741218e+01    0.2123082    0.1415061 -42.81 0.0005272032    1.498    0.333
       117 -10.8490     11.8258     80.8420   1.0352741880e+02   5.8981070565e+01     0.166718    0.1481964  89.02  0.001094163    1.343    0.256
       118  -9.5832    149.3133     76.7207   5.7219202171e+01   3.6606079794e+01    0.1473329    0.1134347 -82.73 0.0003331373    1.568    0.362
       119 -10.7716    128.6527     71.1779   6.0368180391e+01   4.2368061202e+01     0.256594    0.2194547  28.92 0.0003078553    1.251    0.201
       120  -9.9781    110.2644    249.2684   1.0156011427e+02   7.2807358059e+00     0.219327   0.07864694  44.50 0.0009022179    2.439    0.590
       121 -11.1789     65.1891    248.9303   1.1093825088e+02   1.3677899711e+01    0.3558419    0.1611445  45.57  0.001799384    1.798    0.444
       122 -11.4508     35.7786    248.2858   1.1678484104e+02   1.7446593517e+01    0.3613268    0.1716928  63.29  0.001901753    1.983    0.496
       123 -10.8665    243.1518    246.3419   7.4858510801e+01  -1.0894150486e+01     0.267824    0.1492827 -38.73  0.001616897    1.914    0.478
       124 -13.6485    242.9971     52.3302   3.7539557064e+01   1.9605785091e+01    0.9060211    0.7453429  48.43  0.005988432    1.655    0.396
       125 -12.6917    245.5093     42.0930   3.5294566852e+01   2.0501458283e+01    0.7431189    0.4080335 -88.95  0.004089435    1.983    0.496
       126 -10.5568    233.2214    246.9139   7.6684391390e+01  -9.7945211707e+00    0.1942886    0.1809989 -44.94  0.001420599    1.770    0.435
       127 -10.6845     50.6029    249.8693   1.1396756291e+02   1.5356129115e+01    0.3168982    0.1082519  35.63  0.001429323    2.500    0.600
       128 -11.1523      2.7063    242.8841   1.2277464884e+02   2.2029668926e+01    0.3220145      0.15205  73.71   0.00183575    1.855    0.461
       129  -9.6143     29.1825     71.4461   9.4135530664e+01   5.9607214008e+01    0.1558817    0.1192177  32.88 0.0004687256    1.492    0.330
       130 -12.1371    226.9980     66.1383   4.2090551523e+01   2.0813790928e+01    0.4072657    0.2864124 -70.27  0.002017613    1.385    0.278
       131 -10.7017      3.0176     66.2384   1.0399654716e+02   6.2705021413e+01    0.2256716     0.147876 -57.13  0.001220245    1.294    0.227
       132 -12.2038    238.4025     30.9914   3.3727419677e+01   2.3320815112e+01    0.4674264    0.2689908  75.44  0.002433809    1.691    0.409
       133  -9.6821    145.4934     64.4895   5.4581657125e+01   3.9556659752e+01    0.1441386    0.1356273  76.64 0.0002805341    1.018    0.018
       134 -10.0794    118.8658     64.3474   6.0748598581e+01   4.5750890623e+01    0.2097709    0.1748807  44.23 0.0007798568    1.144    0.126
       135 -10.8536    100.3430     62.8042   6.5363303229e+01   5.0041394631e+01     0.317158     0.226468  46.54 0.0008601436    1.345    0.256
       136 -10.9322    135.2009     60.4001   5.5618766871e+01   4.2631117001e+01    0.4897096    0.2344335 -54.41  0.001807397    2.928    0.658
       137 -10.1576     34.1615     59.6450   8.8552545951e+01   6.1493340260e+01    0.2085226    0.1661165 -48.88  0.001271997    1.292    0.226
       138  -9.8861     19.5096     57.0127   9.4237741084e+01   6.3453046947e+01    0.1850516    0.1066758 -50.56 0.0005127168    1.533    0.348
       139  -9.5249     55.7188     51.2888   7.6719167483e+01   6.0184329896e+01     0.114696    0.1069149  79.16 0.0002136176    1.525    0.344
       140  -9.3572    120.2707     50.6712   5.6088044728e+01   4.7574400453e+01    0.1369093    0.1082363 -73.58 0.0003388542    1.583    0.368
       141 -10.4047     30.5452     45.7208   8.5498909483e+01   6.4498964970e+01    0.3029812    0.1168156 -50.95   0.00131194    2.719    0.632
       142 -10.0610    163.9917     46.4808   4.6105289731e+01   3.7828063104e+01     0.193745    0.1121654 -87.90 0.0008080273    2.391    0.582
       143 -10.6381    238.1787     44.3093   3.6391282917e+01   2.1645232228e+01    0.1983086    0.1524285 -42.57 0.0008194114    1.315    0.240
       144 -10.7102    158.9968     42.9834   4.5979798522e+01   3.9492358162e+01    0.2019637    0.1785717  81.04  0.001200281    1.028    0.027
       145 -10.2191    134.1659     42.2571   5.0363223399e+01   4.5509540561e+01    0.2578729    0.1642639 -60.60  0.001002349    1.997    0.499
       146 -11.5250    218.3409     41.7138   3.7806568182e+01   2.6079650869e+01    0.2232564    0.1786156 -61.82  0.001308354    1.084    0.078
       147  -9.6850    119.4749     38.6188   5.2393326155e+01   4.9419432926e+01    0.1363702    0.1209164  58.51 0.0001256128    1.046    0.044
       148 -10.3857     61.1993     37.7665   6.9496778094e+01   6.1462637522e+01     0.217785    0.1675497 -39.28  0.001092999    1.462    0.316
       149 -12.6454    227.4565     33.6667   3.5219240219e+01   2.5206485665e+01    0.4361479    0.2732528 -63.28  0.002583072    1.404    0.288
       150  -9.9705    185.3027     36.3290   4.0394186698e+01   3.4148605551e+01    0.1251436   0.09919761  36.90 0.0007033757    1.648    0.393
       151 -10.0059    124.4001     36.1786   5.0516738449e+01   4.8587760887e+01    0.1818766    0.1241934 -44.74 0.0006491061    1.630    0.387
       152 -10.0753     33.0000     33.9669   7.9922360386e+01   6.6192859327e+01    0.1933523   0.06357058 -43.36  0.000803658    2.951    0.661
       153 -11.9831    214.4781     30.9665   3.5881411770e+01   2.8285310863e+01    0.3660438    0.2257298  55.44  0.002056222    1.842    0.457
       154 -11.0465      8.7026     26.6940   8.9292990540e+01   6.9876264357e+01      0.19566    0.1808419   4.93   0.00137688    1.397    0.284
       155 -10.8071     69.1214     29.6920   6.3407856020e+01   6.1173632275e+01    0.3249248    0.2657553  79.32  0.001873979    1.913    0.477
       156 -10.0452    137.0089     25.4696   4.4722722386e+01   4.6876867724e+01    0.1844886    0.1718901 -38.12 0.0005079205    1.214    0.177
       157 -10.8219    215.3529     24.8243   3.4482858055e+01   2.8842522015e+01    0.1502804    0.1130828 -28.00 0.0005097066    1.662    0.398
       158 -10.0100    202.4458     26.7529   3.6166219372e+01   3.1431717916e+01    0.1565944    0.1227524 -23.97 0.0009527269    1.645    0.392
       159 -10.4294    141.9361     22.6970   4.3053363816e+01   4.6008787420e+01    0.1930297    0.1571649  70.24  0.001057118    1.075    0.070
       160  -9.5925    156.8113     22.6099   4.0724880889e+01   4.2479299134e+01     0.185608    0.1117268  80.94 0.0007117174    1.647    0.393
       161 -11.4899     16.5471     21.6481   8.3001956369e+01   6.9954512322e+01    0.3151172    0.1723194  35.68  0.001812949    2.134    0.531
       162 -10.7894    225.4116    242.8200   7.7422426238e+01  -8.2697565433e+00    0.2460581    0.1746869 -38.62  0.001584603    1.613    0.380
       163 -12.7986    249.0951     66.2325   3.9696928755e+01   1.6464007914e+01      1.28593     0.286936 -40.12   0.00472964    3.508    0.715
       164  -9.3474     97.3573     21.6982   5.1884232094e+01   5.6381519498e+01     0.126423   0.09958119 -83.21 0.0007038038    1.713    0.416
       165 -10.7412     44.9823    244.4760   1.1468238357e+02   1.7117656605e+01    0.1833731    0.1031969  37.95  0.001033323    1.594    0.373
       166 -10.2355     62.0989     19.1310   6.1529579581e+01   6.3743352440e+01    0.1989431    0.1428266  21.47 0.0006673575    1.276    0.216
       167 -10.4918     95.9849    244.0000   1.0398983801e+02   1.0370836422e+01    0.2193256   0.06386177  35.16 0.0008066252    2.972    0.663
       168 -10.1412    156.4602     16.0373   3.8980703006e+01   4.3254173136e+01    0.1808603    0.1275981 -30.81    0.0010419    1.627    0.386
       169 -10.4557     17.9011    241.2632   1.1981719655e+02   2.0829628258e+01    0.2108793     0.129837  78.52  0.001323068    1.404    0.288
       170 -11.5289    247.0823    239.7056   7.3105702775e+01  -1.0477334157e+01    0.2557666    0.1447714 -30.86   0.00157631    1.581    0.368
       171 -10.7635    240.1112    240.0319   7.4357841483e+01  -9.6979157185e+00     0.221313    0.1542051 -34.06   0.00133737    1.496    0.332
       172 -11.1877     54.9758    241.0830   1.1236518974e+02   1.6565914004e+01    0.3356653    0.1252594  43.83  0.001552517    2.154    0.536
       173 -10.3013    230.8358    236.5562   7.5419066484e+01  -8.0765459837e+00    0.2138324    0.1468851 -45.37  0.001219382    1.892    0.471
       174 -10.7441      6.9921    236.4950   1.2164897602e+02   2.2904123385e+01     0.253409    0.1046003  79.63  0.001193227    2.417    0.586
       175 -10.1776     44.3438    236.6686   1.1420621266e+02   1.8790867043e+01    0.1364295   0.07292299  61.96 0.0007050673    1.755    0.430
       176 -10.1842    249.1947    234.2284   7.1841428062e+01  -9.9909200071e+00    0.1450375    0.1236434 -23.76  0.001056288    1.393    0.282
       177 -11.2477    245.1367    231.3285   7.2045082363e+01  -9.1124096985e+00    0.2076484    0.1296902 -22.40 0.0009286306    1.379    0.275
       178 -10.5907    237.2817    230.2256   7.3218520980e+01  -7.9916072792e+00    0.2566102    0.1822899 -54.27  0.001489392    2.374    0.579
       179 -11.2092      4.8757    228.6575   1.2164153917e+02   2.4729076070e+01    0.3629014    0.1483132  59.03  0.001871993    2.111    0.526
       180 -11.5116    229.2791    228.0858   7.4276077840e+01  -6.6577296470e+00    0.2335639    0.1845934 -37.20  0.001280261    1.457    0.314
       181  -9.3842     85.2690     10.6430   5.0844404221e+01   6.0062035312e+01    0.1145678   0.09518151 -67.05 0.0006994173    1.638    0.390
       182 -10.1981    169.0070     17.7198   3.7788407875e+01   4.0121011568e+01    0.1864166    0.1437076  76.68 0.0006538083    1.118    0.106
       183 -11.2692    248.2332    227.4700   7.0867197340e+01  -8.9508114470e+00    0.2173761     0.138073 -28.51 0.0009202783    1.364    0.267
       184 -10.5199      9.6044    225.1452   1.2050683733e+02   2.5016947942e+01    0.1774608    0.1336175  36.28  0.001195822    1.452    0.311
       185 -11.3513    239.0188    220.0187   7.1166663460e+01  -6.7371136505e+00     0.379355    0.2421592 -41.84  0.001764596    1.704    0.413
       186 -11.2228    227.2285    219.5463   7.3174975956e+01  -5.1062114019e+00    0.2367072    0.1568486 -31.30  0.001410807    1.387    0.279
       187 -10.2174    194.1401    220.1829   7.9588465913e+01  -4.3574090704e-01    0.1700662    0.1573639  41.50 0.0009940668    1.343    0.255
       188 -11.5596    247.7605    217.0261   6.9150848454e+01  -7.4106190386e+00    0.4438903    0.2040457 -37.32  0.001954596    1.954    0.488
       189 -11.0027     13.0205    216.5087   1.1927358962e+02   2.6549238236e+01    0.1854967   0.06052432  51.02 0.0008104902    2.644    0.622
       190 -10.8488    233.2096    212.3314   7.0834371266e+01  -4.8126365232e+00    0.3131512     0.190951 -27.32  0.001784233    1.476    0.322
       191 -10.2703      1.6346    220.1969   1.2182494825e+02   2.6821687713e+01    0.1591997   0.08911167 -72.48  0.000658527    1.657    0.397
       192 -11.2146      2.2994    212.5261   1.2125817532e+02   2.8424126936e+01    0.2630951    0.1344329  70.28  0.001449689    1.742    0.426
       193 -10.0317    235.5845    203.7399   6.8873846474e+01  -3.8027379752e+00    0.1661564     0.107964 -42.40 0.0007214911    1.592    0.372
       194 -10.0342    206.6643    208.3319   7.5030468452e+01  -3.3892527363e-01    0.1200553    0.1077037  82.28 0.0007052165    1.735    0.423
       195 -10.0376    249.9027    201.1771   6.5983451861e+01  -5.3356968745e+00    0.1756273    0.1492159 -33.24 0.0007028973    1.307    0.235
