#   1 NUMBER                 Running object number                                     
#   2 MAG_AUTO               Kron-like elliptical aperture magnitude                    [mag]
#   3 X_IMAGE                Object position along x                                    [pixel]
#   4 Y_IMAGE                Object position along y                                    [pixel]
#   5 X_WORLD                Barycenter position along world x axis                     [deg]
#   6 Y_WORLD                Barycenter position along world y axis                     [deg]
#   7 A_WORLD                Profile RMS along major axis (world units)                 [deg]
#   8 B_WORLD                Profile RMS along minor axis (world units)                 [deg]
#   9 THETA_WORLD            Position angle (CCW/world-x)                               [deg]
#  10 FWHM_WORLD             FWHM assuming a gaussian core                              [deg]
#  11 ELONGATION             A_IMAGE/B_IMAGE                                           
#  12 ELLIPTICITY            1 - B_IMAGE/A_IMAGE                                       
         1 -14.4645    162.5261     54.2021   7.4708507909e+01   3.7694540732e+01      1.84139     1.466163   9.45  0.005520108    1.375    0.273
         2 -14.3950    175.6838     38.7961   6.7134333831e+01   3.6449972630e+01     1.213165      1.01864  29.32  0.003916912    1.218    0.179
         3 -14.5365    193.5693      7.4195   5.4715078678e+01   3.5206989533e+01     1.189803    0.9814953  40.79  0.004836642    1.267    0.211
         4 -10.0649    163.5403    202.7329   1.0967964553e+02   1.1607356175e+01    0.2252055    0.1366781  52.04  0.001188105    1.846    0.458
         5 -17.5670     84.3959    192.6596   1.2488302442e+02   2.5359109810e+01     7.192885      3.44018 -69.72   0.03684312    2.404    0.584
         6 -12.6513    153.3127    194.5499   1.1051479278e+02   1.4559763430e+01    0.3315569    0.2971698  81.71  0.001278682    1.448    0.309
         7 -10.9006    207.4738    193.9647   9.9714935535e+01   5.5883690723e+00    0.1744033    0.1191992 -26.83 0.0007227671    1.577    0.366
         8 -12.4034    193.6029    195.6281   1.0263166848e+02   7.6615199907e+00    0.9938383    0.6427249 -66.55  0.004045249    4.686    0.787
         9 -10.8561    173.0866    189.4639   1.0564510804e+02   1.2026693179e+01    0.1995064    0.1876752  66.09  0.001299029    1.390    0.280
        10 -11.7424    152.9015    185.6875   1.0920782745e+02   1.6080531416e+01     0.230717    0.2048693 -56.37  0.001169252    1.384    0.278
        11 -11.1508     33.0332    184.3940   1.3501688255e+02   3.2846798333e+01    0.1605337    0.1277185  83.67 0.0001641939    1.112    0.101
        12 -10.4872    169.9094    182.7065   1.0514546120e+02   1.3631702102e+01     0.199341     0.149839  35.13 0.0009445282    1.143    0.125
        13 -11.9833    204.3114    200.1242   1.0136449272e+02   5.3005773439e+00    0.3864727    0.1641246  32.68  0.001805714    2.052    0.513
        14 -11.6081     11.3321    206.2063   1.4035020581e+02   3.0726226865e+01    0.2263185     0.153124  37.17  0.001742838    1.497    0.332
        15 -10.2112      3.2246    176.3152   1.4066290328e+02   3.6948425935e+01   0.09314214   0.06760019 -68.39 0.0003702697    1.489    0.329
        16 -11.2562    201.8703    169.8235   9.6314653553e+01   9.9138268626e+00    0.5426048    0.2571178 -47.75  0.002215785    3.201    0.688
        17 -11.2441    204.5629    166.5030   9.5135807681e+01   9.9149171362e+00    0.5729703    0.3372806 -40.67  0.002854581    1.975    0.494
        18 -12.6534    194.0456    166.9308   9.7291172973e+01   1.1769278370e+01    0.6574944    0.4104372 -52.18  0.001764279    2.407    0.585
        19 -11.2382    190.2126    155.6441   9.5782936557e+01   1.4256925257e+01    0.4423562    0.3931224   6.69  0.002303984    1.059    0.056
        20 -10.6504    163.8189    169.6407   1.0409984351e+02   1.6870636521e+01    0.2888916    0.2313108  60.99  0.001163281    1.546    0.353
        21 -11.9747    230.3139    166.7387   9.0403487004e+01   5.3278869957e+00    0.3625175    0.1668287 -38.54   0.00165254    2.489    0.598
        22  -9.4581     25.4555    165.4801   1.3536340295e+02   3.7346394629e+01     0.216804    0.1133771  20.01  0.001077219    2.512    0.602
        23  -9.7200     29.9392    165.0000   1.3432762675e+02   3.7046619940e+01    0.1428543   0.07744162  30.61 0.0005872008    1.943    0.485
        24 -11.2495    119.8562    163.5905   1.1298425638e+02   2.5708206623e+01    0.2341468    0.2036087  77.06   0.00035659    1.268    0.211
        25  -9.9545    140.5758    163.2365   1.0810256861e+02   2.2207587948e+01     0.177812    0.1314848 -33.46 0.0004284902    1.543    0.352
        26 -12.0336    114.0771    161.1525   1.1395729845e+02   2.7144598055e+01    0.3674013    0.2714024  84.09  0.001158518    1.755    0.430
        27 -11.2246    166.2634    154.5880   1.0065756865e+02   1.9028435248e+01    0.4243182    0.2700423  66.40  0.001741461    2.784    0.641
        28 -12.6179    133.9857    145.8969   1.0639423971e+02   2.6759649220e+01     1.257797    0.3408159 -54.71  0.003231967    6.177    0.838
        29 -10.8306    174.2679    148.5291   9.7649068240e+01   1.8538213584e+01    0.3322046    0.2676221 -58.68  0.001091429    1.643    0.391
        30 -17.8931     65.5119    237.7696   1.3231300261e+02   1.9933387071e+01     7.063376     4.562582  58.87   0.03180617    1.239    0.193
        31 -12.1004    144.2041    145.9099   1.0394116495e+02   2.4849435264e+01    0.4557542    0.3027955 -70.23  0.001992617    2.386    0.581
        32 -12.5964    102.6271    137.6802   1.1276342681e+02   3.3934964482e+01    0.2787038    0.2754223  40.61 0.0004631061    1.051    0.049
        33 -11.4247    153.4558    201.5031   1.1152643813e+02   1.3435349964e+01     0.182832    0.1504251  33.73 0.0008397386    1.008    0.008
        34 -12.5043    135.5979    127.0096   1.0199387237e+02   3.0279666990e+01     1.220303    0.2246505 -50.08  0.002555246    8.058    0.876
        35 -12.3707    105.9460    130.8013   1.1056479622e+02   3.4888257707e+01    0.4241266    0.3703616 -77.81  0.001126436    1.231    0.188
        36 -11.5815    106.7862    124.7755   1.0910935231e+02   3.6067360524e+01     0.287777    0.2476168 -22.94 0.0006217537    1.305    0.234
        37 -11.7927    118.3532    129.1064   1.0691526937e+02   3.3090138304e+01     0.350571    0.2621958 -32.72 0.0007322641    1.498    0.332
        38 -11.5451    160.6614    127.6554   9.6045380819e+01   2.5077449363e+01    0.4295016    0.3451247 -63.82  0.001638964    1.619    0.383
        39 -11.8886    122.0406    123.2032   1.0465283977e+02   3.3671172983e+01    0.4668426    0.2887849 -18.79  0.001812418    2.711    0.631
        40 -10.7581    112.9544    118.4508   1.0604056291e+02   3.6366682045e+01    0.2618771    0.2166665 -50.17 0.0004277104    1.222    0.182
        41 -11.2903    168.3914    113.3509   9.0752938078e+01   2.6089393574e+01    0.4021773    0.3257511 -84.66  0.000978412    1.828    0.453
        42 -11.3939    134.5691    105.3187   9.6971350077e+01   3.4941682264e+01    0.5128092    0.1473653 -43.69  0.001524888    3.526    0.716
        43 -10.7375    205.4959    110.1570   8.2217839125e+01   1.8465276899e+01    0.3187405    0.2023655  37.76 0.0009308331    1.561    0.359
        44 -11.1585    130.0393    109.4969   9.9250252265e+01   3.5007235328e+01    0.2866744    0.2083981 -26.55 0.0007709812    1.543    0.352
        45 -12.3295    157.3395    199.7932   1.1048514326e+02   1.3068798146e+01    0.4399607    0.3141882  87.69   0.00223689    2.750    0.636
        46 -19.1238     44.0399    101.1850   1.2330629080e+02   5.0087346545e+01      15.9299    0.8464698 -65.67   0.02534027   16.408    0.939
        47  -9.6905    124.6013     92.1998   9.6114348843e+01   3.9715266362e+01    0.2046934    0.1431931 -31.58 0.0002905732    1.495    0.331
        48 -10.5862    149.0070     80.3429   8.6151215895e+01   3.6618202638e+01    0.2211688    0.1986321  38.25 0.0004105671    1.098    0.089
        49 -10.7573     86.0707     77.4698   1.0375116659e+02   5.0116102445e+01    0.2224466    0.1878153 -43.05 0.0005608011    1.117    0.104
        50 -10.2590    177.1387     75.1838   7.8233863567e+01   3.0729740819e+01    0.2056688    0.1858486 -69.89 0.0003482111    1.310    0.237
        51 -10.2536    105.8110     73.6264   9.6131705472e+01   4.7353939505e+01    0.2147502    0.1412666  50.55 0.0009560719    1.699    0.411
        52 -12.1596    247.9867    248.6185   1.0140369344e+02  -6.1715463605e+00    0.3396105    0.1672243  34.48  0.002206201    1.602    0.376
        53 -12.0395    167.5927    232.4491   1.1303599201e+02   6.8395702422e+00    0.3044553    0.1818542  36.12 0.0007105503    1.269    0.212
        54 -13.4883    179.9234     31.5714   6.4095057874e+01   3.6236949818e+01    0.7445555    0.4901739  40.52  0.001538236    1.570    0.363
        55 -10.3660     13.4117     59.8665   1.2703027478e+02   6.2051642613e+01    0.1694076    0.1586249 -83.60 0.0004119201    1.203    0.169
        56 -10.2266    120.3452     24.7633   7.3688315497e+01   5.2469086348e+01    0.2399909    0.1937703  64.54  0.000583589    1.369    0.270
