#   1 NUMBER                 Running object number                                     
#   2 MAG_AUTO               Kron-like elliptical aperture magnitude                    [mag]
#   3 X_IMAGE                Object position along x                                    [pixel]
#   4 Y_IMAGE                Object position along y                                    [pixel]
#   5 X_WORLD                Barycenter position along world x axis                     [deg]
#   6 Y_WORLD                Barycenter position along world y axis                     [deg]
#   7 A_WORLD                Profile RMS along major axis (world units)                 [deg]
#   8 B_WORLD                Profile RMS along minor axis (world units)                 [deg]
#   9 THETA_WORLD            Position angle (CCW/world-x)                               [deg]
#  10 FWHM_WORLD             FWHM assuming a gaussian core                              [deg]
#  11 ELONGATION             A_IMAGE/B_IMAGE                                           
#  12 ELLIPTICITY            1 - B_IMAGE/A_IMAGE                                       
         1 -11.0689     33.4573     63.1689   9.3051470091e+01   6.1203851423e+01     2.246029    0.8769686 -27.27  0.006907234    5.183    0.807
         2 -11.1514     23.6180     32.6025   8.6852707310e+01   6.7985455280e+01     1.298376    0.4819309 -33.69  0.003403308    2.710    0.631
         3 -10.0926      7.4339     28.2503   9.3587259055e+01   7.0154271855e+01     0.288828    0.2584776  40.25  0.001029563    1.653    0.395
         4 -10.7904    134.0247     30.9754   4.8968418744e+01   4.7567535699e+01    0.3837387    0.2813307   4.34  0.001993162    1.778    0.438
         5  -9.7653     60.8555     31.6290   6.9808903625e+01   6.3047607711e+01    0.8718206    0.3459803 -27.43  0.003110553    2.968    0.663
         6 -10.1979     62.9728      3.1136   5.6115464197e+01   6.5942796397e+01    0.5453609    0.4072634 -12.55  0.003566777    1.381    0.276
         7 -10.5358     73.6206     17.4708   5.9127673394e+01   6.2493170563e+01     1.304322    0.4044764 -25.89  0.005000794    3.611    0.723
         8  -9.5323     77.8530      4.2610   5.2070523461e+01   6.2918852917e+01    0.5031256    0.3001103   0.32  0.001998662    1.951    0.488
         9 -10.3150     69.5069     40.8505   7.0342596620e+01   6.0185699309e+01     1.055897    0.3675374 -34.98  0.004080638    2.946    0.661
        10  -9.8525     76.1987     32.0975   6.4447027184e+01   6.0213065592e+01    0.4967548    0.3351919  58.23 0.0009420656    1.805    0.446
        11  -9.7798     64.6527     13.3213   6.0298686058e+01   6.4643138584e+01     0.309548     0.259339   9.07 0.0002330222    1.085    0.078
        12  -9.9153     79.6450     23.7085   5.9852859235e+01   6.0597816709e+01    0.6379946    0.2721724  32.23  0.001850183    2.913    0.657
        13  -9.7751     63.0534     20.9106   6.4304220311e+01   6.4074654634e+01     0.526311    0.3359497 -50.85  0.001800121    2.474    0.596
        14  -9.4822    101.0177     32.2622   5.7012636716e+01   5.5069546430e+01    0.4423485    0.2078819 -30.61  0.001341716    2.260    0.557
        15 -10.1780     46.3088     29.4244   7.4833674968e+01   6.5664582231e+01    0.4788207    0.2603209 -45.66  0.001174925    2.219    0.549
        16 -10.2492     51.5469     14.8456   6.5947835837e+01   6.6775682270e+01    0.9485247    0.4789105  10.43  0.004000004    3.257    0.693
        17  -8.8565    137.3186      8.3338   4.1114856754e+01   4.9123309363e+01    0.3069887    0.1359389 -44.66  0.001334973    2.570    0.611
        18  -8.2121    120.9694      5.9420   4.3037584693e+01   5.3216606518e+01     0.234231    0.1668806  63.99 0.0005522169    1.209    0.173
        19  -8.3881    135.7128      1.4897   3.9199026400e+01   5.0082896427e+01    0.2783366    0.1076481  68.18  0.001212374    2.173    0.540
        20  -9.7092    118.7417     20.5394   4.8534422255e+01   5.2374060312e+01    0.5445619    0.3216192 -14.63  0.000971137    2.087    0.521
        21  -9.3064    132.7068     17.0165   4.4663727920e+01   4.9414862493e+01    0.5190833    0.2193237  64.75  0.001927561    2.094    0.523
        22  -9.0644    125.2541     13.0268   4.4677440641e+01   5.1579573352e+01    0.3645713    0.2685332  63.24 0.0007612704    1.188    0.158
        23  -9.1001    126.9337      9.0175   4.3033585664e+01   5.1544548635e+01     0.331872    0.1754274  46.12 0.0006033484    1.792    0.442
        24  -9.0319    125.6905      4.9672   4.1893044542e+01   5.2184107142e+01    0.4309276    0.2453288  17.81   0.00191897    2.516    0.603
        25  -9.3897    131.6047      5.6783   4.1161897977e+01   5.0720133278e+01    0.4590183    0.2478772  49.85  0.002345362    1.683    0.406
        26  -9.7514     10.2203     18.8865   8.8151691815e+01   7.1492785294e+01    0.5924457    0.2594195 -10.77   0.00246934    3.823    0.738
        27  -8.7772     40.8506     20.2234   7.3093396979e+01   6.7755855023e+01    0.2933551    0.1587359 -39.80  0.001094175    2.013    0.503
        28 -10.8188     37.3907      9.7142   6.9539296254e+01   6.9583164387e+01     0.844609    0.3330139 -37.32  0.003125318    2.762    0.638
        29  -9.4192      2.3371     14.2824   9.0676282967e+01   7.2851550092e+01    0.4098345    0.2240398 -58.05   0.00195147    2.647    0.622
        30 -10.4467      5.7612      4.5917   8.3864922596e+01   7.4008086922e+01    0.5220186    0.3591932   2.85  0.001888634    1.223    0.182
        31  -9.7526     30.1485     10.9075   7.3617459990e+01   7.0447236896e+01    0.3930338    0.2892881 -40.96   0.00247785    1.776    0.437
        32  -9.4924     24.5719     11.5162   7.6768168211e+01   7.1076139780e+01    0.3702789    0.2605501  13.52   0.00150991    1.233    0.189
        33  -9.1259     19.5220      8.9625   7.8159239583e+01   7.2008367106e+01    0.3039351    0.1977027   1.47  0.001478711    1.373    0.272
        34  -9.8237     18.0465      3.8611   7.6266766526e+01   7.2832395743e+01      0.34016    0.2979192  47.11  0.001725824    2.000    0.500
        35  -9.8292    133.8417     12.4520   4.2988014863e+01   4.9583278899e+01    0.4150782    0.2412854 -38.71  0.002146353    1.883    0.469
        36  -9.1189     96.2511     15.0014   5.1624281687e+01   5.8045078169e+01    0.4885935     0.236061 -13.51  0.002078584    2.662    0.624
        37  -8.9305    115.4915      4.3079   4.3461584889e+01   5.4630092533e+01    0.3071813    0.2092357 -54.72 0.0007912559    1.808    0.447
        38  -8.2833    104.4361      2.1600   4.4825752568e+01   5.7335109218e+01    0.2791375    0.1722687  41.21  0.001555027    1.485    0.326
        39  -8.6110    112.2577     15.4590   4.8093767844e+01   5.4393649019e+01     0.237186    0.1916444 -35.12 0.0005440432    1.396    0.284
        40  -9.2347    114.2907      9.7939   4.5639925445e+01   5.4446915167e+01    0.3510683     0.213807  41.88 0.0001606265    1.560    0.359
        41  -9.3218    110.2848      5.3173   4.4818812601e+01   5.5751722795e+01    0.5090993    0.2505957 -38.12  0.002491583    2.339    0.573
        42  -8.7562    104.6441     15.2433   4.9700280869e+01   5.6153371771e+01    0.3387559    0.1710813  25.72  0.001433153    2.765    0.638
        43  -8.3027    190.7323     13.5915   3.5876574869e+01   3.5799354612e+01    0.3002736    0.1929097  30.93  0.001062006    2.501    0.600
        44  -9.4549     85.2682     12.9781   5.3708039045e+01   6.0597104516e+01    0.3974893     0.253427 -55.98  0.001554807    2.488    0.598
        45  -7.8291     80.4980     12.5210   5.4875052139e+01   6.1629330586e+01    0.2311584     0.178844 -52.49  0.001017082    1.769    0.435
        46  -7.9960    141.8280     12.1730   4.1618971730e+01   4.7685859790e+01    0.1932204    0.1653232 -76.97 0.0006228513    1.199    0.166
        47  -8.6690    156.0197      8.4906   3.8511549866e+01   4.4598352183e+01     0.271111    0.1791802 -27.23  0.001514096    1.733    0.423
        48  -8.9392    102.2807      8.2771   4.7597757479e+01   5.7323513844e+01    0.3123105    0.2108886 -55.51 0.0006732976    1.978    0.494
        49  -7.8016     68.1659      8.8485   5.7067049139e+01   6.4430484030e+01    0.1700117    0.1220616  20.73 0.0004016976    1.283    0.221
        50  -7.2945    213.4377      8.5776   3.2645976106e+01   3.1154174660e+01    0.1220692   0.09879906 -78.42 7.404609e-05    1.021    0.020
        51  -8.4712     97.8360      6.1187   4.7765537106e+01   5.8498125598e+01    0.2232358    0.1515963  28.12 0.0007406739    1.500    0.333
        52  -8.5004     95.8706      2.8170   4.6916442254e+01   5.9198582695e+01    0.2203957    0.1792144 -47.41 0.0003978483    1.516    0.340
        53  -8.4451    143.1603      4.8871   3.9184648936e+01   4.8019129615e+01    0.1946766     0.154526 -74.16 0.0005802512    1.303    0.233
        54  -8.6949     88.6941      3.0786   4.8712995953e+01   6.0740462219e+01    0.3660641    0.1950921  21.48  0.001653418    2.281    0.562
        55  -7.4098    167.5400      1.3763   3.5174989837e+01   4.2474073591e+01    0.1266665    0.1029197  85.94  6.71115e-05    1.036    0.035
        56  -7.4415    151.4441      1.4607   3.7067681754e+01   4.6318125613e+01    0.1274158     0.107453  84.87 5.015045e-05    1.050    0.048
        57  -8.5029    100.2193    119.3616   8.4910218849e+01   3.8564096909e+01    0.6633255    0.3898603   3.94  0.001891843    4.799    0.792
        58 -11.2687    199.5383    247.6743   8.6451398775e+01  -5.6535742192e+00    0.8232783    0.3454663  38.41  0.002696245    2.179    0.541
        59 -10.0248    169.5436    249.6172   9.2574455586e+01  -1.5829200754e+00    0.3009508    0.2047959  28.53  0.001799849    1.247    0.198
        60  -8.5718      1.6246    116.8688   1.1582651283e+02   5.1153951453e+01    0.3564187    0.1426692 -84.11  0.001492904    2.609    0.617
        61 -10.3171     92.0567    113.0101   8.5781881933e+01   4.1580010651e+01     0.688415    0.5352268  75.42  0.001759328    1.653    0.395
        62  -9.0537     92.8722    103.5827   8.3053853033e+01   4.3650476409e+01    0.7640437    0.4461928  16.82   0.00280024    2.807    0.644
        63 -10.5059     78.1743    112.3044   8.9974990544e+01   4.4112226208e+01    0.8017193    0.4120418 -65.91   0.00185011    2.436    0.590
        64 -10.3602     58.4421    124.6957   9.9046487316e+01   4.3914255141e+01     1.000041    0.5584862  80.48   0.00222493    3.486    0.713
        65  -8.4056    152.4253    115.2469   6.9852610224e+01   2.8572293834e+01    0.2126457    0.2050871  34.88 0.0006546628    1.076    0.071
        66  -8.7589     73.0319    115.4731   9.2384161709e+01   4.4144674112e+01    0.2185795     0.149079  32.03 0.0007098128    1.585    0.369
        67  -7.4061    167.2769    113.6961   6.6075620805e+01   2.5552754263e+01    0.1538217    0.1208117 -75.71 0.0006960485    1.545    0.353
        68 -10.0043     66.0868    103.4547   9.1776838918e+01   4.8100661066e+01    0.8170807    0.5589604  16.24  0.003781868    1.773    0.436
        69 -10.3464     63.0539     95.5599   9.0801718620e+01   5.0404190373e+01    0.5947291    0.4005271 -86.94  0.001682359    2.405    0.584
        70  -9.1032     64.1207     86.6907   8.7999227082e+01   5.2278017787e+01     1.233674    0.5919005 -29.78  0.004385231    3.132    0.681
        71 -10.1550     65.8070    110.7717   9.3639911820e+01   4.6369992616e+01    0.4793683     0.424512 -73.53  0.001116431    1.163    0.140
        72  -9.7701     59.5882    109.3228   9.5376903930e+01   4.7590019328e+01    0.3597403     0.287975  79.76 0.0009840541    1.525    0.344
        73 -10.4311      4.8472     86.2244   1.1020169211e+02   5.8290691685e+01     1.422156    0.3274157 -62.25  0.004813078    2.855    0.650
        74 -10.2346     14.4447    110.5997   1.1085332439e+02   5.1870678302e+01    0.6804383    0.3106663 -79.79  0.002674717    2.304    0.566
        75 -11.7151     21.2150     98.8703   1.0653033314e+02   5.4217452806e+01     1.920096    0.9913206 -84.67  0.006550955    2.594    0.614
        76  -7.5471    141.3246    249.6738   9.8250608987e+01   2.6731359026e+00    0.1263273   0.08901883  60.07 0.0003316434    1.692    0.409
        77 -10.2901     16.0564     70.3924   1.0242265797e+02   6.1176864460e+01     1.283337    0.1910404 -58.69  0.004064565    4.200    0.762
        78 -10.4283    157.7660    246.4340   9.4479534280e+01   7.0210736462e-01    0.4354092    0.1803259  28.14  0.001818532    2.628    0.619
        79 -10.0530     49.9970     54.1650   8.3074349318e+01   6.0991493181e+01    0.5222472    0.3175197 -55.96   0.00181498    2.036    0.509
        80  -9.5982     56.0536     43.4658   7.6565559090e+01   6.1998890393e+01    0.7916654    0.4738563  -0.15  0.003643615    2.362    0.577
        81 -10.2000     11.9083     45.5854   9.7365150582e+01   6.6626336052e+01    0.7877586    0.3627563  -2.79  0.003080883    2.904    0.656
        82 -10.2974     34.4794     90.4963   9.9925935547e+01   5.5041237254e+01    0.5773684    0.3147804 -79.14  0.002080634    2.670    0.625
        83 -10.1383     36.9483     81.0346   9.6661129150e+01   5.6970202378e+01    0.7525603    0.3709888 -16.86  0.002774476    3.679    0.728
        84 -10.3355      4.8309     41.9185   9.9703786461e+01   6.7808720132e+01    0.6961457    0.3032093 -57.09  0.002720544    2.012    0.503
        85  -8.2579     88.0060    249.6875   1.0907878778e+02   1.0593393718e+01    0.1771441    0.1306646  47.06 0.0003572263    1.119    0.106
        86 -10.6456    117.1764    124.0050   8.1197827448e+01   3.4161957035e+01    0.9777953    0.6995849 -45.96  0.002059378    1.368    0.269
        87 -10.7142     25.6300     77.9652   1.0036086783e+02   5.8737565698e+01    0.7049543    0.4937544  87.95  0.003719312    2.058    0.514
        88  -8.4979    238.4896    110.5527   5.2635240128e+01   1.1049359027e+01    0.1791595    0.1320604  71.84 -1.632958e-05    1.692    0.409
        89 -10.9944     45.0214    102.2671   9.8782980233e+01   5.1117616095e+01    0.9602812    0.5452393  73.31   0.00308306    3.676    0.728
        90 -10.2035    149.4716    102.0142   6.7030711229e+01   3.2026785401e+01    0.9351811    0.3138033 -41.55  0.002354973    2.943    0.660
        91  -9.6708      6.0436    103.3353   1.1256520602e+02   5.4176238096e+01     0.428989    0.2647437  78.51   0.00153374    1.944    0.486
        92  -8.3731     74.0455    102.8559   8.8948617742e+01   4.7036453329e+01    0.2632101    0.2000016 -54.48 0.0006159776    1.253    0.202
        93  -8.7766    158.9462    101.4542   6.4703047210e+01   2.9955235783e+01    0.2949811    0.2138805 -51.32 0.0005736116    1.387    0.279
        94  -9.7151     81.6899     99.1685   8.5438380754e+01   4.6647428331e+01    0.7779669    0.3291872 -49.90  0.002094827    2.225    0.551
        95 -11.3167    121.2118    109.4607   7.6307865886e+01   3.6686574055e+01     1.601983    0.6905112 -51.03  0.004498849    2.426    0.588
        96  -8.8116    245.0032     99.8226   4.9414598770e+01   1.1620701528e+01    0.2107822    0.1417157 -77.08 0.0008785413    1.977    0.494
        97  -9.5214     94.2910     97.1501   8.0826651684e+01   4.4853158041e+01    0.3787806    0.3096149 -80.63 0.0006344493    1.533    0.348
        98 -10.1669     94.5301     90.8947   7.8944960535e+01   4.6190502244e+01    0.4231253    0.3146499  21.54  0.002014159    1.542    0.352
        99  -8.5371    166.0779    103.8947   6.3789737006e+01   2.7817636890e+01    0.3145739    0.2132415 -37.94 0.0004679244    1.468    0.319
       100  -9.7435    240.6712     96.1691   4.9192084612e+01   1.3053434837e+01    0.3749317    0.2587652 -18.64  0.001917632    1.894    0.472
       101  -8.6168    164.3587     94.0330   6.1523162016e+01   3.0156847995e+01    0.3143148     0.209906 -57.81 0.0006551791    1.660    0.398
       102  -9.5468    138.7883     92.7042   6.7016469260e+01   3.6381841289e+01    0.4366094    0.3165246 -76.43 0.0008972446    1.891    0.471
       103  -9.6159    140.2451     82.1698   6.3604828477e+01   3.8104632624e+01    0.5998917    0.3230784 -31.96  0.001267479    2.097    0.523
       104  -8.9067    140.0202     74.9964   6.1525714622e+01   3.9484874892e+01     0.572732    0.2470204 -43.27  0.002111758    2.342    0.573
       105  -9.1912    157.8051     90.6578   6.2009527283e+01   3.2348602720e+01    0.4566015    0.1998359 -38.12  0.001468936    2.310    0.567
       106  -8.5860    189.9188     94.9114   5.6750921622e+01   2.4056255999e+01    0.3031321    0.2154152 -26.19 0.0007660079    1.603    0.376
       107  -8.6148    150.2439     88.8009   6.3179598402e+01   3.4487400021e+01    0.2679145    0.1984895 -52.58 0.0007274586    1.388    0.279
       108 -10.2279     85.4969     86.6352   8.0597763899e+01   4.8786830023e+01    0.5267723    0.4063639 -87.64 0.0008747209    1.911    0.477
       109  -9.6755     87.4815     78.9248   7.7572769499e+01   5.0049145282e+01    0.6638454     0.401824  19.11  0.002564166    2.319    0.569
       110  -8.6540    165.5721     82.9457   5.8241396663e+01   3.1949071374e+01     0.317026     0.235894  14.94 0.0008547733    1.957    0.489
       111 -10.5104     48.3250     82.4361   9.2650648370e+01   5.5365164096e+01     1.011521    0.4721995 -50.86  0.002248397    1.874    0.466
       112 -10.4866     55.4000     70.9111   8.6533930797e+01   5.6936289511e+01    0.6119253    0.3757769  51.39  0.001480344    2.283    0.562
       113  -9.1186     54.9373     62.9553   8.4126368240e+01   5.8614277001e+01    0.4493368     0.340563 -21.03  0.001921803    1.281    0.219
       114 -10.0282     62.7666     60.7258   8.0314817988e+01   5.7882171704e+01    0.6920882    0.2367361  37.18  0.002400168    3.000    0.667
       115  -9.6723     39.8371    106.2767   1.0145142849e+02   5.0708858806e+01    0.3927545    0.2297923 -79.23  0.001137056    2.076    0.518
       116  -8.9393    156.9707     76.4543   5.8190972713e+01   3.5176176606e+01    0.3497682    0.2175307 -37.54 0.0008999502    1.625    0.384
       117  -9.1062    157.7269     83.5140   6.0032402617e+01   3.3715198290e+01      0.34639    0.2807225 -10.53   0.00142034    1.537    0.350
       118 -10.3338    103.9464     82.5769   7.3524016947e+01   4.6078446505e+01    0.5942091    0.3372272 -53.75 0.0009042718    2.028    0.507
       119  -9.4948    104.9664     71.6979   6.9766501530e+01   4.7997422438e+01    0.6863511    0.3979555 -23.15  0.002636354    2.313    0.568
       120  -8.6093    163.3251     87.0024   5.9820961091e+01   3.1735685296e+01    0.2848496    0.2486614 -80.81 0.0006516873    1.213    0.176
       121  -7.9881    170.3320     83.4439   5.7428800172e+01   3.0725055573e+01    0.2563033    0.1702957 -58.82 0.0008267319    1.669    0.401
       122  -9.2317     74.4010     79.1725   8.2105917917e+01   5.2302501269e+01    0.7111888    0.2690071 -46.94  0.001757469    2.507    0.601
       123  -9.0730    150.0992     79.6288   6.0587527365e+01   3.6248393781e+01    0.5235274    0.2463659 -34.76  0.001575098    2.271    0.560
       124  -8.8119    119.0114     80.4464   6.8532757291e+01   4.3285750162e+01    0.3265958    0.2568591 -61.32 0.0006551179    1.460    0.315
       125  -8.5655    119.9447     75.8144   6.6841277415e+01   4.3965521524e+01    0.3262161    0.2802743  26.20 0.0006112212    1.229    0.186
       126  -8.2535    184.0187     78.4011   5.3542262846e+01   2.8370975353e+01    0.2640581    0.2114578 -18.60 0.0007921699    1.509    0.338
       127  -8.6355    166.2706     78.4532   5.6859712401e+01   3.2588669392e+01    0.2718669    0.1992559 -40.78 0.0007240271    1.349    0.259
       128 -10.9381     21.5255     53.2745   9.5258207284e+01   6.4348561417e+01    0.8205792    0.6067483 -73.22  0.002902721    1.838    0.456
       129  -7.9793    174.0276     78.5098   5.5380790870e+01   3.0722905125e+01    0.2187159    0.1456385  59.98 0.0005004172    1.523    0.344
       130  -9.4340    127.3601     75.0918   6.4663796536e+01   4.2419764889e+01    0.3887083    0.2656567 -57.15 0.0006788862    1.716    0.417
       131  -8.7765    129.5247     68.9858   6.2217331568e+01   4.3020255289e+01    0.4494999    0.2529848  28.19  0.001655242    2.743    0.635
       132  -8.5933    130.5983     64.0360   6.0396698501e+01   4.3621400905e+01    0.4698476    0.2106882 -40.41  0.001663866    2.263    0.558
       133  -8.3168    162.8364     73.1922   5.6069036319e+01   3.4334033603e+01    0.3263541    0.1902385 -53.34 0.0008183887    1.882    0.469
       134  -9.1848    115.2726     72.1133   6.6948377525e+01   4.5694555713e+01    0.5584722    0.2720338 -36.85  0.001114691    2.123    0.529
       135  -9.8330     81.5667     72.3421   7.7443529909e+01   5.2461198361e+01    0.4151309    0.3121517 -68.04  0.001150964    1.824    0.452
       136  -9.0982     83.6096     64.4035   7.4085738816e+01   5.3614207502e+01    0.5645368    0.4142494  13.46   0.00283498    1.566    0.361
       137  -7.5926    175.4762     72.4756   5.3479508607e+01   3.1413230811e+01    0.1464996    0.1385138 -76.94 0.0001796694    1.011    0.011
       138  -8.3686    169.4241     71.0122   5.4190630273e+01   3.3115549890e+01    0.2961265    0.2025582 -34.55 0.0008874989    1.513    0.339
       139  -8.6477    170.4736     66.1988   5.2664019585e+01   3.3659048675e+01    0.3598925    0.2376695 -22.00  0.001626935    1.904    0.475
       140  -9.3117    146.8969     69.2103   5.8234065300e+01   3.8863052205e+01    0.3839562    0.2598652 -61.14   0.00095787    1.768    0.434
       141  -8.3909    156.4987     69.9921   5.6431634026e+01   3.6413261876e+01    0.2210513     0.146437 -37.07  0.000396277    1.536    0.349
       142  -9.7032     94.8393     68.2643   7.1729186320e+01   5.0722179850e+01    0.4061054    0.2568867 -47.67 0.0008456773    1.682    0.406
       143  -9.3640     97.6161     58.0785   6.7384778412e+01   5.1975469947e+01    0.8190987    0.5212041 -13.33  0.003594974    2.141    0.533
       144  -9.4333    109.8470     63.8330   6.5762040853e+01   4.8375563451e+01    0.5012962    0.2713452 -50.25    0.0008014    2.192    0.544
       145  -8.5836    111.0156     57.9808   6.3468891427e+01   4.9112227757e+01     0.319857    0.2479653  20.65  0.001098231    1.450    0.310
       146  -9.3179    138.2561     64.9881   5.8889478640e+01   4.1648817925e+01    0.6177703    0.2622765 -33.63  0.002024092    2.547    0.607
       147  -9.1459    121.1745     66.1606   6.3447361398e+01   4.5438689601e+01    0.3601486    0.2882464 -57.30 0.0006054144    1.406    0.289
       148  -8.4415    121.8754     61.3868   6.1718117940e+01   4.6093106399e+01    0.3166138    0.2179978  26.14 0.0009105551    1.782    0.439
       149  -8.2069    146.9736     63.9662   5.6647430101e+01   3.9725618631e+01     0.238335    0.1777997  23.40  0.001097355    1.728    0.421
       150  -8.4487    157.7181     62.7326   5.4083562880e+01   3.7319174549e+01    0.3238195    0.1887554 -43.79  0.001065473    1.724    0.420
       151  -9.3795     49.4565     61.2869   8.5765561176e+01   5.9695154123e+01    0.3637801    0.1237421 -49.99  0.001376011    2.841    0.648
       152  -8.6885     10.6481     61.0350   1.0239607956e+02   6.3565845903e+01    0.2956306     0.219362  70.38  0.001742471    2.055    0.513
       153  -8.2312    164.5346     60.4796   5.2143144034e+01   3.6017085908e+01    0.2844117    0.1422662 -35.27 0.0007639885    2.047    0.512
       154  -9.9390     73.1853     59.3228   7.5949685924e+01   5.6427850797e+01    0.5834641    0.2826903 -51.08 0.0009093243    2.510    0.602
       155  -9.4203     75.0210     50.8129   7.2193548018e+01   5.7596833847e+01    0.6604407    0.3382317  21.71  0.002516993    3.046    0.672
       156  -7.7136    152.4319     60.2938   5.4417592929e+01   3.8995781940e+01    0.2036763    0.1330749 -48.14 0.0009399138    1.586    0.370
       157  -8.8404    146.4621     58.6152   5.5139289279e+01   4.0711560993e+01    0.3675193    0.2332821 -30.16  0.001575619    1.719    0.418
       158  -8.2776    147.7845     53.0186   5.3168557197e+01   4.1250581036e+01    0.3388118    0.1772174 -32.74  0.001182734    2.032    0.508
       159  -9.2490     88.1204     56.7455   6.9905038840e+01   5.4121006865e+01    0.7576193    0.3981275 -25.73   0.00256055    2.345    0.573
       160 -10.2280     85.1495     48.0230   6.7691671338e+01   5.6144422782e+01    0.4512916    0.3116561 -50.27 0.0009989097    1.769    0.435
       161 -10.2339     90.3363     38.0791   6.2280756271e+01   5.6579519049e+01    0.8539879    0.2852497  39.04  0.002906268    3.437    0.709
       162  -9.3237    144.3538     36.5916   4.8782449010e+01   4.4366968355e+01    0.4996132    0.2457963 -57.51 0.0006495078    2.940    0.660
       163  -8.8566    142.3218     44.4266   5.1615816649e+01   4.3819810900e+01    0.7060834    0.1891993  45.12  0.001932578    4.899    0.796
       164  -8.4210    141.9533     48.5046   5.2963343171e+01   4.3332529795e+01    0.2828585    0.1976441 -37.97 0.0003171357    1.490    0.329
       165  -8.7937    138.8944     56.6959   5.6171575147e+01   4.2840451336e+01    0.3101893    0.2217421 -49.37 0.0004964656    1.491    0.329
       166  -8.3527    139.0099     51.9826   5.4669949970e+01   4.3533600403e+01    0.3126756    0.2240802  32.73  0.001143176    1.613    0.380
       167  -7.3363    169.3194     56.2994   5.0111990286e+01   3.5496595986e+01    0.1419327    0.1106812  29.86 0.0002291335    1.620    0.383
       168  -8.2765    122.9509     40.3181   5.4432178656e+01   4.9022289354e+01     0.405726     0.234218  26.41  0.001620577    2.487    0.598
       169  -9.2391    118.0365     55.2928   6.0690657660e+01   4.7966243150e+01    0.3388428    0.2584657 -60.66 0.0006506767    1.595    0.373
       170  -9.0775    120.9478     47.5797   5.7364396791e+01   4.8471415791e+01    0.5163657    0.2927784 -24.38  0.001006425    2.071    0.517
       171  -9.3540    162.8599     53.5311   5.0462856296e+01   3.7489745114e+01    0.3766093     0.206756 -32.44   0.00165465    1.939    0.484
       172  -7.9310    152.7910     53.3908   5.2293765279e+01   3.9973385144e+01    0.1968604    0.1761625 -62.96 0.0005871796    1.133    0.118
       173  -7.7278    172.3828     50.2936   4.7928063702e+01   3.5639358954e+01    0.1908215    0.1239711 -47.05 0.0003006378    1.529    0.346
       174  -8.7203    157.5369     48.6028   4.9989790405e+01   3.9513023030e+01    0.2816271     0.138839 -34.29  0.001025364    2.102    0.524
       175  -8.8283    139.6097     39.8400   5.0713008028e+01   4.5099632455e+01    0.4325042    0.3196149 -47.68  0.001782606    1.448    0.309
       176  -9.0440    130.1760     47.9562   5.5324742913e+01   4.6244478159e+01    0.2959258     0.236268 -37.27 0.0005242657    1.318    0.241
       177  -8.7690    131.6999     42.1374   5.3088343700e+01   4.6699043761e+01     0.545593    0.3084785   7.33  0.001869744    4.026    0.752
       178  -8.6358    132.9791     35.9710   5.0805776094e+01   4.7203415064e+01    0.3092767    0.2016024 -45.08 0.0004922724    1.672    0.402
       179  -7.6818    239.5744    241.8434   7.8205728854e+01  -1.0186036038e+01    0.1424762    0.1013793 -36.75 0.0007245035    1.649    0.393
       180  -8.9179    112.0950     46.9714   5.9391292963e+01   5.0590769094e+01     0.402554    0.2527367 -55.49  0.001785504    2.117    0.528
       181  -8.6808    113.3020     41.6838   5.7231077452e+01   5.1072260066e+01    0.5459501    0.2920602  -5.78  0.001909944    3.792    0.736
       182  -9.1922    149.8253     46.7024   5.0853394935e+01   4.1671450136e+01    0.5018678    0.1967517 -33.00  0.001206988    2.671    0.626
       183  -8.8749    105.6840     52.0721   6.2916481561e+01   5.1238922057e+01    0.5873252    0.2780711 -32.21  0.002021483    2.260    0.558
       184  -8.2249     11.1415    242.1775   1.2333111157e+02   2.1517122331e+01    0.2882128   0.04246422  50.91 0.0006914506    4.139    0.758
       185  -8.0315     11.6760    235.6620   1.2289870796e+02   2.2762485485e+01    0.1010851   0.08211153 -55.39 0.0007051121    1.720    0.419
       186  -9.1801    188.3325    233.5713   8.6396500974e+01  -1.8890383168e+00    0.2318818    0.2217335  86.93  0.001121243    1.487    0.328
       187  -8.9255    199.7069    229.6421   8.3520313907e+01  -2.9825872634e+00    0.2479717    0.2266511 -85.67 0.0008086888    1.727    0.421
       188  -7.5584    110.3316    225.6589   1.0164796464e+02   1.1935524254e+01     0.141786   0.09339736  65.30 0.0006936431    1.748    0.428
       189 -10.3501    219.7625    223.4164   7.8647912154e+01  -4.9623979779e+00    0.2247569    0.1914403  11.61 0.0003607999    1.131    0.116
       190  -8.8610    189.0639    219.2041   8.3856630336e+01   3.5088493424e-01    0.2063223    0.1870314  -6.68 0.0002704615    1.103    0.093
       191  -8.9987    187.9362    223.9140   8.4884384130e+01  -2.5987660038e-01    0.2457872    0.2028696  27.24 0.0004287545    1.123    0.110
       192  -8.9874     84.5467     21.5120   5.7443720681e+01   5.9856073386e+01    0.2396557    0.2218807  52.40 0.0005644015    1.203    0.169
       193 -10.0364     37.8030     41.9833   8.3814045073e+01   6.4778029576e+01    0.3741815     0.350555 -71.68  0.001528752    1.561    0.359
       194 -10.4110     35.8907     37.9706   8.3110109643e+01   6.5702921742e+01    0.6194844    0.3371314 -10.80 0.0003469753    2.534    0.605
       195  -9.1248    153.6126     40.9774   4.8435982997e+01   4.1529544426e+01    0.2866326    0.2100004 -52.89 0.0006918852    1.435    0.303
       196  -9.7723    153.1999     34.7431   4.6645754949e+01   4.2436470110e+01    0.4281206    0.1974353 -36.32  0.001852693    2.213    0.548
       197  -8.8042    150.1729     25.1697   4.4274114092e+01   4.4314201131e+01    0.2460116    0.1556913 -89.42 0.0006355153    1.822    0.451
       198  -9.4200    156.5191     27.0174   4.3819872649e+01   4.2552443765e+01     0.427307    0.2281692 -75.16  0.001718691    2.811    0.644
       199  -9.3420    110.2119     32.1288   5.4599582300e+01   5.3028648672e+01    0.6640913     0.230873 -34.39   0.00230113    2.959    0.662
       200  -9.1309    104.9544     41.2273   5.9253197960e+01   5.3011310205e+01    0.3606208     0.239346 -52.62  0.001095055    1.913    0.477
       201  -8.8149    106.0365     36.4919   5.7244052129e+01   5.3413521127e+01    0.3025649    0.2176786  39.92 0.0009404012    1.308    0.236
       202  -7.9241    164.0779     40.7419   4.6591718621e+01   3.8994843593e+01    0.1953263    0.1696759  68.79 0.0005222439    1.084    0.077
       203  -8.4318    160.2913     38.5412   4.6577356072e+01   4.0212667636e+01    0.2333272    0.1254983 -31.33 0.0006001067    2.000    0.500
       204  -8.3113    189.9247    214.4939   8.2864495178e+01   1.0152707453e+00    0.1876052    0.1647046 -14.16 0.0002884052    1.107    0.097
       205  -8.8724    118.9111     35.1869   5.3605716296e+01   5.0639908376e+01     0.383931    0.1898303 -31.54  0.001438429    2.155    0.536
       206  -7.2918    190.2750     37.3405   4.1892035347e+01   3.3103575792e+01    0.1263752    0.1042638  30.11 0.0006998691    1.615    0.381
       207  -9.5935      6.8830     32.5018   9.5472952729e+01   6.9438350626e+01    0.2707916    0.1844987  -3.47 0.0008066646    1.410    0.291
       208  -7.7804    216.7894    211.7348   7.7130559219e+01  -2.7189754691e+00    0.1527579    0.1468694  -1.42  0.000356859    1.316    0.240
       209  -8.3783    158.9777    111.8057   6.7436011311e+01   2.7822980312e+01    0.2650635    0.2143948 -47.68 0.0003935522    1.206    0.171
       210  -9.1690    129.9166     56.1910   5.8055467130e+01   4.5060544374e+01    0.6062993    0.2064651 -35.56  0.001630351    3.019    0.669
       211  -8.0607     55.5116     32.9779   7.2498055708e+01   6.3730802341e+01    0.1863057    0.1003444 -13.67 0.0008104264    2.578    0.612
       212  -8.5397     45.5995     15.6088   6.8796984331e+01   6.7638812303e+01    0.2156918    0.1579545  17.46  0.001209534    1.177    0.150
       213 -10.2550    156.7947    208.8204   8.8854321850e+01   7.5898914051e+00    0.2528392    0.2354862 -31.46 0.0004418001    1.140    0.123
       214  -8.1168     42.0049     27.9870   7.6106990846e+01   6.6493247198e+01    0.1895238    0.1502702  -2.05 0.0004838061    1.065    0.061
       215  -9.9349     11.4460    207.1486   1.2128904324e+02   2.8828244413e+01    0.5283828    0.3005762  18.61  0.002870454    2.566    0.610
       216  -8.6367      1.6718     27.6328   9.6516250027e+01   7.0654682486e+01    0.3551092   0.07570527 -44.70  0.001388801    3.051    0.672
       217  -8.6200    229.9935     27.9179   3.5463593142e+01   2.5316464191e+01    0.1805246    0.1559953 -74.51  0.000500383    1.111    0.100
       218  -8.9803    143.9738     25.8073   4.5500328905e+01   4.5754574929e+01    0.3791097    0.2157896 -19.41   0.00177727    2.188    0.543
       219  -9.2823    139.9571     22.5070   4.5159070039e+01   4.7094811206e+01    0.3301224    0.2016953 -80.76  0.001442349    2.184    0.542
       220  -8.6753    108.9363    205.1665   9.9127663614e+01   1.6470520248e+01    0.2064888    0.1931771 -86.88 0.0002740163    1.098    0.089
       221  -9.1005    193.1318    195.8153   7.8798949742e+01   3.7907066240e+00    0.6101705    0.3616533 -66.97  0.002194277    4.112    0.757
       222  -6.8461    132.6951    199.2537   9.2665175795e+01   1.3726505475e+01    0.1398784    0.1060973  63.74 0.0006899513    1.509    0.337
       223  -8.8426    179.2495    194.2237   8.1377791170e+01   6.4936743633e+00    0.2231287    0.2147041  22.77 0.0002079708    1.118    0.105
       224  -8.8211    128.3744     25.5637   4.8296401156e+01   4.9550269174e+01    0.3196456    0.2195299 -49.43   0.00088906    1.658    0.397
       225  -7.9105    130.0333     21.4845   4.6619296451e+01   4.9597137449e+01    0.2531714    0.1634814  23.90  0.001242849    2.007    0.502
       226  -9.2859     41.0830    194.2994   1.1373619576e+02   2.8644104446e+01    0.2201684    0.1956882 -73.77 0.0003399492    1.211    0.174
       227  -7.4389    164.8154    191.2482   8.3938925490e+01   9.6556131815e+00    0.2216082    0.1541553  77.98 0.0009236133    2.612    0.617
       228  -7.6722    222.9916    187.8196   7.1474938622e+01   2.5473292039e-01    0.1771917    0.1533907 -11.02  0.001086976    1.016    0.016
       229  -7.2070     87.9866    183.0564   1.0088908983e+02   2.4933128903e+01    0.1673137    0.1537119  83.06            0    1.019    0.019
       230  -7.4772    106.7435    181.9455   9.6000557598e+01   2.2125091087e+01    0.1783642    0.1247069 -57.08 0.0003657915    1.449    0.310
       231  -9.1460     91.3792     25.7856   5.7181776994e+01   5.7937795894e+01    0.3968733    0.2231723 -39.93  0.001400391    2.042    0.510
       232  -8.1132     92.5034     20.5255   5.4785272234e+01   5.8290378099e+01    0.2358792    0.1848279  24.15 0.0008226768    1.238    0.192
       233  -8.0734    241.9909     22.6292   3.3378297581e+01   2.3460007181e+01    0.1626807    0.1288998 -82.85 0.0004229154    1.132    0.117
       234  -8.5304    112.0025     21.8184   5.0449443591e+01   5.3805378479e+01    0.3616908    0.1877181 -25.77  0.001714836    2.135    0.532
       235  -9.1156    102.9372     21.0612   5.2299352487e+01   5.5944866640e+01     0.264354    0.2116973 -45.50 0.0009223294    1.469    0.319
       236  -8.6605     42.9735    178.8491   1.1165400343e+02   3.2132702073e+01    0.2106076    0.1694869 -80.49 0.0002531092    1.104    0.094
       237  -7.4412    100.9879    175.8155   9.6414416564e+01   2.4561416250e+01    0.1866395    0.1740243  56.83  0.001030167    1.049    0.047
       238  -8.1440    230.5491    167.8235   6.6122724459e+01   2.4535999935e+00    0.3339241     0.110451 -46.61  0.001152962    3.396    0.706
       239  -6.9954    138.0045    164.2001   8.4855567465e+01   2.0554856968e+01    0.1922433    0.1197897  40.09 0.0008202384    1.597    0.374
       240  -8.1315    133.3776    143.2477   8.1464768417e+01   2.6340693176e+01    0.2283869     0.147498 -59.16 0.0009499471    1.687    0.407
       241  -8.1206    234.4847    146.5050   6.1015395869e+01   5.5089907613e+00    0.1381503    0.1182849 -27.26 0.0001539042    1.034    0.033
       242  -9.7554     67.0906    144.3060   1.0013598020e+02   3.7748157253e+01     0.549916    0.3689894  64.01  0.002213824    1.752    0.429
       243  -7.7037    229.4783    144.4726   6.1412304104e+01   6.7565029463e+00    0.1391738    0.1214477 -31.77 8.459599e-05    1.008    0.008
       244  -9.6276    185.1326    141.0111   6.8919805829e+01   1.6043009111e+01    0.2384253     0.227535 -44.96 0.0002811499    1.048    0.046
       245  -8.0955    190.6124    137.8519   6.7071751677e+01   1.5550621848e+01    0.2450034     0.202698  25.60 0.0005543039    1.343    0.255
       246  -9.4491     66.6251    136.5088   9.8830372661e+01   3.9801621304e+01    0.4283013    0.1893751 -46.15  0.001625964    2.356    0.576
       247  -8.6229    155.2672     17.5595   4.1239785877e+01   4.3892395508e+01    0.2728348    0.1334364 -43.83  0.001094895    2.146    0.534
       248  -7.5919     95.8242    136.2301   9.0140779830e+01   3.5227965348e+01     0.253429    0.1592132  76.75 0.0008880496    2.679    0.627
       249  -8.8611    112.2500    133.7385   8.4913968201e+01   3.2805113841e+01    0.4196125     0.273828  69.30  0.001356718    2.239    0.553
       250  -8.9799     83.4381    131.9854   9.2859999760e+01   3.8389413350e+01    0.6163094    0.3684675  79.90  0.002155178    3.181    0.686
       251  -9.8719    140.6989    118.3682   7.3525972038e+01   3.0491797082e+01    0.4804885    0.3636338 -75.56  0.001173028    1.685    0.406
       252  -9.7597    109.3405     90.2329   7.4242114487e+01   4.3377413667e+01     1.696998    0.6056067  33.27  0.004390262    5.034    0.801
       253 -10.6572    139.4872    103.7655   6.9940059752e+01   3.3933479117e+01    0.8610119    0.5246544 -38.85  0.001459761    1.665    0.399
       254 -10.7327    131.9096    119.5662   7.6093028377e+01   3.2126326603e+01     1.215042    0.7823537 -80.96  0.004313003    2.850    0.649
       255 -10.9848    133.6026    109.6653   7.3045490323e+01   3.3970127487e+01     3.059528    0.5305293 -45.28  0.006840155    5.682    0.824
       256 -10.7224    128.3751    100.8207   7.1989978437e+01   3.7038410807e+01     1.072861    0.5150981 -31.46  0.002090628    2.827    0.646
       257 -10.1031    108.6261    114.4693   8.1199368243e+01   3.8110298048e+01    0.8376545    0.4846554 -71.98  0.001423674    3.020    0.669
       258 -10.9081    108.6532    101.1303   7.7589194040e+01   4.1154628526e+01     1.104321    0.7482376 -67.98   0.00466066    1.950    0.487
       259 -10.2065     71.2039    125.6571   9.5237502623e+01   4.1886012964e+01    0.7107195    0.4377925 -86.21  0.001490364    2.420    0.587
       260  -9.6517     67.0333    128.3110   9.7087418248e+01   4.1824122873e+01     0.395575    0.3378793 -63.08  0.001479564    1.081    0.075
       261  -9.9093     98.6158    128.4999   8.7581732663e+01   3.6638789884e+01    0.7495027      0.43582  66.05  0.002526494    2.872    0.652
       262  -7.5278    161.1792    128.6430   7.1194473967e+01   2.3750622128e+01    0.3697659    0.1092267 -49.21   0.00101201    3.769    0.735
       263 -10.6959    123.2055     91.9088   7.0827033710e+01   4.0054909521e+01     1.235573    0.6119906 -31.26  0.002486929    2.589    0.614
       264 -10.0193     41.8421    122.5059   1.0391772000e+02   4.6457261240e+01    0.6573507    0.3530892  89.98  0.002579975    2.799    0.643
       265 -10.2105     27.4652    122.9289   1.0856436481e+02   4.7772601094e+01    0.5991922    0.3172255  72.29  0.002488118    2.809    0.644
       266  -7.5807    158.6174    122.2849   7.0203462629e+01   2.5682542922e+01    0.1618095    0.1244843  88.15 0.0007011275    1.734    0.423
