#   1 NUMBER                 Running object number                                     
#   2 MAG_AUTO               Kron-like elliptical aperture magnitude                    [mag]
#   3 X_IMAGE                Object position along x                                    [pixel]
#   4 Y_IMAGE                Object position along y                                    [pixel]
#   5 X_WORLD                Barycenter position along world x axis                     [deg]
#   6 Y_WORLD                Barycenter position along world y axis                     [deg]
#   7 A_WORLD                Profile RMS along major axis (world units)                 [deg]
#   8 B_WORLD                Profile RMS along minor axis (world units)                 [deg]
#   9 THETA_WORLD            Position angle (CCW/world-x)                               [deg]
#  10 FWHM_WORLD             FWHM assuming a gaussian core                              [deg]
#  11 ELONGATION             A_IMAGE/B_IMAGE                                           
#  12 ELLIPTICITY            1 - B_IMAGE/A_IMAGE                                       
         1 -13.3983     31.4506     59.5032   1.2391408315e+02   6.0077419354e+01     1.431453    0.9209145  53.08  0.007437019    2.019    0.505
         2 -11.1399    103.5120     30.1738   8.7896146431e+01   5.5265450533e+01    0.5057938    0.3922462  68.62  0.002089137    1.734    0.423
         3 -12.5132     42.8037     20.4635   1.0636131388e+02   6.7113115256e+01    0.8148975    0.4866485  12.26  0.003412548    2.158    0.537
         4 -10.4586    134.7141     16.7007   7.4266665339e+01   4.9810045199e+01    0.3825837    0.2122805   6.39 0.0008401079    2.372    0.578
         5 -10.4892    127.6882     15.5105   7.5311315143e+01   5.1692712154e+01    0.3989666    0.2038196  12.03  0.001402468    2.978    0.664
         6 -13.3674    188.4702      7.5394   6.2111748039e+01   3.6648329836e+01     1.269185    0.6141579 -85.51  0.004489105    3.172    0.685
         7 -11.1149     53.7538      2.1458   9.2057562267e+01   6.8626426065e+01    0.3320269    0.1895475  52.39  0.001644004    2.548    0.608
         8 -12.1282     43.5342      8.2919   1.0012462746e+02   6.9157939601e+01    0.3289106    0.2577845  27.08  0.000620687    1.443    0.307
         9 -12.1392     57.9337      7.9930   9.3485920735e+01   6.7116475790e+01    0.5794036    0.4767278  43.68  0.003589567    1.532    0.347
        10 -13.3329    214.9975     16.8366   6.1961140838e+01   2.8889222463e+01     1.433781    0.6641438  55.14  0.004036529    2.106    0.525
        11 -10.2631    127.0854      4.7553   7.0834552421e+01   5.2986367337e+01    0.2821028    0.2054415  -0.74  0.001006414    1.371    0.271
        12 -12.1336    167.1924      2.1338   6.2999257070e+01   4.2779911215e+01    0.7237418    0.2545118  68.56  0.002543456    2.755    0.637
        13 -10.0070    149.4982    223.9849   1.2123789703e+02   1.2178227016e+01    0.1340356   0.09270662  87.47 0.0008101455    2.520    0.603
        14 -11.2123    226.6424    221.3117   1.0799572809e+02   9.4415601383e-01    0.2031021     0.171269  50.22  0.001495111    1.727    0.421
        15 -10.1067    233.3213    219.6571   1.0668747336e+02   1.2438604439e-01   0.09520775   0.08380598  47.48 0.0007050144    1.726    0.421
        16 -10.6532    238.9095    213.0287   1.0477941883e+02  -6.8380607515e-02    0.2534655    0.2201527 -66.29   0.00172909    2.549    0.608
        17 -11.3709    223.8480    213.3958   1.0724767362e+02   2.1433000545e+00    0.3615971    0.1455074  32.28  0.001853656    2.112    0.526
        18 -10.0632    115.7981    210.1960   1.2564412644e+02   1.8989717426e+01    0.1915143   0.09931856  66.56 0.0009539262    2.846    0.649
        19 -10.8981     49.1621    202.0327   1.3695474638e+02   2.8642841838e+01    0.2418854     0.123498  57.99  0.001584144    1.609    0.379
        20 -10.9648      5.1025    199.5392   1.4443142023e+02   3.3205600005e+01    0.2774311     0.106865  44.62  0.001149707    1.981    0.495
        21  -9.5858    112.3288    197.6590   1.2490115898e+02   2.1447716849e+01    0.1201361   0.07627393  65.97 0.0007051478    1.740    0.425
        22  -9.6150     11.9622    197.2758   1.4318574813e+02   3.3019538617e+01    0.1383499   0.09451196  60.72 0.0006031868    1.123    0.110
        23 -12.3263    160.5692    192.0495   1.1505384024e+02   1.4861489432e+01    0.5568082    0.4321855  69.54  0.002568593    1.679    0.404
        24 -10.1096     66.5638    194.7956   1.3324061909e+02   2.7931678957e+01    0.1468731   0.08935552  87.33 0.0008101728    1.689    0.408
        25  -9.1301    199.6573    192.2628   1.0797568062e+02   8.3600854263e+00     0.111703   0.08904097  55.59 0.0006973905    1.596    0.374
        26 -10.3001     34.1952    186.8064   1.3868434044e+02   3.2833695172e+01    0.2195825   0.07087454 -83.75   0.00102181    3.482    0.713
        27 -10.5394    223.8746    183.8233   1.0233788195e+02   5.3502183920e+00    0.1572088     0.136011  33.96 0.0006135531    1.316    0.240
        28  -9.2524    128.6367    177.7202   1.1915704677e+02   2.2294308469e+01     0.119712   0.09272978  13.14 0.0007013165    1.676    0.403
        29 -10.4433    100.9998    176.0007   1.2453975653e+02   2.6783233593e+01    0.1656545    0.1442146  59.67  0.001148832    1.017    0.017
        30 -10.5082     38.5083    174.5204   1.3702590277e+02   3.4668684372e+01    0.1787139    0.1218365  84.46  0.000897126    1.245    0.197
        31 -11.1693     34.7408    173.9797   1.3772680816e+02   3.5140365267e+01    0.3446258    0.1416055  66.47   0.00179371    2.549    0.608
        32  -9.8727     47.3287    173.6687   1.3521116011e+02   3.3924109933e+01    0.1191448   0.06497642  66.08 0.0007051643    1.715    0.417
        33 -10.6063     44.1651    169.6369   1.3551893912e+02   3.5022402027e+01    0.3015237   0.04924414 -66.48  0.001139276    4.661    0.785
        34 -11.2404     55.5051    167.4262   1.3300055989e+02   3.4228500321e+01    0.3600677    0.2120797  78.96  0.001507944    1.714    0.416
        35  -9.5396     88.3366    168.6472   1.2625874014e+02   2.9915824008e+01    0.1290526   0.07983417  69.15 0.0007044404    1.794    0.443
        36  -9.9665     98.9607    166.4800   1.2373673076e+02   2.8830484805e+01    0.1814061   0.08439026  57.11 0.0008096445    2.520    0.603
        37  -9.6370     19.5028    166.5116   1.4023518396e+02   3.7947206613e+01    0.1078888   0.07807416  73.85 0.0001684407    1.068    0.064
        38 -10.2169     79.2267    163.6127   1.2758769138e+02   3.2095857112e+01    0.2536986    0.1216191  80.40 0.0009601391    4.220    0.763
        39 -11.6863    119.9323    157.7619   1.1795501208e+02   2.7246575012e+01    0.4767969    0.3231387  57.38  0.002644343    1.512    0.339
        40 -11.7373    106.7205    158.5353   1.2094930554e+02   2.9180802113e+01    0.5715643    0.2290411  55.60  0.002176097    3.425    0.708
        41  -9.9857     92.9930    160.5074   1.2422069915e+02   3.0823318862e+01    0.1843884   0.08422777  56.83 0.0008104004    2.576    0.612
        42 -11.2800     28.5179    156.4906   1.3771571082e+02   3.9108736731e+01    0.4307154    0.1844529  75.34  0.001992368    2.586    0.613
        43  -9.6420     23.4989    153.4924   1.3855258257e+02   4.0149239825e+01    0.1509081   0.08336005  48.55 0.0008286231    1.650    0.394
        44 -10.3960     51.1241    159.0953   1.3313431090e+02   3.6344244390e+01    0.2758833    0.1062882  54.32   0.00131846    2.615    0.618
        45 -10.4163     22.2418    159.1585   1.3921124223e+02   3.9136240868e+01    0.2207807   0.09472652  57.60  0.001250916    2.104    0.525
        46 -10.5104    168.8202    158.1820   1.0778092900e+02   1.8625922770e+01    0.3510615    0.1655672  51.65  0.001501545    2.327    0.570
        47 -10.1872    218.1865    156.5761   9.8139591583e+01   9.7051033265e+00    0.2353402    0.0938915 -34.37  0.001004586    2.611    0.617
        48  -9.5726      6.7694    155.9715   1.4217124773e+02   4.1002841369e+01    0.1364202   0.06861957 -82.45 0.0006438345    1.613    0.380
        49  -9.7888     81.3338    154.6680   1.2601545786e+02   3.3576799690e+01    0.1301393   0.08264552  69.89 0.0007052217    1.730    0.422
        50 -10.2532     39.8871    152.1431   1.3491735686e+02   3.8905283127e+01    0.1849982     0.121082  69.05  0.001203397    1.374    0.272
        51 -10.9363    243.1559    150.8278   9.2727356437e+01   5.9220523257e+00    0.1929502    0.1310799  13.79  0.001093146    1.345    0.257
        52  -9.6633    190.5229    151.0309   1.0210838004e+02   1.5667180743e+01    0.2528083    0.1736963  80.66  0.001034631    3.442    0.709
        53 -10.6530    108.1097    146.3937   1.1874190421e+02   3.1322010585e+01    0.4267995    0.2180517  64.23  0.001688281    3.211    0.689
        54  -9.6877     78.3124    147.6848   1.2577343748e+02   3.5387699307e+01     0.127977   0.08443073  71.12 0.0003157587    1.639    0.390
        55 -10.4293     56.3030    146.4461   1.3066678733e+02   3.8336975171e+01    0.2832986    0.1400808  72.25   0.00133486    2.627    0.619
        56  -9.4933     13.0016    147.4857   1.4036980355e+02   4.2210815344e+01    0.1266089   0.08752219 -25.59 0.0008100953    2.533    0.605
        57  -9.9880    148.9734    145.4933   1.0947949352e+02   2.4447224521e+01    0.1982845    0.1123707  62.27  0.000810302    2.641    0.621
        58 -10.6003     88.1356    144.7509   1.2308823506e+02   3.4643593188e+01    0.3004949    0.1593652  67.35  0.001312634    2.751    0.637
        59  -9.5539    182.6549    142.3311   1.0184117802e+02   1.8535266628e+01    0.1335759    0.1121399  87.46 0.0007050259    1.757    0.431
        60 -10.1442     23.1076    138.5512   1.3748111911e+02   4.3229199342e+01     0.323467    0.1292343  75.13  0.001464065    3.097    0.677
        61 -11.4937     83.1506    130.3296   1.2204042467e+02   3.8351136285e+01    0.6597763    0.2609885 -68.89  0.002499701    3.302    0.697
        62  -9.8589    132.3134    131.9846   1.1050707839e+02   3.0029130559e+01    0.2171862    0.1119306 -68.34 0.0007043624    4.227    0.763
        63 -11.8564     97.8008    126.9175   1.1781170143e+02   3.6913104116e+01     0.807521    0.4433419 -88.20  0.002794781    4.297    0.767
        64 -10.2201     12.5615    129.4109   1.3918463557e+02   4.5963928154e+01    0.3172624    0.1098567  85.68  0.001342797    3.419    0.708
        65  -9.7953    118.4799    126.2427   1.1260798376e+02   3.3639152286e+01    0.3281421    0.1634459  66.78 0.0008920782    6.143    0.837
        66 -10.4953     59.4030    124.9211   1.2717811088e+02   4.2557180729e+01    0.3385214    0.1747487  80.92   0.00145755    2.946    0.661
        67 -11.1507     43.9134    123.3010   1.3090001147e+02   4.4585066937e+01    0.6551121    0.2983661  81.52  0.002684968    3.426    0.708
        68 -11.0948     27.6723    122.0061   1.3485211563e+02   4.6363933890e+01    0.4241437    0.1765205  77.27  0.001783776    3.414    0.707
        69 -11.7764    193.2227    118.4765   9.4334367456e+01   2.0175396910e+01    0.6283356    0.4809427 -59.31  0.003121924    1.816    0.449
        70 -10.5206     14.9830    121.0883   1.3791874438e+02   4.7556662679e+01    0.2963479     0.192956  24.45  0.001966137    1.941    0.485
        71 -11.0289     37.5637    121.0115   1.3223805322e+02   4.5700881726e+01    0.1877895    0.1633689  55.21 0.0004930946    1.237    0.192
        72 -10.3262     70.6992    119.8813   1.2349216075e+02   4.2278417896e+01    0.2804825     0.150527  89.25  0.001156859    3.001    0.667
        73 -10.1589      2.3510    116.2052   1.4063695520e+02   4.9442391480e+01     0.347978    0.1173437  82.69  0.001479862    3.434    0.709
        74 -10.2121    232.2988    114.9186   8.6463959383e+01   1.2534771941e+01     0.218336    0.1610912 -35.99  0.001082887    1.455    0.313
        75 -10.6111     79.0928    113.0712   1.2007570552e+02   4.2651250270e+01     0.450135     0.253417  85.51  0.001770617    3.297    0.697
        76 -10.6558    107.5609    113.6699   1.1270006198e+02   3.8119601968e+01    0.3282875    0.2727112 -60.82 0.0008921701    1.197    0.164
        77 -10.9331    174.6164    111.3537   9.6344341517e+01   2.5335079192e+01    0.3814838    0.2968478 -35.58  0.001067673    1.305    0.234
        78 -11.6843    158.6143    107.3912   9.8818486548e+01   2.9470318425e+01    0.5567612    0.3242186 -62.47  0.002044962    3.055    0.673
        79 -11.4904    162.5132    112.4878   9.9230010698e+01   2.7721262148e+01    0.3658677    0.2807042 -25.83  0.001461203    1.351    0.260
        80  -9.8126     92.0125    112.2915   1.1647563014e+02   4.0930957904e+01    0.2806141    0.1672927 -82.56  0.001175587    2.656    0.623
        81 -11.5314     15.5240    110.9855   1.3684451763e+02   4.9707468348e+01    0.5466699    0.2850544  68.46   0.00308045    2.005    0.501
        82 -11.7785    152.2981    110.6009   1.0105487886e+02   3.0207781014e+01    0.3769985    0.2392813  49.74   0.00173647    1.610    0.379
        83 -10.9668    133.8465    108.7583   1.0496440444e+02   3.4298736910e+01    0.5672882    0.2491164 -54.70  0.002015714    2.964    0.663
        84 -10.1582     60.0549    109.9230   1.2468809168e+02   4.5791071820e+01     0.192051     0.167848 -67.40 0.0007672736    1.069    0.064
        85  -9.7780    231.6423    109.2879   8.5207280561e+01   1.3423837996e+01    0.1313948     0.111745 -63.37 0.0003589227    1.681    0.405
        86 -11.8672    159.4924    112.4779   9.9895771273e+01   2.8359336799e+01    0.4219489    0.2888959  45.08  0.002036933    1.435    0.303
        87 -12.5523    142.0732    105.4754   1.0216346309e+02   3.3289498752e+01    0.5980746    0.2698754  52.02  0.002247793    2.490    0.598
        88 -10.8561     42.1554     98.3762   1.2785879371e+02   5.0308744504e+01    0.3028575    0.1789833  45.31 0.0006484215    1.856    0.461
        89 -11.7891     44.7884    102.1869   1.2770437724e+02   4.9189176658e+01    0.5327672    0.2861052  65.95    0.0025632    2.465    0.594
        90 -11.1499    142.4078    111.9209   1.0367666542e+02   3.1979615284e+01    0.3123764    0.1887721  29.15  0.001345148    1.991    0.498
        91 -12.5015    109.9451    100.3775   1.0902684526e+02   4.0505948473e+01    0.9279427    0.4811734  60.94  0.003394767    3.208    0.688
        92 -10.5735     21.6379    101.2920   1.3413521229e+02   5.1406132823e+01    0.3643845    0.1389406  69.07  0.001270456    5.090    0.804
        93 -11.8748    127.3260    100.4537   1.0451841225e+02   3.7235698327e+01    0.5772886    0.3945632 -61.88  0.002633327    1.777    0.437
        94 -10.3493     82.1307    100.6760   1.1675801933e+02   4.4953059527e+01    0.2583393    0.1966151  70.67  0.001386282    1.545    0.353
        95 -10.7695     62.8430     95.9200   1.2134577370e+02   4.8600570097e+01    0.3271751     0.168031 -83.73   0.00125344    3.332    0.700
        96 -13.1059    170.5631     90.7347   9.1740501860e+01   2.9782577211e+01    0.5128307    0.4412954 -24.06  0.001123538    1.135    0.119
        97 -10.5122     87.4137     93.9307   1.1373366438e+02   4.5647117750e+01     0.260434    0.2004653  40.50  0.001208278    1.395    0.283
        98 -10.4342     34.1962     88.7430   1.2867949581e+02   5.3223989370e+01    0.4005924    0.1561939 -73.25  0.001742407    2.475    0.596
        99 -11.4345     87.3342     87.6520   1.1223260194e+02   4.7033708090e+01    0.4601082    0.2967522  68.12  0.002066461    2.351    0.575
       100 -11.5077     41.9728     87.8371   1.2612536874e+02   5.2716800225e+01    0.6821384    0.3789062  -3.25  0.002988604    3.646    0.726
       101 -10.2923     45.5393     81.7749   1.2384742291e+02   5.3741955275e+01    0.2635421    0.1599907 -68.51 0.0007416206    1.471    0.320
       102 -10.1601     47.5467     78.5335   1.2252764211e+02   5.4270887383e+01    0.2247583    0.1784081 -46.98 0.0006950095    1.197    0.165
       103 -10.0438      8.8051     82.1395   1.3557007906e+02   5.6539650571e+01    0.2668599   0.07884819 -80.24  0.001031327    3.422    0.708
       104 -10.5275    104.9697     84.0395   1.0616253947e+02   4.4835357584e+01    0.3499139     0.251302  83.22   0.00157859    2.199    0.545
       105 -10.5261     23.9756     79.9740   1.3046793023e+02   5.6036702033e+01    0.4210864    0.1714724 -85.96   0.00164182    3.527    0.716
       106  -9.7479    174.3884     76.1418   8.6714583127e+01   3.1331661814e+01      0.21014    0.1790145 -28.32 0.0003562917    1.147    0.128
       107 -10.5847     62.6033     70.2166   1.1554460517e+02   5.4395437081e+01    0.3638147    0.1681043 -44.96  0.001615683    1.998    0.499
       108 -10.7153     82.7877     73.7462   1.0992912979e+02   5.0763219779e+01    0.4352392    0.2768767  89.72  0.001670097    3.399    0.706
       109 -11.5987    223.2465     70.9065   7.6527946646e+01   2.0455241155e+01    0.3446343    0.3139961  80.03 0.0006601615    1.327    0.247
       110 -10.6213    220.0293     65.4723   7.5500337247e+01   2.1928376432e+01    0.3310428    0.2678097  26.44  0.001126721    1.257    0.205
       111  -9.6713     95.0176     71.9867   1.0562811276e+02   4.9121678970e+01    0.2601178     0.154363 -67.21  0.001031993    2.615    0.618
       112 -10.3846     51.7720     70.1795   1.1921108789e+02   5.5698549359e+01    0.3038972    0.1988227 -68.04  0.001142098    1.485    0.327
       113 -11.2898     10.4184     57.9204   1.3141229681e+02   6.1886544950e+01    0.8610873    0.3910547  55.94  0.004040768    3.345    0.701
       114 -10.8707     19.5576     59.2280   1.2827070003e+02   6.1035515336e+01    0.2700138    0.2094711 -60.37    0.0012237    1.029    0.028
       115 -10.9412    224.7990    249.6130   1.1219936516e+02  -1.3519968744e+00    0.1915002   0.07794609  46.10  0.001061604    2.450    0.592
       116 -10.4660    240.9719     69.5027   7.3605436962e+01   1.6620369853e+01    0.1994005       0.1405  55.38 0.0005024758    1.555    0.357
       117 -10.2231    196.6287     68.0956   8.0076097662e+01   2.7188243974e+01    0.3331313    0.1781864  38.76  0.001332142    2.021    0.505
       118  -9.9760      9.9578     65.9692   1.3292772527e+02   6.0106870455e+01    0.1779103    0.1409766 -81.43 0.0005071186    1.136    0.120
       119 -11.9338    232.6578     60.0521   7.2185582281e+01   1.9675876593e+01    0.5512865    0.3793786 -72.72  0.002549444    2.144    0.534
       120 -12.1262    241.9462     65.4737   7.2406481092e+01   1.6903095872e+01    0.5899915    0.3181331  77.53  0.002342103    3.083    0.676
       121 -10.3251    100.5965     61.2006   1.0051995070e+02   5.0308758152e+01    0.2923917    0.1795178  75.40 0.0009595059    4.308    0.768
       122  -9.0986    160.6895     60.7416   8.4790888126e+01   3.7138184770e+01    0.1556662    0.1141856  21.71 0.0001773224    1.526    0.345
       123  -8.9063     86.2785     59.7053   1.0453737176e+02   5.3152582776e+01    0.1323025    0.1104228 -77.18 0.0001868868    1.531    0.347
       124 -10.9512     39.7993     52.7219   1.1903304135e+02   6.0824451962e+01     0.476821    0.2056094 -46.78  0.001920229    1.943    0.485
       125 -10.5851     47.4677     57.5524   1.1746915867e+02   5.8974925114e+01    0.2762107    0.2120573 -27.07 0.0009098662    1.393    0.282
       126  -9.9998    120.1694     57.3613   9.3535398258e+01   4.7099415399e+01    0.2107133      0.14381  58.56 0.0009524239    1.750    0.429
       127 -10.0828     53.4360     53.2007   1.1398316620e+02   5.9242085942e+01    0.3156547    0.1216791 -61.77  0.001148453    3.203    0.688
       128 -10.5273    162.0876     53.2111   8.2005065449e+01   3.7969927910e+01    0.3685085    0.2108858  51.66  0.001538855    1.736    0.424
       129 -11.5749    150.1830     52.6207   8.4384522844e+01   4.0994830313e+01    0.5036289    0.2907145  65.42  0.001998299    2.188    0.543
       130  -9.4816     62.6612     53.3129   1.1060859775e+02   5.8049964570e+01    0.1292236    0.1047641  89.45 0.0004068546    1.695    0.410
       131  -9.9697     92.2329     51.2294   9.9693184732e+01   5.3797012829e+01    0.2355654    0.1065416 -50.26 0.0008887605    2.467    0.595
       132 -10.2454    191.6561     46.6624   7.4369276928e+01   3.1411314545e+01    0.2732399    0.1696825  47.91 0.0006867069    1.602    0.376
       133 -10.4720     82.0141     46.5642   1.0139554528e+02   5.6487776323e+01    0.2829475    0.1852039 -53.41  0.001373377    1.674    0.403
       134 -10.5142    157.1495     44.9448   8.0206788670e+01   4.0437549005e+01    0.3013182    0.2131048  48.26 0.0004914241    1.399    0.285
       135 -11.2075     70.5271     42.5227   1.0397452175e+02   5.9122751332e+01    0.4591184     0.352235 -71.07  0.002421335    1.840    0.456
       136 -10.1534     10.0661     44.0000   1.2879002676e+02   6.4996759551e+01    0.2144209    0.1633234  25.35 0.0009665723    1.678    0.404
       137 -10.7109      5.8699     42.7675   1.3026963275e+02   6.5483213424e+01    0.3328426    0.2157535 -84.16  0.001985095    1.557    0.358
       138 -11.1089     74.9859     43.1824   1.0260271181e+02   5.8297430321e+01     0.396314    0.2662455  -1.63  0.001887594    2.047    0.512
       139 -12.0281     41.5397     38.5807   1.1398771496e+02   6.3673813056e+01    0.5940623     0.420893  13.50  0.002327215    1.695    0.410
       140 -10.4417     49.2331     34.8784   1.0943971881e+02   6.3556988272e+01    0.3291835    0.2129228  16.75  0.001785635    1.889    0.471
       141 -10.1049     82.3439     38.1533   9.8049611634e+01   5.8013529081e+01     0.328827    0.1907734  58.39  0.001390961    2.725    0.633
       142 -11.0018    119.9894     33.9349   8.4817674924e+01   5.1059321656e+01    0.3338591    0.3295798  -9.78 0.0009787073    1.146    0.127
       143 -12.4355     24.0787    241.7236   1.4302400428e+02   2.4931295241e+01    0.3769205    0.1615854  63.96  0.002739058    1.779    0.438
       144 -11.0272     18.8497    236.1799   1.4359747822e+02   2.6221092078e+01    0.2192248    0.1318708  57.09  0.001383571    1.144    0.126
       145 -11.0408    239.9236     20.8185   6.0549436486e+01   2.2406305276e+01     0.298374    0.2749535 -40.38 0.0007058348    1.045    0.043
       146 -10.4851     34.3457    242.2755   1.4152079841e+02   2.3869784936e+01    0.1553461   0.09448396  36.78  0.001168615    1.694    0.410
       147  -9.6386     89.0306     18.0569   8.7003808221e+01   6.0058009817e+01    0.2138989    0.1726645 -59.89  0.001132124    1.741    0.426
       148 -11.7425     30.1617    234.0046   1.4180416540e+02   2.5484560642e+01     0.509964    0.1657894  64.18  0.002889143    2.825    0.646
       149 -10.4098      8.0787    240.7356   1.4532167575e+02   2.6511354301e+01    0.1390133    0.1084984  42.96  0.001166512    1.529    0.346
       150 -10.3518      2.1882    239.5456   1.4613269737e+02   2.7184171144e+01     0.156532   0.09398521  80.01  0.001405544    1.331    0.249
       151 -10.8766     12.4465    227.0777   1.4424300875e+02   2.8158471439e+01    0.2157847    0.1153564  65.97 0.0008265976    1.345    0.256
       152 -10.6645     76.7034    226.1544   1.3388698845e+02   2.1655761518e+01    0.1908904    0.1361101  61.11 0.0007168695    1.103    0.093
       153 -10.5486    104.0597    225.2915   1.2918652574e+02   1.8350344137e+01    0.1552958    0.1445255 -70.63  0.001309372    1.385    0.278
       154 -10.6913     96.7635    225.3681   1.3043799798e+02   1.9287776724e+01    0.2905785    0.1341359  58.57  0.001672802    2.185    0.542
