#   1 NUMBER                 Running object number                                     
#   2 MAG_AUTO               Kron-like elliptical aperture magnitude                    [mag]
#   3 X_IMAGE                Object position along x                                    [pixel]
#   4 Y_IMAGE                Object position along y                                    [pixel]
#   5 X_WORLD                Barycenter position along world x axis                     [deg]
#   6 Y_WORLD                Barycenter position along world y axis                     [deg]
#   7 A_WORLD                Profile RMS along major axis (world units)                 [deg]
#   8 B_WORLD                Profile RMS along minor axis (world units)                 [deg]
#   9 THETA_WORLD            Position angle (CCW/world-x)                               [deg]
#  10 FWHM_WORLD             FWHM assuming a gaussian core                              [deg]
#  11 ELONGATION             A_IMAGE/B_IMAGE                                           
#  12 ELLIPTICITY            1 - B_IMAGE/A_IMAGE                                       
         1 -15.4085    206.2068    105.1649   7.6975135206e+01   1.8659512850e+01     9.177709     5.557781  71.70   0.03736705    2.482    0.597
         2 -13.8980    217.7590     75.3322   6.7158781541e+01   2.0558804595e+01     1.998062    0.7485317 -50.02  0.005840792    4.125    0.758
         3 -18.2483    238.1772     40.1794   5.4829075313e+01   2.0399674860e+01     7.194052     6.487321 -54.30    0.0251175    1.077    0.072
         4  -9.6601     79.2453     15.0481   7.6384816714e+01   6.2728960576e+01    0.4691702    0.1628568 -27.75  0.001601726    2.974    0.664
         5 -10.3617     92.5074      6.4965   6.8094093755e+01   6.1142356793e+01    0.4034789    0.1695422 -20.13  0.001626314    2.475    0.596
         6 -10.0987    143.8283    227.2161   1.1091756094e+02   1.1382398790e+01    0.1849554    0.1488672  48.11 0.0002557801    1.052    0.049
         7 -11.6380    231.7825    250.4454   9.9744018787e+01  -4.3570345501e+00    0.1949191   0.09909191  39.02 0.0003674181    1.457    0.314
         8  -8.3178    201.2850    222.3280   1.0066983357e+02   2.9476220367e+00    0.1122704   0.07442562  18.11 0.0001887497    1.608    0.378
         9 -11.5818      7.7096    209.6236   1.3273291783e+02   3.1556890227e+01    0.4185569    0.2462583  71.82  0.003280646    1.183    0.154
        10  -9.3412    123.9840    205.9882   1.1196335278e+02   1.7623301742e+01    0.1663663    0.1324598  55.50  0.001146309    1.010    0.010
        11 -10.8565    192.2746    193.6085   9.7856429925e+01   8.0037639620e+00    0.8106633    0.4275955 -62.58  0.002788751    6.336    0.842
        12 -10.7697    231.1358    196.1204   9.1718983510e+01   1.1014226528e+00    0.3745619     0.180403  40.56   0.00202162    1.756    0.430
        13 -11.4127     32.5710    194.3906   1.2771025438e+02   3.1822426860e+01    0.5048079    0.1232718  52.76  0.002353474    3.134    0.681
        14 -12.5346     24.8566    190.5124   1.2887314269e+02   3.3327554701e+01    0.4346137     0.393594 -53.92  0.003597463    1.745    0.427
        15 -10.8179    224.5444    193.3843   9.2326673884e+01   2.5059417436e+00    0.2678303    0.2227143 -47.75  0.001789052    1.706    0.414
        16  -8.3447    237.2593    249.6291   9.8825843145e+01  -5.0442695244e+00   0.08415876   0.07491925  45.03 0.0006975677    1.649    0.394
        17 -11.5448     49.2852    154.6894   1.2118560559e+02   3.7795542619e+01    0.3167575    0.3026106 -29.84 0.0008934535    1.547    0.354
        18 -13.7783     61.2686    148.0550   1.1775896704e+02   3.7754195541e+01     1.523946      1.25382   0.66  0.006839217    2.006    0.502
        19  -9.3945    200.7423    188.4240   9.5515333690e+01   7.2172667278e+00    0.2415117    0.1065248  48.39 0.0009933783    2.132    0.531
        20 -10.9220    192.4026    153.2218   9.0511254785e+01   1.3895407496e+01    0.7129191    0.1928396 -44.38  0.002258745    4.470    0.776
        21  -9.9950    189.8541    148.5519   9.0037329553e+01   1.5147440810e+01    0.4367374    0.2760149 -64.37  0.001881617    2.727    0.633
        22  -9.3067    187.6730    156.8174   9.2118313968e+01   1.4261998604e+01    0.2500136    0.1742299  70.91 0.0009916944    2.087    0.521
        23  -8.1524    146.6481    157.2852   1.0034987845e+02   2.2134852576e+01    0.1379644     0.100583  73.64 0.0007020494    1.661    0.398
        24  -9.0218    169.0325    155.0093   9.5377768709e+01   1.8225912028e+01    0.3153808    0.1839185  66.33  0.001317367    2.607    0.616
        25  -8.9089      8.3852    247.7840   1.3394137213e+02   2.5391355695e+01    0.1106068   0.06728774 -82.39 0.0009449499    1.669    0.401
        26  -8.7396     88.0524    152.5070   1.1228594600e+02   3.3114764253e+01    0.1869839    0.1567643 -87.62 0.0004331071    1.087    0.080
        27  -8.8434    204.0225    151.7397   8.8068912158e+01   1.1821189093e+01    0.1961816     0.162199  37.19  0.000616964    1.121    0.108
        28  -8.8034     92.9715    152.0195   1.1111185540e+02   3.2468170090e+01    0.1883145    0.1610796  76.68  0.001185881    1.021    0.020
        29 -13.2999      6.6831    169.8583   1.3111961745e+02   3.8934210751e+01     1.940542    0.6401372  89.01   0.00963296    2.784    0.641
        30 -10.4290    174.6526    148.3866   9.2950640339e+01   1.8240523227e+01    0.3499522    0.2669689  28.01   0.00104437    1.381    0.276
        31 -13.7334     22.5363    168.6476   1.2795387330e+02   3.7750416237e+01    0.9774714    0.6682869  88.53  0.003945945    1.151    0.131
        32  -9.7348    133.8015    145.6111   1.0093667315e+02   2.6760825164e+01    0.7043511    0.2063905 -54.66  0.002213626    4.283    0.766
        33 -10.5532    130.7441    134.2718   9.9409668024e+01   2.9595052845e+01    0.9524124     0.476785 -71.59  0.002937282    4.701    0.787
        34  -8.9845    124.6313    141.1595   1.0213616187e+02   2.9348017021e+01    0.1839684    0.1265949 -43.97 0.0006806397    1.615    0.381
        35 -10.5008    177.0000    169.9893   9.6620499477e+01   1.4229605686e+01    0.2999404    0.1634073 -50.84  0.001429398    2.272    0.560
        36 -10.9711    141.4176    107.8900   9.0993507879e+01   3.2779742587e+01    0.5544142     0.327042 -54.23   0.00238887    1.837    0.456
        37 -11.6285    135.9608    126.0070   9.6485328937e+01   3.0247237057e+01      1.31721    0.3684649 -51.48  0.003958043    4.094    0.756
        38 -10.4874    141.8862    121.6652   9.4166017638e+01   2.9920955631e+01     0.600674    0.2692532  59.06   0.00206622    3.127    0.680
        39 -10.7941    138.4350     93.9971   8.8076321116e+01   3.6210837538e+01    0.5889719    0.4280615  71.16  0.001973315    1.687    0.407
        40 -10.5651    133.0770     98.9178   9.0689813787e+01   3.6367652647e+01    0.5605121    0.3009358 -62.07  0.001486501    2.653    0.623
        41 -11.1813    160.2264    129.0521   9.1795638049e+01   2.4674981920e+01    0.4832124    0.4272711  -7.30  0.002294877    1.291    0.225
        42 -10.4670    214.7822    241.4477   1.0113476543e+02  -1.1126609116e+00    0.2605831    0.1542796  12.79   0.00165106    2.038    0.509
        43 -10.8033    153.1643    126.0754   9.2649728963e+01   2.6719177512e+01    0.6158903    0.3269447 -45.68  0.002649223    1.940    0.485
        44  -8.2500     97.4524    129.4482   1.0633228747e+02   3.6550596264e+01    0.1347854    0.1223304  89.18 0.0001141013    1.017    0.017
        45  -8.5167    160.1574    165.1764   9.9025602598e+01   1.8194575218e+01    0.1831913    0.1702841  20.36 0.0005456527    1.147    0.129
        46  -8.2804     93.8166    122.8250   1.0599297062e+02   3.8589962538e+01    0.1838728     0.143261 -86.53 0.0002557798    1.304    0.233
        47  -9.8034    130.1753    117.7502   9.5996918650e+01   3.3085219446e+01    0.4219304    0.2573698 -69.43  0.001385635    2.264    0.558
        48 -11.4221    124.9909    109.3154   9.5279397796e+01   3.5871945863e+01    0.6880435    0.6303389 -34.50  0.002406954    1.181    0.154
        49 -12.1904    121.6128    100.9643   9.4066009077e+01   3.8300163769e+01     1.115933    0.5581923 -61.27  0.004123015    2.678    0.627
        50  -8.3353    148.4698    162.4376   1.0089089465e+02   2.0862408256e+01    0.1338817    0.1189076  57.96 7.729745e-05    1.047    0.045
        51 -10.3251    146.1431    103.8620   8.8875786767e+01   3.2563540378e+01    0.3844546    0.3268552  58.45  0.001006402    1.198    0.165
        52  -8.4716     85.5131    105.5197   1.0467091889e+02   4.3766932125e+01    0.2261818     0.125043 -68.39 0.0006707264    1.973    0.493
        53  -7.8639     37.0407    106.0034   1.1823946349e+02   4.9834182707e+01    0.1472852    0.1170469 -79.13 0.0003607016    1.019    0.018
        54  -7.9399     98.5047    113.9961   1.0302586469e+02   3.9755173919e+01    0.1877762    0.1164975 -82.41 0.0007333554    2.241    0.554
        55 -10.8320    154.5064     99.1168   8.5730883283e+01   3.1628835256e+01    0.5322503    0.3510748  40.54  0.001462448    1.596    0.374
        56 -10.6325    167.7933     97.8057   8.2491389883e+01   2.8825410627e+01    0.5309256    0.4624627 -12.44  0.001474095    1.246    0.197
        57 -10.1959    164.4771     94.0623   8.2179640858e+01   3.0286690680e+01    0.3567641    0.2743253 -26.56 0.0007011284    1.379    0.275
        58 -10.6071    169.6393     91.3784   8.0348709393e+01   2.9561457008e+01     0.469707    0.3908126  45.70 0.0009735039    1.211    0.174
        59 -11.1525    152.0499     90.1526   8.3831122532e+01   3.3904881031e+01    0.3489314    0.3315023 -24.12 0.0004349681    1.072    0.067
        60 -11.5764    134.9067    109.6689   9.2967135522e+01   3.3786129219e+01     1.270683    0.2802891 -44.91   0.00345805    4.538    0.780
        61  -8.7074     32.5034     90.0085   1.1705860698e+02   5.3913178492e+01     0.271508    0.1070606 -74.43  0.001171672    2.460    0.594
        62 -12.4703     43.4695    170.6775   1.2390582555e+02   3.5183824946e+01    0.5916631    0.4039971 -65.77  0.003988418    1.546    0.353
        63  -9.9946    175.4223     88.1072   7.8249584933e+01   2.8763911650e+01    0.2610443    0.2414378  44.23 0.0002984642    1.091    0.083
        64  -9.0830      2.3331     89.3174   1.2603881551e+02   5.6304534191e+01    0.1156617   0.06712822 -52.51  0.000704787    1.692    0.409
        65  -9.5611     81.7381     84.3919   1.0079139117e+02   4.9088410587e+01    0.5159231    0.2222388 -63.11  0.001890722    2.877    0.652
        66 -10.1292      3.0274     81.4852   1.2491380251e+02   5.8008632050e+01    0.2609721    0.1369819  45.75  0.001555428    2.178    0.541
        67 -11.5499    185.0275    169.1243   9.4953803224e+01   1.2851169984e+01    0.4281484    0.3550113  89.22  0.002491242    1.673    0.402
        68  -8.9615    238.9565    168.9778   8.5536015199e+01   2.9583666459e+00    0.1860355    0.1536822  15.73            0    1.011    0.011
        69  -9.1690    103.4843     51.4089   8.3994543135e+01   5.1984076482e+01    0.4210933    0.1288952 -43.07  0.001367955    3.097    0.677
        70  -8.1497    154.3692    168.6873   1.0078585254e+02   1.8672752403e+01     0.136514   0.09809098  73.82 0.0007036195    1.772    0.436
        71  -9.4414    199.1568     43.4119   6.0747757035e+01   2.9775693091e+01    0.5178591    0.2027146 -30.78  0.001868083    2.355    0.575
        72 -10.8137    199.9859    164.6947   9.1373209634e+01   1.0679159249e+01    0.5857216    0.3697679  67.62  0.002243666    2.614    0.617
        73  -8.6924    171.1712     35.0981   6.2516475291e+01   3.8260521684e+01    0.2086561    0.1969754  10.48 0.0002872873    1.093    0.085
        74  -9.7439    164.7160     33.0062   6.2922996417e+01   4.0243929465e+01    0.4217541     0.311106 -76.53  0.001281531    1.655    0.396
        75 -10.5706    206.2078    162.0964   8.9752474716e+01   9.8723946719e+00    0.4226622    0.2912709  51.79  0.000671559    1.508    0.337
        76  -9.4395     92.0821     29.1107   7.8651053302e+01   5.8127682445e+01    0.4980669    0.1533369 -31.94  0.001645334    3.323    0.699
        77  -8.2953     78.4868     28.4846   8.2837992523e+01   6.0807188614e+01    0.1369509     0.120597 -17.94 8.776777e-05    1.014    0.014
        78  -9.4295    177.2923     25.5050   5.8288338170e+01   3.7856174973e+01    0.3244976    0.2544957 -88.54  0.001605885    1.399    0.285
        79  -9.0205     93.9852    167.0905   1.1300057091e+02   2.9261175072e+01    0.1810358    0.1548132  71.85 0.0003023775    1.022    0.022
        80  -8.3841    249.4935    240.0247   9.5703967628e+01  -5.9249108693e+00    0.1272047   0.09098867 -10.37 0.0003394775    1.475    0.322
        81  -8.4643    163.0202     13.6684   5.6359524743e+01   4.3022737513e+01    0.2042237    0.1778329  59.54 0.0004680465    1.117    0.105
        82 -10.4726    190.3544    165.1772   9.3228989072e+01   1.2443336165e+01    0.3413073    0.1559872  34.31  0.001420421    2.427    0.588
