#   1 NUMBER                 Running object number                                     
#   2 MAG_AUTO               Kron-like elliptical aperture magnitude                    [mag]
#   3 X_IMAGE                Object position along x                                    [pixel]
#   4 Y_IMAGE                Object position along y                                    [pixel]
#   5 X_WORLD                Barycenter position along world x axis                     [deg]
#   6 Y_WORLD                Barycenter position along world y axis                     [deg]
#   7 A_WORLD                Profile RMS along major axis (world units)                 [deg]
#   8 B_WORLD                Profile RMS along minor axis (world units)                 [deg]
#   9 THETA_WORLD            Position angle (CCW/world-x)                               [deg]
#  10 FWHM_WORLD             FWHM assuming a gaussian core                              [deg]
#  11 ELONGATION             A_IMAGE/B_IMAGE                                           
#  12 ELLIPTICITY            1 - B_IMAGE/A_IMAGE                                       
         1 -13.5436    246.9930     36.3261   5.7012382729e+01   1.9290009204e+01      2.35797     0.667838 -24.36   0.00817233    3.441    0.709
         2 -13.4463    240.5417     51.0182   6.1420575196e+01   1.8996003076e+01     1.886825    0.2141971 -31.99   0.00518871    4.920    0.797
         3 -11.2777    245.6308     10.5693   5.0776823004e+01   2.2290378779e+01    0.4162068    0.1394276 -26.77  0.001715706    2.624    0.619
         4 -11.1478    249.1147      4.7571   4.9123352349e+01   2.2072743640e+01    0.4108791    0.2848069  33.57  0.001611644    1.864    0.463
         5 -13.9245    235.1359     27.9536   5.6068612779e+01   2.2886575364e+01     1.645904    0.7060598 -19.18  0.006722858    2.536    0.606
         6 -12.3973    248.9825     18.2076   5.2370281573e+01   2.0791770521e+01    0.9013443    0.4121365 -23.50  0.004188621    2.097    0.523
         7 -12.9849    244.6198     23.2674   5.3985904054e+01   2.1234972960e+01    0.9705002    0.4032912 -30.63  0.004346705    2.074    0.518
         8 -10.8550    243.2010      3.9024   4.9334037013e+01   2.3463851468e+01    0.3167848    0.1840826  -3.96  0.001556023    2.268    0.559
         9 -10.3039    239.6612      2.3613   4.9210997565e+01   2.4404168413e+01    0.3256641   0.07742435 -30.17   0.00121396    3.169    0.684
        10 -10.3110    217.5807      3.3107   5.1194457722e+01   2.9527335948e+01    0.2553228    0.1137868 -28.60  0.001076178    2.095    0.523
        11  -9.6653     50.8712      3.8230   8.8008028134e+01   6.9479624187e+01    0.1919148    0.1432913  -0.40 0.0003173515    1.165    0.141
        12  -9.3939    159.1371      2.1236   5.7306019173e+01   4.4762402672e+01      0.19587    0.1649617 -60.60  0.001066608    1.303    0.232
        13  -9.4939     14.8077      2.1449   1.0791251780e+02   7.4066932227e+01    0.1657055    0.1046237 -26.33 0.0002543415    1.298    0.230
        14  -9.4505    232.7553    247.5965   1.0372049935e+02  -4.1044751291e+00    0.1417275    0.1309247  -0.59  0.001153945    1.728    0.421
        15 -10.3404    210.4523    248.6392   1.0758504264e+02  -1.1885039466e+00    0.2208913     0.181407 -18.56  0.001751771    1.547    0.353
        16 -10.6097    193.7240    249.1044   1.1050868277e+02   1.0913344483e+00    0.2553933    0.2125969  28.17  0.001944905    1.265    0.209
        17  -9.0818    168.0166    249.9801   1.1510208198e+02   4.6222329702e+00    0.1365348   0.09541406  33.33 0.0003725836    1.030    0.030
        18  -9.8214    240.8083    232.3391   1.0014793171e+02  -3.7486165977e+00    0.1789083     0.168061   2.72 0.0009717942    1.781    0.439
        19  -9.3872    225.5574    231.7771   1.0261880302e+02  -1.5820092382e+00    0.1268413    0.1036356 -23.86 0.0006855592    1.618    0.382
        20  -9.1454    245.4970    231.5126   9.9250907006e+01  -4.3027053576e+00    0.1126985   0.07984267  16.81 0.0002428955    1.061    0.057
        21 -10.4178    235.4716    229.8862   1.0065794622e+02  -2.7771519654e+00    0.2473036    0.1942086 -17.43   0.00131659    1.514    0.339
        22  -9.4382    158.3143    231.6534   1.1465316065e+02   8.3246902709e+00    0.1129298   0.08003048  57.47 0.0007047306    1.717    0.418
        23  -9.9244    229.4716    228.6411   1.0147769772e+02  -1.8123850387e+00    0.1850742     0.178221  48.32  0.001056171    1.912    0.477
        24  -9.8491    211.8715    227.9095   1.0440660910e+02   7.9806976962e-01      0.17881    0.1497492 -11.39  0.001002298    1.386    0.279
        25 -10.2420    199.1073    227.2064   1.0657068819e+02   2.7668354389e+00    0.2263319     0.193672 -47.37  0.001148395    1.819    0.450
        26 -10.7640    232.9786    213.5300   9.8475375808e+01  -7.2251478558e-01    0.2950228    0.2421083 -27.81  0.001159386    1.647    0.393
        27 -10.4998    229.6584    207.5289   9.8047927906e+01   4.3507892652e-01    0.3203984    0.2025361 -36.92  0.001365485    2.056    0.514
        28  -9.9331    227.9701    201.9846   9.7396744857e+01   1.3282969348e+00    0.1764479    0.1505671  13.87 0.0009344195    1.256    0.204
        29 -10.7514    246.6653    226.4706   9.8271108177e+01  -3.9788862814e+00     0.350936      0.22265  45.76  0.002174977    2.219    0.549
        30 -10.9923    239.2724    221.2323   9.8661401133e+01  -2.4368973313e+00    0.4286182    0.3100926  52.49   0.00263391    2.472    0.596
        31  -9.8452    223.1803    227.0005   1.0230195567e+02  -7.4501774172e-01    0.1644426     0.134209  24.06 0.0007247977    1.292    0.226
        32 -10.0837    205.9923    225.7768   1.0512867190e+02   1.9060801818e+00    0.2055028    0.1726176 -35.00  0.001244376    1.671    0.402
        33  -9.6864    190.5596    226.3072   1.0798759420e+02   4.1580187568e+00    0.1810904    0.1156462 -41.29  0.001126293    2.071    0.517
        34 -11.0876    217.2673    223.1592   1.0273930640e+02   5.3186954582e-01    0.3209767    0.2778531 -36.91  0.001508768    1.765    0.434
        35 -11.9637    217.0210    212.2850   1.0106184594e+02   1.8051071274e+00     0.597473    0.4243651 -54.76  0.003362331    2.903    0.656
        36 -10.5401    228.6452    222.1676   1.0061196007e+02  -1.0191833072e+00    0.3479446     0.158017  41.10  0.001871537    2.039    0.510
        37  -9.0856    201.5484    221.5127   1.0528764621e+02   3.0717923689e+00    0.1206498   0.09109856  23.80 0.0002256927    1.024    0.023
        38 -11.5311    248.0220    217.6103   9.6619450753e+01  -3.2951051666e+00    0.4059505    0.2979102 -30.25  0.002270304    1.824    0.452
        39 -10.9829    247.8234    207.7980   9.5006924365e+01  -2.2637500167e+00    0.3492131    0.2580462 -35.59   0.00176161    1.966    0.491
        40 -10.6129    243.3896    201.3475   9.4631646656e+01  -9.2831907555e-01    0.3048113    0.2081594 -22.92  0.001516816    1.524    0.344
        41 -10.2762    193.5056    219.3712   1.0643375454e+02   4.5616621720e+00     0.235768    0.2005516 -89.68  0.001505999    2.265    0.558
        42 -10.4298    230.6118    237.1785   1.0257033136e+02  -2.8264304097e+00    0.2283828    0.2067713  62.31  0.001669561    2.263    0.558
        43 -10.1938    206.8712    237.3096   1.0664341303e+02   4.9469973909e-01    0.2559084    0.1882525  51.99  0.001692047    1.981    0.495
        44  -9.6186    239.4951    215.4234   9.7679670187e+01  -1.8686026944e+00    0.1796078    0.1007733 -38.60  0.001021376    2.531    0.605
        45 -10.6465    230.3309    180.4312   9.3073960900e+01   3.5644523809e+00    0.4339539    0.1861508 -19.06  0.001820716    2.980    0.664
        46 -10.4172    230.0909    187.2755   9.4397036445e+01   2.7540326264e+00    0.2659511    0.2220499 -32.28  0.001036484    1.583    0.368
        47 -11.3365    240.7950    208.8862   9.6368438543e+01  -1.3641453337e+00    0.7493469    0.3590836 -44.22  0.003373606    4.232    0.764
        48 -10.6201    230.9371    194.1599   9.5499392275e+01   1.7886706468e+00    0.3478802    0.2010598 -27.52  0.001427956    1.792    0.442
        49 -10.9001    235.1206    203.4111   9.6399415686e+01   7.6722610490e-02    0.3878647    0.2252288 -32.30  0.001930608    1.961    0.490
        50 -10.8499    231.6125    199.7962   9.6378967904e+01   1.0224736548e+00    0.2884887    0.1922874 -32.45  0.001379648    1.774    0.436
        51  -9.8212    210.9568    218.8747   1.0319202086e+02   1.9583380582e+00    0.1912799    0.1552377  -1.03   0.00097053    1.235    0.190
        52  -9.5486    224.9853    208.0531   9.8953528518e+01   1.0824331664e+00    0.1555154    0.1494629  40.59  0.001114386    1.702    0.412
        53  -9.9828    206.2500    207.3921   1.0221322891e+02   4.0662480850e+00      0.25229    0.1655124 -21.12  0.001527659    1.656    0.396
        54  -8.9401    154.3241    219.6779   1.1387759918e+02   1.0581437391e+01    0.1177648   0.08347964  57.75 0.0004755162    1.681    0.405
        55  -9.8956    212.6163    211.8112   1.0177389335e+02   2.5357142365e+00    0.2384945    0.1662427 -36.39  0.001046524    1.833    0.454
        56  -9.2052    173.0000    204.0043   1.0799976707e+02   9.8776210263e+00    0.1743985   0.07247551 -42.23 0.0007947272    2.889    0.654
        57 -11.6954    241.5349    180.7129   9.1179695492e+01   1.7211637336e+00    0.6101213    0.2995298 -39.92  0.002963667    2.677    0.626
        58  -9.8388    241.4106    173.2274   8.9757739119e+01   2.6488842718e+00    0.2095894    0.1442443 -27.77 0.0006976316    1.507    0.337
        59 -10.5388    250.2846    200.6252   9.3354003929e+01  -1.8606821369e+00    0.4070183    0.1452973 -34.73  0.001898527    3.175    0.685
        60 -10.5467    249.5559    184.7623   9.0592871406e+01  -1.0815312326e-03    0.3700964    0.1795195 -32.71  0.001844386    2.179    0.541
        61 -11.3215    247.6067    178.2037   8.9674920278e+01   1.0605268990e+00    0.5156384    0.2637025 -34.90  0.002276996    2.166    0.538
        62 -11.3197    246.5519    193.7963   9.2756365979e+01  -5.6499718590e-01    0.3236128    0.3010367 -13.31  0.001534639    1.621    0.383
        63 -10.6167    243.9432    188.9160   9.2305103208e+01   3.8318990553e-01    0.2494677    0.2152084  21.45  0.001052645    1.369    0.270
        64  -9.9872    223.6296    201.5408   9.8087211243e+01   2.0524539722e+00    0.1810462    0.1087122 -27.27 0.0009942196    1.772    0.436
        65  -9.7567    215.4278    197.7424   9.8906299120e+01   3.8118304750e+00      0.20674    0.1156439 -35.71  0.001046265    2.068    0.517
        66  -9.7606    202.1817    197.7599   1.0136230397e+02   5.9569924086e+00    0.2088112    0.1465048 -47.89  0.001025288    2.095    0.523
        67  -9.3566    176.5018    198.5014   1.0644393169e+02   1.0099606615e+01    0.1291636    0.1053956  28.89 0.0008103953    1.038    0.037
        68 -10.8089    224.3476    192.9513   9.6449981426e+01   2.9775833780e+00    0.3149013    0.2145479 -40.76  0.001377079    2.002    0.500
        69  -9.5103    219.5943    194.7809   9.7630696594e+01   3.5128367285e+00    0.1527061    0.1140299 -33.67 0.0008378858    1.640    0.390
        70  -9.3889    209.4892    194.5176   9.9436417486e+01   5.1852902250e+00    0.1296505    0.1009457  17.89 6.840304e-05    1.014    0.014
        71 -10.3153    233.6550    174.8976   9.1425302324e+01   3.7135483103e+00     0.319475    0.2738709  54.88  0.001985653    1.790    0.441
        72 -10.9597    237.0558    187.6072   9.3241278862e+01   1.6068167448e+00    0.3893586    0.1967474 -30.72  0.001460393    2.045    0.511
        73 -10.8134    235.4324    181.0639   9.2298330831e+01   2.6556697493e+00    0.3656318    0.2350856  -6.47   0.00209956    1.492    0.330
        74  -9.5468    214.9783    191.9491   9.7968846009e+01   4.6186821249e+00    0.1689666    0.1597273  62.22 0.0009250736    1.681    0.405
        75  -9.1897    198.6731    191.3169   1.0091557203e+02   7.4082453643e+00    0.1166105    0.1004119  59.28 0.0007045288    1.676    0.403
        76  -9.5666    210.5139    175.9676   9.5846442782e+01   7.5066109839e+00    0.2334644     0.123356 -36.80  0.001064864    2.089    0.521
        77  -9.9557    210.4149    188.7280   9.8235845530e+01   5.7921441860e+00    0.2114274    0.1505763 -38.27 0.0008650284    1.738    0.424
        78 -10.7216    210.8813    182.6612   9.7039109522e+01   6.5260436362e+00    0.3948255    0.1877543 -29.83  0.001672675    2.258    0.557
        79  -9.3639    220.4432    188.0179   9.6261183966e+01   4.2265342148e+00    0.1768665    0.1160651 -26.09 0.0007368994    1.583    0.368
        80  -9.5957    215.1960    187.0271   9.7040500608e+01   5.2202646707e+00    0.1764536    0.1508798 -57.41 0.0008724416    1.968    0.492
        81 -10.1268    224.0223    184.0184   9.4875816157e+01   4.1478805720e+00    0.2646432    0.1753357 -35.71  0.001099063    1.779    0.438
        82 -10.0278    203.4258    183.7104   9.8643920057e+01   7.6545926512e+00     0.227169    0.1225677 -39.59  0.001131753    2.170    0.539
        83 -10.4272    183.6000    182.9726   1.0239869677e+02   1.1197317310e+01    0.2719259    0.2286391 -54.65  0.001252949    1.650    0.394
        84  -9.4909    225.5249    179.1477   9.3687490762e+01   4.5226363582e+00    0.1786318     0.116545 -23.96 0.0009042583    1.530    0.346
        85  -9.5230    190.6914    179.3595   1.0032716044e+02   1.0494900806e+01    0.1218113    0.1071233  74.71 0.0007041181    1.736    0.424
        86  -9.7390    219.2273    177.7911   9.4573037070e+01   5.7604198672e+00    0.2230698    0.1489705 -29.13  0.001263674    1.572    0.364
        87  -9.4133    205.1586    177.1578   9.7091647666e+01   8.2736002314e+00    0.1645057    0.1587974   7.00 0.0009023394    1.355    0.262
        88 -10.5080    182.2339    176.4688   1.0149744592e+02   1.2435665173e+01     0.240335    0.1874436 -29.34   0.00130256    1.397    0.284
        89 -10.1260    223.3964    173.4578   9.2975402875e+01   5.6252267261e+00    0.2985013    0.1759868 -40.08  0.001255648    2.081    0.519
        90 -10.3189    227.7302    171.1277   9.1737164756e+01   5.1932754267e+00    0.2813026    0.1679083 -37.00  0.001109099    1.916    0.478
        91  -9.9716    229.1745    166.3237   9.0522748149e+01   5.5784965944e+00    0.2603099    0.1764407 -10.36  0.001089815    1.405    0.288
        92 -10.1565    237.2227    169.4157   8.9726749013e+01   3.8139112161e+00    0.2923998    0.1626128 -32.90  0.001189442    1.872    0.466
        93 -10.3562    247.6213    112.5991   7.5649914065e+01   9.4602972409e+00    0.2990539    0.1759731 -36.00 0.0009144344    1.652    0.395
        94 -11.4125    235.1611    147.1811   8.5481893984e+01   7.0893976486e+00    0.4971908    0.3363357 -34.89  0.001747267    1.586    0.369
        95 -12.3901    241.0562    104.9294   7.4838708068e+01   1.1785516586e+01     1.570447    0.3503461 -31.15   0.00486175    3.900    0.744
        96 -12.0827    240.6305    123.3817   7.9252172675e+01   9.3292476287e+00     1.058271    0.3466735 -31.11  0.003985789    2.779    0.640
        97 -12.0751    249.4078    150.8206   8.3866180760e+01   4.1190328017e+00     1.976359    0.2798148 -32.85  0.005506051    6.030    0.834
        98 -10.3883    240.3615    164.0125   8.8103528846e+01   3.9737146914e+00    0.3371388    0.2571684 -52.77  0.001396295    2.267    0.559
        99 -10.4287    237.5052    158.6953   8.7506650400e+01   5.1444410767e+00    0.3115342    0.2423445 -31.57  0.001819913    1.462    0.316
       100 -10.8569    243.4876    140.0909   8.2535965781e+01   6.5438117475e+00    0.4590493    0.2083074 -29.52   0.00153641    2.040    0.510
       101 -10.6175    242.1550    133.7934   8.1363985799e+01   7.6278008495e+00    0.4312356    0.2091492 -30.02   0.00147447    1.904    0.475
       102 -10.9412    247.7445    129.8381   7.9575688994e+01   7.1349722420e+00    0.6622892    0.2797022 -36.83  0.002858782    2.362    0.577
       103 -11.4541    248.4733    120.9434   7.7447508099e+01   8.1831396701e+00    0.7690777    0.2335119 -36.51  0.002815884    3.123    0.680
       104 -10.3532    241.8481    153.5628   8.5697112644e+01   5.0627540501e+00    0.3425947    0.2342684 -41.24  0.001346058    1.862    0.463
       105 -10.8675    243.9608    148.8660   8.4350568046e+01   5.3067376776e+00    0.4735808    0.2572174 -33.04   0.00173873    1.821    0.451
       106 -11.3701    245.8844    168.1777   8.8004354322e+01   2.5403749618e+00    0.3705467    0.2569112 -28.76  0.001600452    1.510    0.338
       107 -11.6240    246.5246    160.4022   8.6329122256e+01   3.3976776465e+00    0.7805343    0.2596695 -33.07  0.003224707    2.891    0.654
       108 -10.4433    218.6571    168.3847   9.2843899117e+01   7.1307221656e+00     0.340667    0.2345944 -34.42  0.001818458    1.611    0.379
       109 -10.0369    199.5022    164.8220   9.5788905363e+01   1.1088302002e+01    0.2942455    0.1302154 -38.12   0.00118873    2.439    0.590
       110 -10.0557    234.0537    164.1943   8.9231276007e+01   5.0201217306e+00    0.2723758    0.1678077 -31.22   0.00110948    1.661    0.398
       111  -9.0981    191.3276    165.6622   9.7587049232e+01   1.2464866242e+01    0.1273209    0.1116671  77.90 0.0007051772    1.729    0.422
       112 -10.4484    212.8384    162.9381   9.2834772959e+01   8.9322642297e+00    0.3501959    0.2104223 -30.18  0.001615014    1.697    0.411
       113  -9.4777    221.2066    152.1874   8.9037855028e+01   8.9384246164e+00    0.2308578    0.1691484 -33.49 0.0008804323    1.473    0.321
       114 -10.4814    221.7414    161.7237   9.0931564204e+01   7.5037605426e+00     0.327323    0.2148294 -21.79  0.001132875    1.486    0.327
       115  -9.7332    222.0000    156.9657   8.9900219937e+01   8.1195310527e+00    0.2508037    0.1327631 -36.37  0.000953918    2.005    0.501
       116 -10.5964    205.3705    161.0427   9.3876869582e+01   1.0573554676e+01    0.4418333    0.2816499 -35.95  0.002018707    1.692    0.409
       117 -10.1026    205.1658    154.6283   9.2585194158e+01   1.1573435721e+01    0.3378049    0.2551216  -1.31  0.001854243    1.300    0.231
       118  -9.5555    202.4619    151.5151   9.2453905336e+01   1.2562332516e+01    0.2531046    0.1306501 -37.78   0.00113214    2.052    0.513
       119 -10.0108    196.7611    157.3726   9.4816692236e+01   1.2739362064e+01    0.2436672    0.1667628 -41.97  0.001251431    1.703    0.413
       120  -9.5442    226.3999    156.7364   8.9054692795e+01   7.3592047186e+00    0.2448426    0.1188044 -34.05  0.001130334    2.087    0.521
       121  -9.4255    187.5771    155.6970   9.6335571919e+01   1.4752391800e+01    0.2605584    0.1336828 -31.84  0.001140933    2.106    0.525
       122  -9.5178    154.5054    156.5182   1.0366844949e+02   2.0908347925e+01    0.1415869    0.1281126  32.30 0.0001810302    1.041    0.039
       123 -10.0017    157.3915    153.2262   1.0236392154e+02   2.0965776852e+01    0.1902358    0.1368998 -54.83 0.0007921833    1.705    0.413
       124 -10.0023    228.4931    150.8050   8.7427714127e+01   7.7995173395e+00    0.3977392     0.126459 -26.62  0.001354622    3.682    0.728
       125  -8.8371    211.3142    151.6684   9.0774224417e+01   1.0857547464e+01     0.124636    0.1141003 -77.39 0.0005291709    1.680    0.405
       126  -9.9237    196.6108    150.0143   9.3295818428e+01   1.3923428725e+01    0.2958616    0.1323785 -34.91  0.001193402    2.318    0.569
       127  -9.9851    172.5005    148.9851   9.8130217190e+01   1.8805205504e+01    0.2068041     0.141205 -37.59 0.0006245892    1.559    0.358
       128  -9.9728    223.5019    146.6469   8.7427765721e+01   9.3015484461e+00    0.2570277    0.2192216 -28.17  0.001283025    1.307    0.235
       129  -9.4943    208.0000    144.9963   8.9963052047e+01   1.2495384424e+01     0.222028    0.0768528 -34.26 0.0007993682    2.921    0.658
       130  -9.3191    231.5365    159.7165   8.8758359561e+01   6.0463319136e+00    0.1713225    0.1181713 -33.87 0.0009445508    1.587    0.370
       131 -10.2714    163.4829    144.0184   9.9074653794e+01   2.1467051587e+01    0.2131657     0.143582 -40.78  0.000779669    1.585    0.369
       132  -9.1800    155.6728    144.3236   1.0092426479e+02   2.2944972485e+01    0.1422959    0.1162096  77.80 0.0006739688    1.692    0.409
       133  -9.1613    194.3395    143.6597   9.2371482630e+01   1.5386728609e+01     0.135684    0.1178625 -86.96 0.0007050001    1.767    0.434
       134 -10.2128    230.0264    141.0975   8.5048403523e+01   8.8687940874e+00    0.3235348     0.177618 -36.01  0.001507977    1.871    0.466
       135  -9.3700    214.1474    142.1884   8.8173194600e+01   1.1729153045e+01    0.1815091    0.1630503 -36.93 0.0006469559    1.359    0.264
       136  -9.2086    182.3084    142.6620   9.4650986273e+01   1.7952791141e+01    0.1363769    0.1186751 -88.10 0.0005681568    1.682    0.405
       137 -10.0911    238.4063    140.3066   8.3431676813e+01   7.4329696367e+00    0.2628113    0.2137262 -35.54 0.0009664195    1.438    0.305
       138 -11.1959    234.8076    135.6358   8.3006516979e+01   8.7369794801e+00    0.5357902    0.2536803 -35.43  0.001612138    2.088    0.521
       139 -10.4348    224.1422    140.0165   8.5853428701e+01   1.0130369007e+01    0.3102778    0.1857616 -28.02 0.0009867325    1.605    0.377
       140  -9.9735    166.1400    140.8742   9.7793569122e+01   2.1511085116e+01    0.2191275    0.2054022  69.25 0.0009634246    1.289    0.224
       141  -9.4975    161.2786    140.6374   9.8844205899e+01   2.2525761967e+01     0.140083    0.1181889 -87.53 0.0004963708    1.671    0.402
       142 -10.8031    219.0430    137.8426   8.6292436945e+01   1.1426357130e+01    0.3618793    0.2251871 -23.80   0.00179011    1.563    0.360
       143  -9.7147    208.4691    137.9943   8.8310939480e+01   1.3477651595e+01    0.2150216    0.1332178 -32.14  0.001032935    1.610    0.379
       144  -9.2558    192.6225    137.1815   9.1269056375e+01   1.6789919426e+01    0.2026774    0.1313534 -21.53 0.0009456348    1.648    0.393
       145  -9.3545    198.5273    136.4891   8.9916323826e+01   1.5706151920e+01    0.1448251    0.1296255  10.37 0.0008096885    1.036    0.035
       146  -9.9749    163.0985    136.1299   9.7430517358e+01   2.2994197991e+01    0.2367823    0.1953385   6.78 0.0009178381    1.268    0.212
       147  -9.7607    155.6193    135.8142   9.9091542851e+01   2.4562390309e+01    0.2009951    0.1399541 -52.44 0.0007561342    1.683    0.406
       148 -10.1086    225.2402    133.7285   8.4241880264e+01   1.0826662335e+01    0.3140146    0.1973725 -26.18  0.001153044    1.510    0.338
       149 -12.2109    221.4887    128.3884   8.3684182380e+01   1.2342317125e+01     1.072235    0.2393901 -36.46    0.0032268    4.239    0.764
       150  -9.9991    199.9117    126.5340   8.7318579698e+01   1.7029273611e+01    0.2847823    0.1845981 -48.44 0.0009333164    1.940    0.485
       151 -11.0422    180.2770    124.0672   9.0785272783e+01   2.1592545604e+01    0.5366251    0.2575813 -37.25   0.00214625    2.123    0.529
       152  -9.4308    227.4621    125.0450   8.1849868324e+01   1.1648052777e+01    0.2148019    0.1273594 -28.43  0.001004262    1.588    0.370
       153  -9.9841    212.8691    121.2260   8.3563179648e+01   1.5171261408e+01    0.4286518    0.1629859 -23.22   0.00136895    3.590    0.721
       154 -10.0344    205.9373    130.9677   8.7184558788e+01   1.5080379241e+01    0.2161709    0.1841951 -68.15  0.001135312    1.735    0.424
       155  -9.6611    140.0000    118.0250   9.8768368546e+01   3.1230352099e+01     0.246547   0.08595145 -44.09 0.0008033318    2.949    0.661
       156 -10.5883    230.4896    111.0405   7.8004719462e+01   1.3059317762e+01    0.3865177    0.1303534 -29.60  0.001380183    2.812    0.644
       157  -9.8179    186.1352    128.9054   9.0695167684e+01   1.9517213825e+01    0.2170822    0.2096388 -58.09 0.0007859954    1.279    0.218
       158 -10.1042    233.0999    153.7102   8.7231427125e+01   6.5760371769e+00     0.277917    0.2037563 -38.95  0.001162878    1.653    0.395
       159  -9.2422    150.4450    110.4914   9.4266289230e+01   3.0539724458e+01    0.1527142    0.1448203  10.97 0.0001267768    1.008    0.008
       160  -9.9985    234.9285    123.3249   8.0177687867e+01   1.0432171311e+01    0.2372589    0.1706385 -31.31 0.0006102772    1.361    0.265
       161  -9.0292    189.6947    109.3263   8.5115413922e+01   2.2078522577e+01    0.1454914     0.121871 -70.39 0.0007034981    1.648    0.393
       162  -9.2605    183.0000    108.9767   8.6418652482e+01   2.3630311604e+01    0.2478493   0.08494433 -35.50 0.0007998637    2.925    0.658
       163 -10.0885    248.1600    106.8496   7.4219087595e+01   1.0127969515e+01    0.2022468    0.1690764 -32.47 0.0006477294    1.238    0.193
       164  -9.7827    222.4263    104.2389   7.7688970004e+01   1.5727049242e+01    0.3526395    0.1273081 -32.74  0.001287903    2.562    0.610
       165  -9.2785    205.6013    104.8325   8.0843738930e+01   1.9283720168e+01    0.2150796    0.1304808 -40.38  0.000952263    1.718    0.418
       166  -9.7024    229.5336    102.9965   7.6194920575e+01   1.4410878280e+01    0.2186347    0.1290304 -28.11 0.0007053728    1.567    0.362
       167  -9.8267    166.9934    100.7581   8.7752437205e+01   2.8706094028e+01    0.2896123    0.1917584 -46.98  0.001218818    1.679    0.404
       168 -10.9095    249.0863     97.8995   7.1956068702e+01   1.1142525299e+01    0.5829786    0.1993916 -26.45  0.002164825    2.767    0.639
       169 -10.6634    247.6853     92.1217   7.0764617964e+01   1.2190094876e+01    0.4647743    0.2675597 -54.57  0.002015663    2.623    0.619
       170 -10.1835    249.2054     87.9362   6.9537377018e+01   1.2437955606e+01    0.2819568    0.1790818 -23.56 0.0009597493    1.410    0.291
       171 -10.7587    246.4840     84.9082   6.9173439438e+01   1.3390784490e+01    0.5255994    0.3001706 -11.36  0.002393423    1.980    0.495
       172 -10.7804    242.6884     82.4884   6.9102335267e+01   1.4498224181e+01    0.8729649    0.2670894 -24.20  0.002810894    3.616    0.723
       173 -10.6466    239.4527     80.9880   6.9181668195e+01   1.5380963563e+01    0.4055693    0.2310601 -24.40  0.001911574    1.628    0.386
       174 -11.4981    235.2530     77.0484   6.8778875229e+01   1.6813458786e+01    0.8487834    0.2327523 -36.82  0.002850806    3.189    0.686
       175 -12.1949    238.8633     75.1040   6.7778700644e+01   1.6292510110e+01    0.9112674    0.3387437 -33.03  0.003575508    2.338    0.572
       176  -9.7350    224.9977     99.5071   7.6070625714e+01   1.5872806043e+01    0.2325946    0.1755091 -24.22 0.0006784738    1.227    0.185
       177  -8.6744    209.0000     99.9871   7.8968115826e+01   1.9288484965e+01    0.2394694   0.08044227 -31.72 0.0007916226    2.868    0.651
       178 -10.5196    249.6826     81.7840   6.7974769270e+01   1.3146621183e+01     0.464192    0.2529949 -46.38  0.002135103    2.066    0.516
       179  -9.4151    216.6371     99.2145   7.7413792633e+01   1.7723091504e+01     0.207473    0.1302635 -18.52 0.0008271145    1.629    0.386
       180 -10.2437    215.6945     94.3255   7.6316158899e+01   1.8663610949e+01    0.3153307    0.1610177 -33.27 0.0008013426    1.846    0.458
       181 -11.2278    218.0245     89.8610   7.4758576282e+01   1.8807787579e+01    0.3556856    0.2356648 -27.01  0.001215971    1.422    0.297
       182  -9.9012    218.1608     85.1630   7.3503178417e+01   1.9464988755e+01    0.2069381    0.1598422 -43.52 0.0008252466    1.374    0.272
       183 -11.0011    221.0095     97.8021   7.6305448565e+01   1.6980935359e+01     0.263275    0.1803105 -34.60 0.0007956346    1.415    0.293
       184  -9.1104    202.7468     97.9953   7.9599993477e+01   2.1000785562e+01    0.1997898    0.1232754 -29.65 0.0008872436    1.569    0.363
       185  -9.7875    235.4921     95.5167   7.3397199378e+01   1.4225357640e+01    0.2545405    0.1109535 -38.67 0.0009534545    2.240    0.554
       186 -10.0762    224.7337     93.3708   7.4559010724e+01   1.6819639630e+01    0.2586316    0.1658701  -6.39 0.0009145527    1.797    0.444
       187 -10.3107    188.9133     92.9950   8.0932489772e+01   2.4985889673e+01    0.4016158    0.2070706 -37.50  0.001386527    1.923    0.480
       188  -9.6974    188.5251     87.2410   7.9416757831e+01   2.6020743590e+01    0.2789073    0.1879691 -38.75  0.001081196    1.503    0.335
       189  -9.4750    164.3761     94.2243   8.6546009690e+01   3.0494766484e+01    0.2218646    0.1421255 -44.31 0.0009477558    1.667    0.400
       190  -9.2797    236.6206     90.2030   7.1903362924e+01   1.4725562545e+01    0.1995154    0.1233848 -16.99 0.0009418918    1.612    0.380
       191  -9.0364    231.2640     90.6497   7.2831384675e+01   1.5799926609e+01    0.1408392    0.1034606 -50.56 0.0004639959    1.615    0.381
       192 -10.5227    175.8667     88.0174   8.2238826791e+01   2.8892903835e+01    0.3022688    0.2128583 -31.12 0.0008891898    1.409    0.291
       193  -9.4388    151.0000     88.0222   8.7950297992e+01   3.4731474871e+01    0.2582788   0.08829972 -37.62 0.0008022416    2.941    0.660
       194  -9.0866    197.6599     87.3114   7.7678185410e+01   2.3858740857e+01    0.1505972    0.1197395 -68.15 0.0007045639    1.694    0.410
       195  -9.8281    221.9498     85.2091   7.2900878829e+01   1.8608858564e+01    0.3387869     0.187854   2.19  0.001228405    3.016    0.668
       196  -9.3331    206.1057     85.1275   7.5545788650e+01   2.2228110597e+01    0.2071658    0.1718144 -46.56 0.0007801442    1.322    0.244
       197  -9.5175    225.8290     87.8203   7.2960294750e+01   1.7377538632e+01    0.1974394    0.1598374 -43.68 0.0006627297    1.326    0.246
       198  -9.6754    126.7501     82.9817   9.2819583927e+01   4.1133996652e+01    0.2075601    0.1301487 -39.20 0.0008879909    1.586    0.370
       199  -9.5854    225.2541     81.6203   7.1443651691e+01   1.8383367687e+01    0.2686078    0.1560777 -38.57 0.0008165491    1.675    0.403
       200 -10.3412    158.6034     81.7174   8.4258178801e+01   3.4102501259e+01    0.3056444    0.1517029 -30.43  0.001136843    2.128    0.530
       201  -9.2750    214.6421     80.2087   7.2762267810e+01   2.0987328832e+01    0.2102969    0.1327819 -17.82 0.0009437935    1.645    0.392
       202  -9.2377    150.4952     79.5076   8.5530540479e+01   3.6421024685e+01    0.1558794    0.1500568   8.11 0.0008104173    1.032    0.031
       203 -10.0620    206.4398     76.3406   7.3080430870e+01   2.3467152289e+01     0.566412    0.1276464 -31.93  0.001600067    3.968    0.748
       204  -9.5877    201.1462     78.0099   7.4464974691e+01   2.4472758055e+01    0.2541313    0.1575657 -50.56  0.001077771    1.950    0.487
       205  -9.2203    174.5699     77.7740   7.9536599893e+01   3.0931622599e+01    0.2246173    0.1412387 -42.21 0.0009538825    1.667    0.400
       206  -9.9687    130.4690     78.0172   9.0267138616e+01   4.1296952941e+01    0.2422501    0.1508674 -37.75  0.001034086    1.599    0.375
       207  -9.2606    183.4277     77.2304   7.7567977223e+01   2.8863861051e+01     0.219589    0.1387251 -41.58 0.0009446354    1.644    0.392
       208 -10.3220    157.5292     75.7348   8.2692999270e+01   3.5415662261e+01    0.3753628    0.1485219 -36.67  0.001281501    2.496    0.599
       209  -8.6475    223.2928     76.3094   7.0350879703e+01   1.9569055421e+01    0.1463764    0.1058957  14.97 0.0003572384    1.586    0.369
       210 -10.7727    229.6288     70.7498   6.7951978732e+01   1.8904445886e+01    0.3796848    0.1712378 -42.36  0.001494139    2.271    0.560
       211 -10.4266    222.4381     71.0138   6.9073076372e+01   2.0498851829e+01    0.3191692    0.1900612 -25.32 0.0008766896    1.600    0.375
       212 -11.4189    223.4585     66.9935   6.7847662356e+01   2.0813765374e+01    0.5112768    0.2576214 -15.76  0.001903087    2.370    0.578
       213  -9.7270    163.2398     71.6167   8.0120265946e+01   3.4730851246e+01    0.3052338    0.1764172 -41.15  0.001246759    1.792    0.442
       214  -9.7404    224.4428    248.6986   1.0524637081e+02  -3.0986610836e+00    0.1577092    0.1004109 -30.76 0.0008917525    2.016    0.504
       215 -11.1179    250.4002     56.2845   6.1606868264e+01   1.6215534936e+01     1.055926    0.2120293 -25.37  0.002881616    5.284    0.811
       216 -13.2863    245.2205     56.2949   6.2209231748e+01   1.7324444772e+01     1.434291    0.6312296 -36.75   0.00627764    1.999    0.500
       217  -9.9134    218.7951    248.6664   1.0618345954e+02  -2.3325849496e+00    0.1917276    0.1391378  42.46  0.001078436    1.673    0.402
       218  -8.9282    170.5055     70.5079   7.8203304603e+01   3.3123487288e+01    0.1544402     0.149111   6.71 0.0008104178    1.031    0.030
       219 -10.1053    187.4345     68.7220   7.4295868050e+01   2.9212662564e+01     0.293262    0.1381472 -35.11  0.001121014    2.052    0.513
       220  -8.9219     15.2941     69.2701   1.2795874916e+02   5.9784719333e+01    0.1226163    0.0743103 -44.50   0.00016806    1.516    0.340
       221 -10.2081    193.8706     68.0709   7.2927698652e+01   2.7725185752e+01    0.2351316    0.2038577 -51.84  0.001018334    1.266    0.210
       222  -9.4771    203.1603     66.2155   7.0792159732e+01   2.5727772420e+01    0.2099101    0.1708103 -51.02  0.001064194    1.345    0.256
       223  -9.5465    163.5288     64.9929   7.7979974506e+01   3.5751358332e+01    0.2400525    0.1521143 -30.03  0.001028465    1.582    0.368
       224  -9.2123    197.1484     64.1667   7.1218260019e+01   2.7492217665e+01     0.209634    0.1735127 -53.22 0.0006422927    1.338    0.253
       225  -9.5284    111.6471     64.3197   9.1263702366e+01   4.8020451467e+01    0.1512327    0.1241797 -84.99 0.0007047154    1.748    0.428
       226  -9.2893    187.3415     62.7509   7.2535180202e+01   3.0132839826e+01    0.2133139    0.1410116 -17.70   0.00075494    1.618    0.382
       227 -10.1948    157.9773     61.9705   7.8235699322e+01   3.7624600643e+01    0.3749725    0.2184364 -39.23  0.001553168    1.754    0.430
       228 -10.6160    233.6082     59.3694   6.4434385697e+01   1.9505022662e+01    0.2783266    0.1152223 -32.20 0.0009756606    2.127    0.530
       229  -9.7931    153.1295     59.6325   7.8569488306e+01   3.9210697486e+01    0.2826253    0.2048379 -39.11  0.001131365    1.422    0.297
       230 -10.2946    192.5468     55.2098   6.9360504585e+01   2.9910946397e+01     0.287576    0.1377387 -32.18  0.001129746    1.999    0.500
       231  -8.7283    182.6282     58.2955   7.2048983278e+01   3.1973395182e+01    0.1572585    0.1185628 -69.98 0.0007027378    1.734    0.423
       232 -12.7528    226.4344     52.8041   6.3633086555e+01   2.1984146602e+01    0.7507797    0.5076244 -24.52  0.003328374    1.407    0.289
       233  -9.5220    208.0000     47.9763   6.4824867481e+01   2.7024158702e+01    0.2852025    0.1787985 -32.33 0.0009394193    1.520    0.342
       234  -9.4956    207.3075     44.6290   6.3963145356e+01   2.7621210457e+01    0.2550588    0.1613782 -34.23  0.001194666    1.512    0.339
       235  -9.8072    168.9983     44.0045   7.0052477283e+01   3.7499116196e+01    0.3357445    0.1739692 -34.63  0.001352045    1.913    0.477
       236 -11.1030    176.1747    247.0113   1.1331088423e+02   3.8100631705e+00    0.2954211    0.2637592 -55.60  0.002340869    1.720    0.419
       237  -8.9888    250.5335    245.4957   1.0054415707e+02  -6.2259541250e+00    0.1085663   0.07378262  17.30 0.0003921838    1.050    0.047
       238  -9.0974    238.3111    245.6476   1.0253434917e+02  -4.6589417910e+00   0.09249523   0.07797513  34.32 0.0004858524    1.724    0.420
       239  -9.9582    168.5923     36.8137   6.7739401425e+01   3.8559401347e+01    0.2191232    0.1341074 -37.58 0.0009523712    1.671    0.401
       240  -9.0303    170.2785     29.6628   6.5050720448e+01   3.9001272669e+01    0.1525311    0.1106189 -57.83 0.0006754825    1.615    0.381
       241  -9.8061    224.9349    244.0802   1.0451794546e+02  -2.7227514929e+00    0.1635044    0.1241313  28.78 0.0009533975    1.301    0.231
       242  -9.4899    166.4764     27.9758   6.5131886735e+01   4.0204646953e+01    0.2178264    0.1069693 -47.73 0.0006828908    2.457    0.593
       243 -10.2616    202.2757    242.5533   1.0816599290e+02   5.8623922495e-01    0.2099179     0.196663 -37.76  0.001277605    1.711    0.415
       244  -9.0832    136.6538     25.2185   6.9970129706e+01   4.8331472411e+01    0.2043312     0.138446  -7.64 0.0002897217    1.631    0.387
       245  -9.2415    118.4527     24.5620   7.4096950414e+01   5.2954456004e+01    0.1500557    0.1332948  23.14 0.0001137584    1.027    0.027
       246 -11.0167    221.3843     18.4144   5.4921681140e+01   2.7148666737e+01     0.369412    0.2796679  22.59   0.00199855    1.582    0.368
       247  -9.4073    173.3877     39.8093   6.7867978490e+01   3.6917748018e+01     0.214057    0.1443231  -8.96 0.0009479313    1.692    0.409
       248  -9.4977     83.7081     19.0242   8.2300235395e+01   6.1451464981e+01    0.1968163    0.1627674  -6.97  0.000396995    1.101    0.091
       249  -9.6343    155.5946     16.2763   6.2913327053e+01   4.4384887727e+01    0.2729227    0.1360657 -26.52  0.001125475    2.037    0.509
       250  -9.2312    140.6523     16.6737   6.5827608271e+01   4.8277663112e+01    0.1644761   0.09984852  32.12 0.0007049632    1.751    0.429
       251  -9.3357     92.0175     15.7204   7.7882704219e+01   6.0159768539e+01     0.193988    0.1644521  17.62 0.0003316292    1.043    0.041
       252 -12.6805    229.0370     38.4605   5.9480413839e+01   2.3121023244e+01    0.8790104    0.3948829 -54.88  0.003320514    2.969    0.663
       253  -8.9470    142.5257     11.4839   6.3470435544e+01   4.8320811608e+01    0.1472287    0.1342567  41.58 0.0008099084    1.005    0.005
       254  -8.9318    179.3190     37.6637   6.6149927718e+01   3.5646082890e+01    0.1572986    0.1118033 -61.25 0.0006359462    1.703    0.413
       255 -10.0701    241.9046    242.1654   1.0144307134e+02  -4.8144017091e+00    0.2276316    0.2084615  60.51  0.001696492    2.439    0.590
       256  -9.3277    248.7165    240.6069   1.0011128631e+02  -5.5631954261e+00    0.1404403   0.08041472  35.34 0.0006040751    1.557    0.358
       257 -11.0241    191.8845    236.6927   1.0919598061e+02   2.7329281467e+00    0.4648385    0.3450477  70.15  0.002725346    2.917    0.657
       258  -9.3413    237.3763    236.1996   1.0129978659e+02  -3.6535145301e+00    0.1262861   0.09614172 -23.43 0.0005852036    1.670    0.401
       259 -10.8015    216.9073    234.6214   1.0452067497e+02  -6.5225027708e-01    0.3141527    0.2090959  43.61  0.001469138    1.704    0.413
