#   1 NUMBER                 Running object number                                     
#   2 MAG_AUTO               Kron-like elliptical aperture magnitude                    [mag]
#   3 X_IMAGE                Object position along x                                    [pixel]
#   4 Y_IMAGE                Object position along y                                    [pixel]
#   5 X_WORLD                Barycenter position along world x axis                     [deg]
#   6 Y_WORLD                Barycenter position along world y axis                     [deg]
#   7 A_WORLD                Profile RMS along major axis (world units)                 [deg]
#   8 B_WORLD                Profile RMS along minor axis (world units)                 [deg]
#   9 THETA_WORLD            Position angle (CCW/world-x)                               [deg]
#  10 FWHM_WORLD             FWHM assuming a gaussian core                              [deg]
#  11 ELONGATION             A_IMAGE/B_IMAGE                                           
#  12 ELLIPTICITY            1 - B_IMAGE/A_IMAGE                                       
         1 -14.5173     68.5843    144.0663   1.0130007434e+02   3.7432884709e+01     5.227741     2.369648  61.95  0.003582732    4.699    0.787
         2 -12.9681    186.2281     50.3917   4.7156105569e+01   3.2353721432e+01    0.9792221    0.8742985  -5.53 0.0009356714    1.360    0.265
         3 -13.2674    197.5334     41.7845   4.3326541411e+01   3.0854103064e+01     1.127898    0.9876077 -45.55  0.003157458    1.160    0.138
         4 -13.8725    206.6119     32.7219   3.9976562092e+01   2.9912394518e+01     1.467748     1.041167  -8.11  0.001385947    2.086    0.521
         5 -13.0138    231.2786      6.3852   3.1784333552e+01   2.7482285981e+01    0.8355206    0.6411385 -84.54  0.005086263    1.115    0.103
         6 -11.3590     41.6172      7.7646   6.8757852684e+01   6.8981569458e+01    0.2785668    0.1732158  -5.20  0.001652361    1.570    0.363
         7 -10.1108     62.1336      8.1432   6.0744234922e+01   6.5532776148e+01    0.1971204    0.1407079  18.94 0.0005975223    1.233    0.189
         8 -10.0648     54.9911      2.2477   6.0493165750e+01   6.7373130451e+01    0.1604937   0.08879074  44.98 0.0008963606    1.624    0.384
         9  -9.5644     89.8631    212.2262   1.0603930594e+02   1.8153624401e+01    0.2377203    0.1939764  78.28 0.0005451433    1.212    0.175
        10 -11.1460    140.0169    247.9888   9.9929973683e+01   3.6454201504e+00    0.5286533    0.2529342 -56.91  0.002575157    2.699    0.629
        11 -13.2465     57.3767    185.3659   1.1031007550e+02   2.8746514440e+01     1.727144    0.8926386  37.75  0.008319193    1.900    0.474
        12  -9.8462     66.0427    194.4941   1.0933742916e+02   2.5482744709e+01    0.3316962    0.2457186  32.73 0.0009844839    1.455    0.313
        13 -10.7089    121.2365    196.4855   9.6577053794e+01   1.6569170750e+01    0.4490208    0.2440671 -70.15 0.0008871261    2.617    0.618
        14 -15.5178     47.8838    199.8408   1.1408622396e+02   2.6554842105e+01     12.14203     4.683173  71.33   0.02671502    5.799    0.828
        15  -9.6111     32.4945    204.1060   1.1784354371e+02   2.7342511655e+01    0.2601801    0.1850455 -83.80 0.0009030339    1.237    0.191
        16  -9.8602    147.9613    187.2035   8.8732856114e+01   1.3853177814e+01    0.2594034    0.2186091 -42.65  0.001394967    1.231    0.188
        17  -8.7848     72.1063    188.2965   1.0712166897e+02   2.6097749344e+01    0.1872502    0.1571372  70.20 0.0004266865    1.107    0.097
        18  -8.8055     80.6465    184.1013   1.0446651822e+02   2.5865170850e+01    0.2263793     0.163114  84.11  0.001089015    1.512    0.339
        19  -8.5737     90.6056    181.8079   1.0166139086e+02   2.4903461378e+01    0.1915666    0.1320786 -76.55 0.0004445728    1.565    0.361
        20  -9.8102     99.2057    180.9944   9.9393604757e+01   2.3731160858e+01     0.278662    0.1983736  42.48 0.0006965868    1.362    0.266
        21  -8.9800     93.5755    179.7534   1.0060035630e+02   2.4923640194e+01    0.1940674    0.1345328 -77.13 0.0005420729    1.586    0.369
        22 -13.3001     28.2554    215.7502   1.1962114425e+02   2.5259302680e+01     1.121101    0.4854324 -89.13  0.001995863    2.390    0.582
        23  -9.6961     47.4762    172.0605   1.1114853129e+02   3.3146683381e+01    0.3263095    0.2454798 -25.21   0.00141135    1.883    0.469
        24  -9.9348    187.7154    176.0219   7.7726402329e+01   8.7803034502e+00    0.3467088    0.3108278 -57.08  0.001283581    1.315    0.239
        25  -8.6594    148.5089    175.4601   8.6359332212e+01   1.6255652868e+01    0.1469944    0.1426518  40.84 0.0003492802    1.050    0.047
        26  -9.1977    146.5757    171.8214   8.6092907707e+01   1.7411517617e+01    0.3181425    0.2148256 -67.96 0.0009337602    1.966    0.491
        27 -11.9154     54.6760    147.2579   1.0579427231e+02   3.8441864666e+01      3.02927    0.7775002 -51.37  0.009684387    3.626    0.724
        28  -8.6474    193.7170    171.0445   7.5446090913e+01   8.6267562541e+00    0.2046896    0.1802692 -24.04  0.000724457    1.073    0.068
        29  -9.1819    240.3107    169.3221   6.6325828659e+01   8.2933235005e-01    0.1370881   0.09313107  -5.99 0.0003032117    1.650    0.394
        30  -9.5502    184.9550    168.6977   7.6784498979e+01   1.0725649628e+01     0.279569    0.2144202 -47.14 0.0008181462    1.361    0.265
        31 -12.0825     83.4554    159.4005   9.9861596947e+01   3.1430764901e+01      1.10339    0.7258751  76.40 0.0007360578    1.989    0.497
        32  -8.9169     37.1258    167.8868   1.1326419833e+02   3.5312631631e+01    0.2053721    0.1512145  69.11 0.0006339754    1.312    0.238
        33  -8.8819    135.6624    165.4124   8.7442962796e+01   2.0909928543e+01    0.3260825    0.1466545  40.74  0.001216165    2.188    0.543
        34  -8.7084    132.6481    162.3138   8.7559225146e+01   2.2188521086e+01    0.3033932    0.2286789 -89.23 0.0007995545    1.814    0.449
        35  -9.2621     32.4158    165.0536   1.1413559682e+02   3.6488758179e+01    0.2038652     0.179896 -30.67 0.0006023353    1.437    0.304
        36 -13.1207     72.0735    154.0048   1.0204203683e+02   3.4450874461e+01    0.6495544    0.5085862 -60.92   0.00122622    1.197    0.165
        37 -11.4130     90.5145    152.0570   9.6608389093e+01   3.2137168499e+01    0.7032176      0.47939 -26.01  0.003096047    2.038    0.509
        38  -9.9593     92.5220    249.1499   1.0959186703e+02   1.0450989490e+01    0.3054329    0.1393939  39.04  0.001042498    1.821    0.451
        39 -11.3635     75.3075    167.3768   1.0333688540e+02   3.0674155032e+01    0.3738064    0.3274298 -32.47 0.0009128898    1.347    0.258
        40 -10.7404    133.7900    145.0201   8.3544825375e+01   2.5958472022e+01     1.220795    0.3343901 -54.37  0.002984988    5.079    0.803
        41  -8.7429    111.4104    149.7819   9.0465889871e+01   2.9101381066e+01    0.3094039    0.1758505  59.44  0.001162566    2.416    0.586
        42  -9.0413    174.8188    149.1874   7.4704190097e+01   1.6684648733e+01    0.2128132    0.1773624  -3.95 0.0004378402    1.333    0.250
        43 -10.2738     40.3265    146.7495   1.0974569073e+02   4.0202753428e+01    0.2874597     0.255197 -16.24  0.001189139    1.392    0.282
        44 -10.1037    103.7852    138.1079   9.0058472950e+01   3.3309954477e+01    0.5709288    0.3559184 -22.53  0.002164147    2.575    0.612
        45 -11.6400     91.1752    137.8799   9.3592400575e+01   3.5541159068e+01    0.2942319    0.2639476 -39.19 0.0004021873    1.142    0.124
        46 -11.6161     71.4343    171.8210   1.0501281234e+02   3.0135964770e+01    0.4474289    0.3322227 -23.01  0.002237093    1.918    0.479
        47 -11.1785     44.2844    129.8643   1.0599971113e+02   4.4017014477e+01    0.3087065    0.2366965  41.74  0.001210377    1.438    0.305
        48 -12.2073     40.6062    125.3084   1.0635402263e+02   4.5547636944e+01    0.5228091    0.3950425  70.23  0.002577182    1.506    0.336
        49 -10.1132    106.0208    130.9103   8.7801550043e+01   3.4650845898e+01    0.3598238    0.3267203 -61.14  0.001133748    1.089    0.082
        50 -10.7751     33.8009    131.0959   1.0934832567e+02   4.4777029592e+01    0.3110361    0.2832302 -51.94  0.001216414    1.143    0.125
        51 -10.1162    135.7541    129.5565   7.9392936680e+01   2.9115156735e+01    0.4141347    0.1317898 -51.29  0.001177072    3.508    0.715
        52  -9.8800    112.5009    129.0838   8.5544881393e+01   3.3875342000e+01    0.3553097    0.2855082  -7.34 0.0008520553    1.554    0.356
        53  -9.1962    160.7743    127.8907   7.2832071972e+01   2.4151823547e+01    0.3012018    0.2203968 -60.39  0.001348581    1.569    0.363
        54 -10.2940     99.6671    125.1307   8.8277456625e+01   3.7200356306e+01    0.3325064    0.2734647 -11.51  0.001572653    1.455    0.313
        55 -10.4645    118.4747    123.9582   8.2633849187e+01   3.3923611000e+01    0.3977304    0.2726787  29.93 0.0009568838    1.627    0.385
        56  -9.5943    134.7204    119.5634   7.7147760333e+01   3.1591557615e+01    0.2907707    0.1378494 -46.12 0.0007994142    2.069    0.517
        57  -9.2905    108.3913    118.3451   8.4079418510e+01   3.7204341874e+01    0.2493374    0.2274834  23.42 0.0003481392    1.151    0.131
        58 -12.1510     53.1018    108.1525   9.9003797607e+01   4.8400066116e+01    0.9571981    0.3508687 -52.54  0.003691227    2.288    0.563
        59 -12.4255     43.4528    109.1910   1.0244835137e+02   4.9243298806e+01    0.6538537    0.5284358 -78.71  0.003659216    1.279    0.218
        60  -9.9712    231.2610    113.7287   5.5812537005e+01   1.2005584852e+01    0.2600741    0.2520196 -56.10 0.0007664662    1.117    0.105
        61  -9.4226    205.3700    110.2533   5.9297971488e+01   1.7939893383e+01    0.2949523    0.2061875  45.77  0.000990883    1.555    0.357
        62 -10.7768    116.3536    109.0835   7.9380957837e+01   3.7772334248e+01    0.4742222    0.3787297   5.24  0.002225639    1.538    0.350
        63  -9.1375    134.6632    105.5147   7.3423340436e+01   3.4690622474e+01    0.2840424    0.1445823 -43.70  0.001077063    1.929    0.482
        64  -8.2690     66.4844    100.4469   9.2675772223e+01   4.8495290798e+01    0.1430677    0.1333964 -51.70 8.416129e-05    1.063    0.059
        65  -8.7226    129.0759     96.3119   7.2314517562e+01   3.7864964723e+01    0.2207715    0.1991817  46.39 0.0005763834    1.129    0.114
        66 -11.0834     52.4284     93.4725   9.5806801821e+01   5.1991216502e+01    0.5214113    0.3750216 -88.03  0.002555517    1.965    0.491
        67 -10.5235     42.7543     89.3744   9.8291648988e+01   5.4056278323e+01    0.3869626    0.1774604  37.14  0.001374543    2.474    0.596
        68  -8.5703    157.0380     89.1099   6.3401929721e+01   3.2921973338e+01    0.2502944    0.1857298 -73.98  0.001110952    1.758    0.431
        69 -11.1670    110.7933    197.7424   9.9224622971e+01   1.8035246982e+01    0.8252782    0.4527026  10.61  0.002535649    5.009    0.800
        70  -9.7231    234.1383     86.4469   4.9194424727e+01   1.6017424564e+01     0.295587    0.1477012 -49.89   0.00122028    1.906    0.475
        71  -8.6226     75.5473     85.4304   8.5471452196e+01   5.0552273210e+01    0.1445246    0.1329367 -25.96 7.244784e-05    1.006    0.006
        72  -9.7264     58.5672     67.4961   8.6117239236e+01   5.6904596660e+01    0.3359406    0.2076222  46.36  0.001563123    2.046    0.511
        73 -17.4626     11.5430    244.8909   1.2449858535e+02   2.1100441736e+01     7.653123     5.266502  88.61   0.02164307    1.257    0.205
        74 -10.5155    157.2838    219.0005   9.2147827017e+01   5.9797896989e+00    0.1868798    0.1753892  -9.50  0.001168812    1.120    0.107
        75 -11.1309    164.5157    214.3841   8.9850259308e+01   5.6200989276e+00      0.53817    0.1934168 -50.41  0.002017907    3.297    0.697
        76 -11.1549    111.6703    204.5021   1.0003503529e+02   1.6425987214e+01     0.421319    0.2911742 -87.96  0.000512588    1.888    0.470
        77  -8.3735     73.5143     54.5272   7.6041594247e+01   5.7048673972e+01    0.1379004    0.1246546  -5.33 7.483074e-05    1.037    0.035
        78 -11.1600    107.5792    203.7562   1.0086863928e+02   1.7245592084e+01    0.3815869    0.2766985  76.84  0.001679062    1.642    0.391
        79  -9.9861    198.0307     23.9290   3.8782314733e+01   3.2964175018e+01    0.2785573     0.193612 -20.36  0.001138229    1.790    0.441
        80 -10.9327    192.2260    193.3311   8.0228431074e+01   4.7355787346e+00    0.9228532     0.547722 -69.76  0.002815198    5.876    0.830
        81  -8.9325    189.4942     14.5319   3.7365545218e+01   3.6009701599e+01    0.1286383    0.1115672 -89.36 2.441806e-05    1.021    0.021
        82 -16.5456      5.4195    212.6349   1.2395131540e+02   2.8162824160e+01     15.60672          nan -74.77   0.03236017   10.254    0.902
        83 -11.0730    202.7856    199.6165   7.9294339151e+01   1.8453181915e+00    0.3178473     0.163681  35.21  0.001477937    1.884    0.469
        84 -10.4972    182.8043    213.4367   8.5856341537e+01   2.7534398972e+00    0.3320139    0.1211594  35.20  0.001288993    2.602    0.616
        85 -11.1499     61.6890    199.3217   1.1090239074e+02   2.4950924995e+01    0.3401233    0.2334896 -62.58 0.0006248602    1.465    0.317
