#   1 NUMBER                 Running object number                                     
#   2 MAG_AUTO               Kron-like elliptical aperture magnitude                    [mag]
#   3 X_IMAGE                Object position along x                                    [pixel]
#   4 Y_IMAGE                Object position along y                                    [pixel]
#   5 X_WORLD                Barycenter position along world x axis                     [deg]
#   6 Y_WORLD                Barycenter position along world y axis                     [deg]
#   7 A_WORLD                Profile RMS along major axis (world units)                 [deg]
#   8 B_WORLD                Profile RMS along minor axis (world units)                 [deg]
#   9 THETA_WORLD            Position angle (CCW/world-x)                               [deg]
#  10 FWHM_WORLD             FWHM assuming a gaussian core                              [deg]
#  11 ELONGATION             A_IMAGE/B_IMAGE                                           
#  12 ELLIPTICITY            1 - B_IMAGE/A_IMAGE                                       
         1 -12.9378    210.7158     20.6876   4.7536415585e+01   2.9531108016e+01    0.5815688    0.4947503  27.07  0.001452344    1.411    0.291
         2 -12.8221      3.6119     12.6004   1.0353974099e+02   7.1801705177e+01     1.206759    0.3289361 -42.12  0.005802148    2.516    0.602
         3 -12.7605    221.0816     10.0909   4.3617928611e+01   2.8110012287e+01    0.6996763    0.5666514 -62.80  0.002785549    1.139    0.122
         4 -10.9896    195.2923    219.3308   9.7627464411e+01   1.0811755034e+00     0.409015    0.2905684  51.36  0.002451516    1.473    0.321
         5 -12.5329    218.7015    247.1461   9.7767504348e+01  -6.1249989269e+00     1.019689     0.530677  39.74  0.006114314    1.525    0.344
         6 -11.0218    204.2420    236.9752   9.8741045618e+01  -2.6939672909e+00    0.8514078    0.5475757   5.59  0.004963308    1.989    0.497
         7 -14.6295    177.3767    241.8507   1.0412827067e+02   1.0315529353e+00     2.411907     1.025447  40.33   0.01180957    1.857    0.461
         8 -11.3151    163.1091    248.4139   1.0745870321e+02   2.4561896378e+00    0.3885311    0.2922208 -19.44  0.002603015    1.915    0.478
         9 -13.2867    147.7488    227.6762   1.0758307304e+02   7.9478302260e+00     1.484707    0.6309313  49.12  0.007122009    2.036    0.509
        10 -14.2649    143.2455    242.1521   1.1017996984e+02   6.5007849952e+00     1.205129    0.8999614  61.87  0.005851592    1.302    0.232
        11 -12.5399    155.6205    239.5514   1.0767423729e+02   4.8832821982e+00    0.5810122    0.4671804 -72.59   0.00384199    1.635    0.388
        12 -15.0759    111.2473    246.0217   1.1616641717e+02   1.0870332167e+01     3.596907     2.142429  85.22   0.02117936    2.232    0.552
        13 -14.1612     82.0840    238.0356   1.2044147121e+02   1.6362675739e+01     1.550819    0.7120243  49.53  0.009003541    1.682    0.405
        14 -15.4655     19.1414    241.2702   1.3084078409e+02   2.3447693255e+01     1.624416     0.596953  65.19  0.009625013    2.192    0.544
        15 -12.8301      7.2132    249.7507   1.3295486444e+02   2.3255932367e+01    0.6000192    0.1068673  46.96  0.001733599    3.024    0.669
        16 -15.5574     45.9412    202.8889   1.2398239931e+02   2.7461595775e+01     4.435188     1.887235 -67.16   0.02422679    2.210    0.547
        17 -15.3344     43.9688    232.0580   1.2640910365e+02   2.2280898825e+01      1.89938    0.7194135  68.99  0.009460186    2.854    0.650
        18 -14.8804     60.3889    235.4284   1.2391073405e+02   1.9685528990e+01     1.085332    0.6771896  72.75  0.005477523    1.322    0.244
        19 -11.8534    169.7182    215.6833   1.0180093356e+02   6.0492053186e+00    0.6777705    0.3734597  43.18  0.003575268    1.519    0.342
        20 -13.3130    123.1133    198.1247   1.0834511919e+02   1.7190754179e+01    0.9388246    0.8483852  48.43  0.005987829    1.144    0.126
        21 -13.1322    137.1765    207.9205   1.0692235490e+02   1.3002278347e+01     1.413226    0.7591821 -48.99  0.007228352    2.181    0.542
        22 -12.7352    130.7231    201.2745   1.0725998034e+02   1.5303718263e+01    0.6322935     0.556504 -29.85  0.003454964    1.478    0.323
        23 -13.4152    111.3850    202.0573   1.1122804481e+02   1.8397718175e+01      1.37632    0.8101209  89.67  0.006300949    2.427    0.588
        24 -12.3619    239.7227    201.1531   8.6582848860e+01  -4.0278835453e+00    0.6844362    0.3398522 -35.20  0.003517142    2.158    0.537
        25 -15.3804     73.1929    247.8233   1.2270115289e+02   1.5953744190e+01     2.198901    0.4342354  42.30   0.00913264    3.724    0.731
        26 -12.0900    237.2616    210.2392   8.8645114581e+01  -4.7597265061e+00    0.5407743    0.3451721   9.28   0.00283149    1.624    0.384
        27 -10.8072    208.4963    209.4933   9.3601763211e+01   1.6455748314e-01    0.2789324    0.2064573  14.39  0.001678134    1.336    0.252
        28 -14.2206     43.9053    246.4865   1.2729783393e+02   1.9832468335e+01    0.9600323    0.3586612  52.84   0.00572739    1.935    0.483
        29  -9.6598     11.5954    205.9120   1.3029097325e+02   3.0535664477e+01     0.152338    0.1091439  72.62  0.001181338    1.067    0.063
        30 -13.0168    232.5537    199.7680   8.7572083540e+01  -2.6521554407e+00    0.5934363    0.3233184 -21.74  0.003040419    2.029    0.507
        31 -12.3216    179.4069    193.9635   9.6403096855e+01   7.7577811168e+00    0.5399619    0.3631428 -43.71  0.002910171    1.686    0.407
        32 -11.2084    185.7267    188.7878   9.4242133623e+01   7.4209156946e+00    0.6599159    0.2862842  36.52  0.002718028    2.288    0.563
        33 -11.6139     87.6472    191.4588   1.1469830973e+02   2.4183079992e+01    0.6761694    0.3433222  44.01  0.003464923    1.798    0.444
        34 -11.3446     90.4560    186.2578   1.1347385170e+02   2.4820877674e+01    0.4941915    0.3977465 -86.15  0.002666043    1.165    0.142
        35 -10.8744    138.9486    188.9283   1.0372524249e+02   1.6145560608e+01    0.3283273    0.2778647  64.52   0.00196011    1.136    0.119
        36 -12.5554    221.6494    187.7423   8.7256976505e+01   9.0908640519e-01    0.6192304    0.3208567  27.53  0.002825407    2.120    0.528
        37 -10.7284     76.2413    186.6390   1.1647221684e+02   2.6825717817e+01    0.3791311    0.2802436 -31.87  0.002109268    2.324    0.570
        38 -11.6258    122.2081    181.1226   1.0601457621e+02   2.0656701949e+01    0.4704017    0.3191122  31.56  0.002419722    1.697    0.411
        39 -12.7010    125.6996    174.4219   1.0417979531e+02   2.1393156712e+01    0.7653022    0.5703931  38.18  0.004146029    1.366    0.268
        40 -13.2416    175.4664    174.8957   9.3696967202e+01   1.1789874861e+01     1.046345     0.861029 -36.83  0.005862695    1.314    0.239
        41 -12.5535    105.9974    172.0686   1.0813366093e+02   2.5308565585e+01     1.106948      0.36537  48.76  0.004044612    3.007    0.667
        42 -11.9844    102.0330    164.3436   1.0781036892e+02   2.7626887049e+01    0.5860125    0.3422579  26.85  0.002596162    2.451    0.592
        43 -13.1163    111.2288    152.8989   1.0372370966e+02   2.8563881421e+01     1.494793    0.9252492 -53.34  0.007217683    1.620    0.383
        44 -10.2349     24.0578    171.3561   1.2567971966e+02   3.6282730276e+01    0.2165105    0.1262913 -65.19  0.001129453    1.620    0.383
        45  -9.8898      7.7040    170.3576   1.2886771948e+02   3.7974338984e+01      0.35581      0.18224 -79.61   0.00196563    1.521    0.342
        46 -10.7805     92.7947    174.0009   1.1132867734e+02   2.7029888225e+01    0.4350935    0.2455992  45.94  0.002202124    1.666    0.400
        47 -11.7398     16.5793    164.7631   1.2667916110e+02   3.8383201053e+01    0.6336979    0.3055435  69.35   0.00311466    1.982    0.495
        48 -12.0121     30.4425    159.6624   1.2330687126e+02   3.8176391405e+01     0.707032    0.3229955 -62.04  0.003773525    1.967    0.492
        49 -12.3134     22.3215    154.6132   1.2460009832e+02   4.0060892104e+01    0.7019358    0.5519945  77.39  0.003805942    1.115    0.103
        50 -10.3382     85.1591    161.4315   1.1122153221e+02   3.0940450132e+01    0.2223312    0.2001495 -43.90 0.0004617137    1.379    0.275
        51  -9.9670      2.1660    159.4894   1.2923769126e+02   4.0702957378e+01    0.2457738    0.1138751 -86.20    0.0011948    1.695    0.410
        52 -12.2076     99.7740    152.0291   1.0628677595e+02   3.0722060588e+01     1.306931    0.3376356 -51.53  0.004195539    3.790    0.736
        53 -10.7467     89.3318    169.7055   1.1148324367e+02   2.8489978394e+01    0.3341453    0.3090277 -85.09  0.001706214    1.145    0.127
        54 -11.1763     67.6490    143.3280   1.1265174609e+02   3.7546106861e+01    0.6501624    0.3195344  61.23  0.002776658    2.607    0.616
        55 -10.9574     87.9526    144.2869   1.0780885274e+02   3.4382323501e+01    0.2351427    0.1819801 -56.01 0.0003987445    1.281    0.219
        56  -9.9761     79.0688    167.9491   1.1352573797e+02   3.0404253309e+01    0.2205502    0.1643695 -47.41 0.0005164144    1.633    0.388
        57  -9.7690      2.1446    130.8878   1.2702502106e+02   4.6899199166e+01    0.1817188    0.1220004  83.01  0.001141242    1.251    0.200
        58  -8.9396     97.5186    129.4925   1.0260782930e+02   3.6237762335e+01    0.1421625    0.1329964 -54.95 0.0008077732    1.116    0.104
        59 -13.2697      2.1500     77.8448   1.2078410514e+02   5.8708162366e+01     1.485961       0.0737 -68.31  0.003910929    7.220    0.861
        60 -12.8640     21.5347     34.8151   1.0320770209e+02   6.6511656092e+01    0.5226786    0.3308439 -24.46  0.003249672    1.529    0.346
        61 -10.8735    195.6376     34.5665   5.3429038948e+01   3.1714351597e+01    0.2599539    0.2371041 -20.87 0.0007922223    1.172    0.146
        62 -11.4776     28.9410    236.4290   1.2908601795e+02   2.3226087105e+01    0.1664748    0.1043824  76.69 0.0004219187    1.190    0.159
        63 -12.3597    228.5984    218.1756   9.1513929749e+01  -4.3303354902e+00    0.5562904    0.4046898  14.93  0.003576418    1.217    0.178
