#   1 NUMBER                 Running object number                                     
#   2 MAG_AUTO               Kron-like elliptical aperture magnitude                    [mag]
#   3 X_IMAGE                Object position along x                                    [pixel]
#   4 Y_IMAGE                Object position along y                                    [pixel]
#   5 X_WORLD                Barycenter position along world x axis                     [deg]
#   6 Y_WORLD                Barycenter position along world y axis                     [deg]
#   7 A_WORLD                Profile RMS along major axis (world units)                 [deg]
#   8 B_WORLD                Profile RMS along minor axis (world units)                 [deg]
#   9 THETA_WORLD            Position angle (CCW/world-x)                               [deg]
#  10 FWHM_WORLD             FWHM assuming a gaussian core                              [deg]
#  11 ELONGATION             A_IMAGE/B_IMAGE                                           
#  12 ELLIPTICITY            1 - B_IMAGE/A_IMAGE                                       
         1 -11.5593    208.2231      4.9593   3.9098397639e+01   3.2263160918e+01      1.59234    0.8018129   5.70  0.001135682    5.712    0.825
         2 -12.3524    249.1336      2.6794   3.5297123923e+01   2.3071458674e+01    0.9877691    0.6223269 -23.87  0.004657032    1.888    0.470
         3 -13.9107    179.0801     75.6042   6.2888504044e+01   2.9927901216e+01     7.437823     1.547065 -44.10  0.007044856    5.385    0.814
         4 -14.3964    163.2015     53.4829   5.9409035188e+01   3.7579365483e+01     5.765413     3.276966  73.73   0.02274494    2.241    0.554
         5 -13.5764    231.6800     55.5056   4.9180571870e+01   2.0349773815e+01     2.014251    0.7805352 -36.63  0.005683349    2.278    0.561
         6 -13.4801    221.0722     36.9322   4.5828816057e+01   2.5417941020e+01     1.163943    0.7338151 -61.56  0.003275828    1.620    0.383
         7 -14.3251    243.2093     31.7760   4.2250939686e+01   2.0968335446e+01     1.976237     1.068734  58.71   0.00993511    1.983    0.496
         8 -13.6518    243.2876     48.7834   4.6207386780e+01   1.8683835869e+01     2.417655    0.7682958 -42.23  0.002126521    2.617    0.618
         9 -15.0853    218.6719     72.8126   5.5322107778e+01   2.0737971234e+01     10.58574     3.115783 -45.60    0.0318425    3.514    0.715
        10 -11.8042    233.2694      8.0946   3.7673426024e+01   2.6019054729e+01     1.884487    0.7438115 -23.29  0.007777905    3.194    0.687
        11 -13.2074    191.9107     47.4296   5.2564992432e+01   3.1173013986e+01     1.882123     1.623702 -82.79  0.008179821    1.161    0.139
        12 -10.2632    178.8012     24.2526   4.7829023663e+01   3.7539921447e+01    0.5222877    0.4803073  69.79  0.003082264    1.049    0.047
        13 -11.0947    145.0000     28.0025   5.4706739918e+01   4.5711461329e+01    0.4362552    0.3451734  67.92   0.00181982    1.242    0.195
        14 -10.6451    131.0000     20.0306   5.4738834644e+01   5.0099121953e+01     0.584016    0.2103994 -29.84  0.001824546    2.806    0.644
        15 -11.7171    134.9941     19.2898   5.3655262427e+01   4.9201938886e+01    0.5630729    0.4400026  38.43  0.002557303    1.235    0.190
        16 -10.7983    134.1839     15.3394   5.2404732232e+01   4.9819095301e+01    0.4770876    0.2894577  64.18  0.001120022    1.552    0.356
        17  -9.4933    224.2691     18.1467   4.0839625474e+01   2.6982732725e+01     0.326062    0.1894935 -38.35  0.001284661    1.616    0.381
        18  -9.4212    159.8598     14.5177   4.7666780455e+01   4.3453699640e+01    0.4170831    0.1891017 -24.70  0.001589115    2.411    0.585
        19 -11.3795    215.5313     11.0109   3.9922987773e+01   2.9863494761e+01    0.3244883    0.2260339 -72.83 0.0009346063    1.356    0.263
        20  -9.5332    115.9776     12.5182   5.5184500284e+01   5.4474742872e+01    0.3105837    0.2206363  53.84  0.001012841    1.271    0.213
        21 -11.2533    120.3618      9.0373   5.2880892115e+01   5.3778782482e+01    0.5702386    0.4280567 -37.28  0.001792942    1.502    0.334
        22  -9.3848    134.5207      9.9625   5.0418734504e+01   5.0266508084e+01    0.1943765    0.1357315 -21.13 0.0005858338    1.571    0.363
        23  -9.8074    129.3247      8.1735   5.0753449883e+01   5.1704418785e+01    0.3822991    0.1596658 -22.13  0.001595802    2.615    0.618
        24 -10.1426    188.9870      6.7968   4.1549999899e+01   3.6834055792e+01    0.3370931    0.2047551 -38.41 0.0007436919    1.664    0.399
        25  -9.5277    182.7853      4.3138   4.1557189089e+01   3.8632832711e+01    0.4786846    0.2204985  71.10  0.002138534    1.935    0.483
        26  -9.6990    135.1124      2.9664   4.7825519742e+01   5.0745746173e+01    0.3044488    0.1986147  -1.24  0.001565671    1.843    0.457
        27  -9.0491    171.9460      2.1767   4.2219252053e+01   4.1565813374e+01    0.2471903    0.1778422 -43.37 0.0009329496    1.462    0.316
        28  -9.3693    228.0450    172.5084   7.7205763356e+01   1.8406168869e+00    0.2050481    0.1283297  39.62  0.001035577    1.598    0.374
        29  -8.3768     67.2000    167.1800   1.1204869650e+02   3.2011651727e+01    0.1733532    0.1327674  71.51 0.0003015563    1.232    0.188
        30  -8.7014    209.0719    165.3015   7.9281694514e+01   6.5751867738e+00    0.3101736     0.168282  57.15   0.00123932    2.653    0.623
        31 -10.1165    113.3116    247.4555   1.1175611669e+02   9.0793139341e+00    0.2015928    0.1719852  50.82 0.0003714439    1.115    0.103
        32  -9.7889    135.0921    241.4427   1.0699323366e+02   6.6972659009e+00    0.4408539    0.1906426  55.43  0.001922795    2.781    0.640
        33  -9.6587    231.6781    240.3850   8.8952488166e+01  -8.2141947558e+00    0.2218762   0.09367299  39.89  0.001130416    2.132    0.531
        34  -9.3082    133.3826    142.5809   9.1116703075e+01   2.6594020585e+01    0.7413969    0.2057205 -55.82  0.001749244    5.775    0.827
        35 -10.4715     69.9973    145.5071   1.0816402604e+02   3.6765672182e+01     0.386066     0.332598  65.09  0.001542282    1.153    0.133
        36 -10.7837     66.4969    144.4730   1.0892092228e+02   3.7490058422e+01    0.5752208    0.3535945 -75.97  0.002001335    1.620    0.383
        37  -8.0962    222.5188    145.4859   7.2394431448e+01   7.3927401322e+00      0.14397    0.1306443 -10.86 2.501303e-05    1.001    0.001
        38 -11.0711    181.3755    144.1627   8.0288610262e+01   1.6172439890e+01    0.5493714    0.3702899  57.31  0.001676448    1.710    0.415
        39  -9.4598    159.4301    142.9314   8.4917683754e+01   2.1115721558e+01    0.3296884    0.2560594 -75.75  0.001069886    1.669    0.401
        40 -13.3647    237.5482     69.3465   5.1813972758e+01   1.6959283155e+01     1.995451     1.049229 -63.22  0.005764176    2.635    0.620
        41  -8.7542    146.2082    142.2451   8.7893441834e+01   2.4047016753e+01    0.2059103    0.1785583  82.80 0.0003189788    1.317    0.241
        42  -8.0468    116.4581    233.4537   1.0963344350e+02   1.0962791170e+01    0.1254133   0.09989661  54.81 -2.316602e-05    1.047    0.044
        43  -9.1567    195.6936    142.9384   7.7003304699e+01   1.3362600844e+01    0.2435464    0.2102237  56.68 0.0005792567    1.284    0.221
        44  -9.2346    211.7677    136.0503   7.2235814632e+01   1.1253320619e+01    0.2501272    0.1687597  -7.19 0.0006983313    1.970    0.492
        45  -8.8046    192.2393    144.2251   7.8009406317e+01   1.3848302837e+01    0.2389045     0.214172  54.42 0.0004031787    1.210    0.173
        46 -10.2123    155.7907    133.5701   8.3585012766e+01   2.3892465638e+01    0.4085511    0.2488731 -67.96  0.001496072    2.613    0.617
        47 -10.2292    160.4821    128.7363   8.1311769636e+01   2.3895625637e+01    0.4504501    0.3453952 -38.56  0.002127688    1.313    0.238
        48 -10.2352    136.7957    127.0107   8.6665726165e+01   2.9396505124e+01    0.7126482    0.3818712 -66.29  0.002141346    3.177    0.685
        49  -8.6454    225.8741    224.1433   8.7307485092e+01  -5.3368064522e+00     0.170671    0.1456209  22.28 0.0003292191    1.196    0.164
        50  -9.2940     37.1781    214.6043   1.2315488800e+02   2.5420530986e+01    0.1415853    0.1055391  31.47 0.0007852736    1.711    0.415
        51  -8.5706    152.5092    124.9899   8.2278999464e+01   2.6454842496e+01    0.2343753     0.153845 -45.99 0.0006139375    1.521    0.343
        52 -10.1604    162.1526    119.5547   7.8623974023e+01   2.5454488068e+01    0.4057271    0.2962848 -74.13  0.001041263    1.896    0.473
        53  -8.7370    148.7942    120.0967   8.1951877255e+01   2.8331194408e+01    0.2266166    0.2079768 -84.82  0.000480374    1.190    0.160
        54 -10.1847    129.8037    116.2226   8.5792001166e+01   3.3285798166e+01    0.6611955    0.3596842 -72.45   0.00180688    4.823    0.793
        55  -9.8995    168.1604    114.2944   7.5888939764e+01   2.5168428102e+01    0.3715245    0.2063443 -41.79  0.001477989    1.775    0.437
        56 -10.0826    134.8978    112.0066   8.3366909511e+01   3.3139451439e+01    0.6716643    0.1731705 -41.25  0.001743098    4.267    0.766
        57  -9.0959    134.8712    104.2268   8.1285648810e+01   3.4844454933e+01    0.4733778      0.16325 -43.11  0.001483518    2.866    0.651
        58  -8.9363    224.4855    206.6791   8.4492483224e+01  -2.7322995905e+00    0.2210745     0.198636 -84.54 0.0006804581    1.881    0.468
        59 -10.3394    123.2956    103.7650   8.4254278273e+01   3.7428417469e+01    0.4433736    0.3730082 -48.97  0.002211496    1.167    0.143
        60  -9.4762    142.5507    105.0119   7.9528133608e+01   3.2969340567e+01    0.3150992    0.2193347  31.41  0.001265288    1.640    0.390
        61  -8.5267    156.0551    103.2997   7.5750465166e+01   3.0233399930e+01    0.2164547     0.204942  53.43 0.0004281189    1.074    0.069
        62  -9.5554    149.6801    101.1635   7.6695089969e+01   3.2153300524e+01    0.3067803    0.2741995 -10.79 0.0005758913    1.216    0.177
        63  -8.8499    212.3879    201.1485   8.5736840974e+01   9.7904552647e-02    0.2194068    0.1611266  33.72 6.655503e-05    1.245    0.197
        64  -9.1170    204.9538    153.6983   7.7576299628e+01   9.4513420127e+00    0.4171224    0.2920366 -80.14  0.001688465    2.893    0.654
        65  -9.9762    192.4263    152.2820   7.9794638157e+01   1.2273549367e+01    0.4015314    0.2132073 -52.29  0.001578364    2.345    0.574
        66  -9.0035    135.5485     97.3344   7.9186010469e+01   3.6168173414e+01    0.2945209     0.236232  63.64 0.0007150006    1.399    0.285
        67 -10.5577    160.6032     95.1596   7.2422100589e+01   3.0803984942e+01    0.6137331    0.3517121  40.90  0.002443914    1.869    0.465
        68 -10.3446      4.4143     94.6329   1.1929662348e+02   5.5253059234e+01    0.2290642    0.2049263 -10.15  0.001682961    1.416    0.294
        69 -10.1404    168.1654     92.3593   6.9934182959e+01   2.9534522135e+01    0.4496386      0.30362  37.34  0.001944298    1.632    0.387
        70  -9.9372    143.5952     90.7695   7.5239044178e+01   3.5693133658e+01    0.3204958    0.2818431 -58.75 0.0009065453    1.202    0.168
        71 -11.3125    159.1842     85.2458   6.9900231267e+01   3.3072837319e+01    0.4338757     0.314973 -28.47 0.0005919616    1.462    0.316
        72  -8.8034    193.8241     89.3173   6.3876110355e+01   2.3880365288e+01    0.3329352    0.2171602 -24.04  0.001431141    1.736    0.424
        73 -10.5124    109.8789     74.9413   7.9564167030e+01   4.6325400948e+01    0.2633199    0.2341104  23.74            0    1.149    0.130
        74 -10.0153    208.6052     85.0254   6.0099200812e+01   2.1095686115e+01    0.5696526    0.3277289 -65.53  0.001422337    2.685    0.628
        75 -10.7023    121.6199     72.5250   7.5426317275e+01   4.4293406373e+01     0.470161     0.290424 -49.81  0.001271968    1.762    0.433
        76 -10.3960      3.9005     83.8607   1.1788380147e+02   5.7740207401e+01    0.2213005    0.1457738 -69.62 0.0008131466    1.195    0.163
        77 -10.4352      2.5846     65.1865   1.1512309005e+02   6.1962276414e+01    0.3679315    0.1194037 -68.44  0.001632874    2.531    0.605
        78 -10.3170    243.6939    199.2937   7.9686851727e+01  -4.7579175793e+00    0.2235573    0.1921699  15.43 0.0004417259    1.174    0.148
        79  -9.9533    151.5806     72.3635   6.7776549707e+01   3.7317312072e+01    0.4048354    0.2326443 -55.97  0.001089081    2.245    0.555
        80  -9.1878    196.8423     63.0799   5.6154894249e+01   2.7576248280e+01    0.2474307    0.2130458  70.06 0.0006311532    1.171    0.146
        81 -12.1711    198.2464     73.9507   5.8905718270e+01   2.5464494210e+01     1.389415    0.5741552  38.79   0.00421628    3.939    0.746
        82  -8.2514     72.5835     58.4769   8.6245301504e+01   5.6400865166e+01    0.1385738    0.1225765 -24.51 7.225683e-05    1.020    0.020
        83  -8.5363    157.5930    149.3814   8.6791530271e+01   2.0138152682e+01    0.2215734    0.1818578  89.15  0.001066625    1.542    0.351
        84  -9.5073    195.2561    198.9390   8.8652401705e+01   3.4356683219e+00    0.2865235    0.2161931 -64.99  0.001504619    2.037    0.509
        85  -9.9881    150.7607    147.9472   8.8074888664e+01   2.1863382810e+01    0.6057068    0.3696295 -84.48  0.001861108    4.251    0.765
        86  -8.3307    173.6448    149.6745   8.3225715600e+01   1.6709842266e+01    0.1597855    0.1186718   5.01 3.042287e-06    1.770    0.435
        87  -9.4793    191.8413    192.5910   8.8163188857e+01   5.1072033136e+00    0.5056778    0.2860803 -66.19  0.001631411    5.302    0.811
        88  -9.4883    197.9831     28.8616   4.6531636801e+01   3.2117648651e+01    0.2821461    0.2007738 -28.01 0.0007480744    1.508    0.337
        89  -9.5734    213.3550    196.3504   8.4660960841e+01   6.6883997198e-01    0.2320627    0.2063431  27.87 0.0003478439    1.165    0.142
        90  -9.1460    134.3428    147.8646   9.2020278633e+01   2.5215714705e+01    0.4364924    0.2360108 -63.91  0.001525186    2.482    0.597
        91 -10.0302    214.0063    191.9434   8.3701344562e+01   1.2431761300e+00    0.2060965    0.1778095   6.95 0.0005066862    1.020    0.020
        92  -9.6347    135.8384     27.1698   5.6279932685e+01   4.8088818881e+01    0.1987709     0.154828  34.18 0.0003074799    1.288    0.223
        93  -8.4865    216.6316     24.8099   4.3266722078e+01   2.8017234211e+01    0.2368757    0.1300676 -25.23  0.001066386    2.040    0.510
        94 -11.9583      3.3707    186.6377   1.2782234830e+02   3.4524403280e+01     0.573405    0.3555183 -65.69  0.003019355    1.627    0.385
        95 -11.4756      3.2179    181.3981   1.2754323794e+02   3.5646718366e+01    0.3953405    0.2522084 -87.96  0.002153089    1.205    0.170
        96  -9.5753    209.3881    187.1998   8.3671867744e+01   2.8211924738e+00    0.3184904    0.2098913  62.87   0.00118072    2.523    0.604
        97  -9.0486    159.1774    158.0327   8.8294136213e+01   1.7998953340e+01    0.3514904    0.2407353 -82.78  0.001417537    2.500    0.600
        98  -8.0699    134.0023    187.2713   9.9536330957e+01   1.6788845882e+01     0.167754    0.1147084  42.22 0.0002806532    1.349    0.259
        99  -8.2333    166.1782     18.1174   4.7832782875e+01   4.1461277931e+01    0.1848698    0.1528769 -71.13 0.0004120861    1.265    0.210
       100  -9.8255    181.6344    187.4052   8.9272866495e+01   7.8980619197e+00     0.240323    0.2294829  53.96 0.0003547925    1.181    0.154
       101  -7.9011    190.2903     15.3254   4.3758137786e+01   3.5624033144e+01    0.1354774   0.09989807  37.51 0.0007014368    1.614    0.380
       102  -9.3892    220.3043    184.5856   8.1079748991e+01   1.2960770249e+00    0.2292083    0.1613912 -42.56  0.000800689    1.597    0.374
       103  -8.6341     66.9201    182.6484   1.1404961709e+02   2.8525732682e+01    0.1690677    0.1417856  60.51 0.0004348349    1.121    0.108
       104 -10.2215    236.2166    174.5525   7.6151886103e+01   8.1335417661e-02    0.4317812    0.3054499  73.67  0.001941594    3.139    0.681
       105  -8.4906    224.2466     27.9355   4.3235075275e+01   2.5813805917e+01    0.1789236    0.1549372 -45.61  0.000432127    1.147    0.128
       106  -9.9803    230.5102    166.8663   7.5584198002e+01   2.3024390503e+00    0.3476586    0.2101086 -40.85   0.00133746    1.698    0.411
       107  -9.5880    227.9849    176.0146   7.7935345392e+01   1.2938396592e+00    0.3825043     0.186405  55.37  0.001470748    3.374    0.704
       108 -13.2644     36.0487    164.9397   1.1914616809e+02   3.6257287220e+01     1.264948    0.8065833  17.49  0.001833251    2.298    0.565
       109 -12.9409     46.3883    159.1296   1.1605109989e+02   3.6478949415e+01     1.217205    0.9647421 -29.24  0.002431709    1.791    0.442
       110  -9.0172    202.2986    172.1368   8.2046339027e+01   6.6823481168e+00    0.2472937    0.2004288  -1.30 0.0007733228    1.270    0.213
