#   1 NUMBER                 Running object number                                     
#   2 MAG_AUTO               Kron-like elliptical aperture magnitude                    [mag]
#   3 X_IMAGE                Object position along x                                    [pixel]
#   4 Y_IMAGE                Object position along y                                    [pixel]
#   5 X_WORLD                Barycenter position along world x axis                     [deg]
#   6 Y_WORLD                Barycenter position along world y axis                     [deg]
#   7 A_WORLD                Profile RMS along major axis (world units)                 [deg]
#   8 B_WORLD                Profile RMS along minor axis (world units)                 [deg]
#   9 THETA_WORLD            Position angle (CCW/world-x)                               [deg]
#  10 FWHM_WORLD             FWHM assuming a gaussian core                              [deg]
#  11 ELONGATION             A_IMAGE/B_IMAGE                                           
#  12 ELLIPTICITY            1 - B_IMAGE/A_IMAGE                                       
         1 -11.7978    220.6303     18.9515   3.8811386598e+01   2.8038493117e+01    0.7018292    0.6195186 -69.76  0.002880529    1.032    0.031
         2 -12.3012    203.0859     36.1916   4.5138839762e+01   3.0134767164e+01     1.364646    0.8961912  38.87  0.006668284    1.898    0.473
         3 -10.7258    213.6148     26.5009   4.1388139128e+01   2.8804860479e+01    0.4587177    0.3166847  42.45 0.0009897809    1.778    0.438
         4  -9.6144     32.7572     28.1687   8.8306634005e+01   6.7296584952e+01    0.3508141   0.09500507 -47.33  0.001302675    3.655    0.726
         5  -8.8812     47.9663      2.5233   6.8793580062e+01   6.8859163440e+01    0.1853781    0.1369842  -8.86 0.0005791442    1.180    0.152
         6  -8.9237    244.4682      1.4636   3.2938237600e+01   2.4620167970e+01    0.3661047     0.105647  75.08  0.001501795    3.317    0.699
         7 -10.4793     45.0959    220.1819   1.2048991139e+02   2.3003877595e+01    0.3437507    0.2489268  82.91  0.001808705    1.181    0.153
         8 -12.8635     85.3757    226.5260   1.1313948831e+02   1.6569145158e+01      1.74495    0.8507742  58.62  0.008557552    2.122    0.529
         9 -13.8443     70.1900    247.1809   1.1791012521e+02   1.4805786338e+01     4.352068    0.9848112  34.85   0.01406916    4.741    0.789
        10 -12.2654     37.6379    207.0205   1.2093470599e+02   2.6539132102e+01    0.8217002    0.7217578   3.88   0.00564465    1.738    0.425
        11 -14.5909     44.4514    195.9808   1.1860455928e+02   2.8132264013e+01     7.950136     2.735412  63.24   0.02691253    4.710    0.788
        12 -10.5534     50.4812    235.1704   1.2059583795e+02   1.9460374397e+01    0.4218391    0.1740263  53.84  0.002232146    2.033    0.508
        13 -12.4712     30.6996    247.5889   1.2486652322e+02   1.9437534345e+01     1.092196    0.7371812 -61.12  0.007807123    1.906    0.475
        14 -11.2217    101.2380    228.1035   1.1012426962e+02   1.3977783238e+01    0.4984699    0.2545241  41.74  0.002592433    1.663    0.399
        15 -10.1518    167.9057    224.2283   9.6012918143e+01   4.0327282350e+00    0.3103314    0.1768794 -54.98   0.00153452    2.368    0.578
        16  -8.9829    160.0005    225.0000   9.7731928372e+01   5.2085724077e+00    0.2252828   0.06457017  38.93 0.0008096878    2.993    0.666
        17 -11.3053    143.6026    230.6795   1.0187321590e+02   6.9227249025e+00    0.5140817    0.3638986 -54.84  0.003038079    1.694    0.410
        18  -9.0910     93.7058    219.9387   1.1073838258e+02   1.6651519814e+01    0.1727086    0.1483018  77.93 0.0004387015    1.115    0.103
        19 -12.3550    114.9065    230.6996   1.0767104409e+02   1.1438250876e+01    0.9091576    0.3823054  44.30  0.004266851    1.997    0.499
        20 -15.0784      7.3783    240.0939   1.2837450919e+02   2.3165999865e+01     13.82332     1.499397 -78.36   0.04156791    8.890    0.888
        21 -10.1904    152.9686    230.5972   9.9974605172e+01   5.4257621272e+00    0.2507274    0.1943071  29.91  0.001537705    1.149    0.130
        22 -10.3557     64.0823    179.1343   1.1243758099e+02   2.9524580980e+01    0.4060425    0.2918699 -32.02   0.00215761    2.032    0.508
        23 -10.0564     68.9416    173.5867   1.1057410948e+02   3.0169972130e+01    0.3421907    0.2482985 -37.87 0.0007931041    1.790    0.441
        24  -9.7970     40.7709    177.8534   1.1768180081e+02   3.2589958804e+01    0.2640139    0.1457658 -73.39 0.0007522776    1.597    0.374
        25 -11.3311     73.4366    154.1217   1.0660071236e+02   3.4190733110e+01    0.9216718    0.5287037  77.28  0.003782731    2.585    0.613
        26 -11.4167     68.4500    144.4589   1.0635117195e+02   3.7226156881e+01     0.747317    0.5115337  74.88  0.003573222    1.730    0.422
        27 -10.7832     78.4656    163.8162   1.0682618305e+02   3.1152804918e+01     0.428966    0.3922156  66.35 0.0005004728    1.077    0.071
        28 -10.8284     85.0405    157.2269   1.0408414365e+02   3.1760094358e+01    0.9155603    0.4362754 -48.22  0.002825495    2.192    0.544
        29 -11.6493     65.7721    159.8744   1.0945781124e+02   3.3836688278e+01    0.5031871    0.2893505 -48.64  0.001440742    1.858    0.462
        30  -9.9629     32.6385    156.4148   1.1734833914e+02   3.8431781945e+01    0.3661245     0.101482 -70.02  0.001376521    3.018    0.669
        31 -10.6397     21.7163    142.2027   1.1853322729e+02   4.2801551765e+01    0.7384501   0.07272395 -64.30   0.00228947    4.524    0.779
        32  -9.1874    100.5848    141.4890   9.7012750461e+01   3.3057916515e+01    0.5197621    0.3086303 -22.57  0.001856537    3.183    0.686
        33 -10.4523     87.3561    141.7031   1.0067324155e+02   3.5162750125e+01    0.2962005    0.2616633 -41.28 0.0006362581    1.191    0.160
        34  -8.8416     81.6994    141.7309   1.0223533448e+02   3.6018748324e+01    0.2880478    0.1849425  48.65 0.0007616787    1.657    0.396
        35 -10.5832     59.6227    135.2152   1.0724115594e+02   4.0635366687e+01    0.6412239    0.2210573 -68.55  0.002172682    3.234    0.691
        36 -10.4433     57.4615    127.8837   1.0658527625e+02   4.2706989154e+01    0.4365147    0.3018363  64.85  0.002217605    1.718    0.418
        37  -9.6368     32.9301    130.8997   1.1410183460e+02   4.4560406302e+01    0.3336359    0.1461179 -68.05   0.00134276    1.896    0.472
        38  -9.0742    108.6636    131.1337   9.2557069309e+01   3.4116466430e+01    0.5433924    0.2170223  41.80  0.001920649    2.563    0.610
        39  -8.5078     97.2585    127.7584   9.4999052474e+01   3.6935549689e+01     0.270092    0.2252834 -19.34 0.0004894179    1.398    0.285
        40  -8.5145    134.7414    121.0814   8.3061919266e+01   3.1325741778e+01    0.3851604    0.1326687 -43.62  0.001196375    2.871    0.652
        41  -7.9437    106.9925    119.7802   9.0348293493e+01   3.7115596655e+01    0.1992871    0.1959188 -24.11 0.0002302088    1.037    0.036
        42  -8.8251     17.2987    112.3378   1.1603474901e+02   5.0316518199e+01    0.1332354    0.0756326 -47.31 0.0003253309    1.659    0.397
        43  -7.9698    205.5284    110.4674   6.4356237076e+01   1.7693349183e+01    0.1512445    0.1412523 -25.75 0.0001245396    1.008    0.008
        44  -8.8534     32.8105    108.9258   1.1072332123e+02   4.9923409633e+01    0.2567161    0.1022023 -66.96 0.0007311743    2.163    0.538
        45 -10.7890     12.1289     99.3724   1.1574654117e+02   5.3743451948e+01    0.4368022     0.155916 -75.92  0.001771041    2.771    0.639
        46  -8.6993     32.6194     96.2165   1.0844115750e+02   5.2994715752e+01    0.1992047   0.09571644 -54.53 0.0007387429    1.654    0.395
        47  -7.9739     41.3530     91.7364   1.0451125993e+02   5.3248453936e+01    0.1265076   0.09978895  69.55 0.0004105641    1.619    0.382
        48  -9.0925     33.0000     80.9313   1.0503185042e+02   5.6540272168e+01    0.3757585   0.06345069 -60.77  0.001052934    4.949    0.798
        49 -13.3274      8.8048    207.5245   1.2653279629e+02   2.9313721640e+01     1.135267     1.023526 -46.72  0.004536987    1.651    0.394
        50  -9.0913     33.0000     62.9652   1.0039513600e+02   6.0536921461e+01    0.3634133    0.0626305 -56.76  0.001048805    4.911    0.796
        51 -10.6038     48.6933    216.2819   1.1948228728e+02   2.3367692739e+01    0.4092233    0.2440329 -68.31  0.002092483    1.664    0.399
        52  -9.0470    138.7005     44.5191   5.8746468743e+01   4.5061113504e+01    0.2408143    0.2256933 -34.90 0.0004356138    1.123    0.109
        53 -11.4115    134.7892    236.8351   1.0445335644e+02   7.2803015516e+00     0.460213    0.2715748 -38.95  0.002461746    2.242    0.554
        54  -9.6493     54.3349    231.4742   1.1960365363e+02   1.9695755816e+01    0.3682647    0.1514746 -81.30  0.001775691    2.787    0.641
        55 -11.4452     52.4425    221.2190   1.1915145092e+02   2.1926469241e+01    0.6045283    0.3450012 -87.47   0.00351606    1.728    0.421
        56 -10.3839    121.5738    223.7517   1.0544524406e+02   1.1669942452e+01    0.4061444    0.2607815 -56.95  0.002177767    1.778    0.438
        57 -10.8442     46.8555    228.7074   1.2079520777e+02   2.1122792054e+01    0.3514107    0.2295711  67.05  0.002017447    1.267    0.211
        58 -11.6892    125.1745    230.0588   1.0551821108e+02   9.9608867195e+00    0.4374532     0.376302  88.61  0.002864528    1.319    0.242
        59  -7.9495    142.6321     40.2240   5.6425972743e+01   4.4695875894e+01    0.1841333    0.1391178 -13.40 0.0002554497    1.468    0.319
        60 -10.1684     49.1184    225.0655   1.2009497435e+02   2.1564590250e+01    0.3568764    0.1882243  54.81  0.001232995    1.592    0.372
