#   1 NUMBER                 Running object number                                     
#   2 MAG_AUTO               Kron-like elliptical aperture magnitude                    [mag]
#   3 X_IMAGE                Object position along x                                    [pixel]
#   4 Y_IMAGE                Object position along y                                    [pixel]
#   5 X_WORLD                Barycenter position along world x axis                     [deg]
#   6 Y_WORLD                Barycenter position along world y axis                     [deg]
#   7 A_WORLD                Profile RMS along major axis (world units)                 [deg]
#   8 B_WORLD                Profile RMS along minor axis (world units)                 [deg]
#   9 THETA_WORLD            Position angle (CCW/world-x)                               [deg]
#  10 FWHM_WORLD             FWHM assuming a gaussian core                              [deg]
#  11 ELONGATION             A_IMAGE/B_IMAGE                                           
#  12 ELLIPTICITY            1 - B_IMAGE/A_IMAGE                                       
         1 -14.0553    174.1879     43.7581   6.8345668235e+01   3.6212281140e+01       1.3919      1.15463 -24.02  0.003240726    1.200    0.167
         2 -13.9296    185.7203     33.2539   6.2947282854e+01   3.4584625767e+01     1.212303    0.9481863 -31.06  0.003273761    1.265    0.209
         3 -15.1995    191.7193     24.2825   5.9146256525e+01   3.4071056602e+01     3.378279     1.997726  16.90  0.001396113    2.314    0.568
         4  -9.6642     83.0021      6.2448   7.5143893251e+01   6.2688902665e+01     0.162825     0.109667  46.77 0.0004229746    1.547    0.353
         5 -11.5522     85.6059    236.9357   1.2356509787e+02   1.9403092598e+01    0.2396798    0.1497081 -85.33  0.000473284    1.770    0.435
         6 -12.5895     66.6475    211.4139   1.2478792703e+02   2.5629558416e+01     2.725842    0.4580307  48.30   0.01133303    3.933    0.746
         7 -16.1221    115.6639    240.3864   1.1910466727e+02   1.4939528825e+01     6.059256     3.498666  47.21   0.04326825    1.269    0.212
         8 -10.8957    104.0457    194.4350   1.1662209855e+02   2.3413814687e+01    0.2499073    0.2085628  25.79  0.001752078    1.598    0.374
         9 -19.3823     19.3847    134.3169   1.2785352036e+02   4.4952780020e+01     16.20748     1.985352 -74.77   0.04648473    7.462    0.866
        10 -10.4584     51.9881    208.6757   1.2706918582e+02   2.7799212869e+01    0.1498545   0.09984289  67.91 0.0002959176    1.131    0.116
        11  -9.7797    164.6559    204.3181   1.0694390865e+02   1.2349640993e+01    0.1457181    0.1201393 -81.76 0.0007627331    1.632    0.387
        12 -12.7903    193.9916    194.1415   1.0036305284e+02   8.7158716269e+00    0.8546485    0.5838361 -62.22  0.004819599    2.510    0.602
        13 -12.1163    112.5266    196.6343   1.1531150098e+02   2.1797792526e+01    0.4363056    0.3025914  15.92  0.002439177    2.657    0.624
        14  -9.5776     72.4923    203.0312   1.2312735685e+02   2.6276962376e+01    0.1384714    0.0947805 -76.98 0.0006142843    1.500    0.333
        15 -12.9262    119.6733    200.2304   1.1442397840e+02   2.0144108445e+01    0.6522131    0.2581077  39.18  0.003172342    2.366    0.577
        16 -13.3911     71.2884    193.8415   1.2256391169e+02   2.7984251127e+01    0.7161471    0.4797221  40.01  0.004934891    1.545    0.353
        17  -9.6839     57.8945    196.3587   1.2517590067e+02   2.9185034208e+01    0.1390116    0.1033517  62.35  0.001058429    1.075    0.069
        18  -9.6810    180.2104    193.0182   1.0258727128e+02   1.1243666313e+01    0.1809816    0.1395967  87.92  0.001079518    2.036    0.509
        19 -14.7767     53.9532    231.7064   1.2816429716e+02   2.3971986511e+01    0.9623604    0.8075882  88.30  0.008784312    1.404    0.288
        20 -10.5090     59.8181    188.8960   1.2423893667e+02   3.0257667618e+01    0.2129337     0.149561 -72.04 0.0008811137    1.477    0.323
        21 -10.1123     50.4740    213.3491   1.2762139146e+02   2.7210679174e+01    0.1777283   0.07404036  50.95  0.000585705    1.786    0.440
        22 -11.6814    207.6044    183.8101   9.6335029044e+01   7.6326024066e+00    0.3036605    0.2884727  -5.68 0.0009365582    1.255    0.203
        23 -11.5137    210.9994    180.1870   9.5130007978e+01   7.4803327360e+00    0.4045866    0.2615862 -13.90  0.002291694    1.865    0.464
        24 -10.7115     48.3086    217.3357   1.2821900013e+02   2.6815545316e+01    0.1772071    0.1401495  12.75  0.001305513    2.517    0.603
        25 -10.6955     77.5041    184.8703   1.2058239795e+02   2.8753779848e+01    0.4678903    0.2202617  86.66  0.002180558    3.238    0.691
        26 -10.7391     99.4539    180.6488   1.1592477873e+02   2.6445594287e+01    0.2043868     0.175078  58.18 0.0005504057    1.115    0.103
        27 -11.9788     44.0085    215.0657   1.2878298035e+02   2.7650024543e+01    0.3896772    0.1023486  51.85   0.00205044    2.720    0.632
        28 -10.3012    194.0724    166.2675   9.5615156009e+01   1.2434040129e+01    0.3429348    0.2423088 -44.49  0.001957059    1.694    0.410
        29 -10.9377    198.0100    176.7106   9.6777858544e+01   1.0269951908e+01    0.3150074    0.2062538  33.18  0.001006569    1.366    0.268
        30 -11.5033    197.0006    172.4547   9.6207168614e+01   1.1029299129e+01    0.3509777    0.3056967 -30.21  0.001276654    1.318    0.241
        31  -9.2723    171.2972    177.6064   1.0176074314e+02   1.4994616838e+01    0.1235779   0.09559235  81.17 0.0002707113    1.797    0.443
        32 -11.7370    140.9881    175.5412   1.0717454548e+02   2.0674208390e+01    0.3336532    0.1747346 -40.26  0.001652768    2.502    0.600
        33  -9.4542     66.1141    237.0480   1.2660401116e+02   2.1780283800e+01    0.1244231   0.08700883  63.63  0.001030373    1.037    0.035
        34 -10.2640    177.7721    169.3907   9.9170094482e+01   1.5032260866e+01    0.1880147     0.106364  38.01 0.0007316623    1.616    0.381
        35 -11.2644    145.7310    168.3295   1.0513102306e+02   2.1043602955e+01    0.2558447    0.2154983  73.79 0.0008366864    1.259    0.206
        36 -12.5176    116.4044    211.6117   1.1624930558e+02   1.8885163319e+01    0.3252569    0.2495041  83.16  0.001033883    1.383    0.277
        37 -10.0545     72.6644    166.9947   1.1968625188e+02   3.2676769432e+01    0.2566862    0.1460979  44.70 0.0008823274    1.617    0.381
        38 -10.3710    225.1744    165.7841   9.0099443106e+01   6.7003119090e+00    0.1887801    0.1432679 -83.30 0.0009473703    2.828    0.646
        39 -10.5343    177.3751    236.7589   1.0893133453e+02   6.3549546713e+00     0.177898    0.1335547  52.63  0.001344917    1.281    0.220
        40 -12.3476     98.1856    156.4055   1.1306207763e+02   3.1108933177e+01    0.5632492    0.4192562 -28.87  0.003190593    2.165    0.538
        41 -10.0954    141.7865    158.3353   1.0427175317e+02   2.3458795232e+01    0.1954752    0.1689198 -83.74 0.0006440255    1.280    0.219
        42 -10.8671    165.9150    154.6200   9.8778574614e+01   1.9586676325e+01    0.2721182    0.1584507  58.07  0.001287264    1.920    0.479
        43 -10.0752    151.8013    151.2214   1.0097738502e+02   2.2850003115e+01    0.2191638    0.1420961  83.12 0.0009466205    2.758    0.637
        44 -11.4432    133.7666    144.4996   1.0351738606e+02   2.7412954022e+01    0.9637929     0.279547 -55.44  0.002985774    4.877    0.795
        45  -9.6917    129.1121    140.4653   1.0378572345e+02   2.9017848007e+01    0.2060275    0.1653327  29.74  0.001165089    1.414    0.293
        46 -11.0552    174.6391    148.6399   9.5924187029e+01   1.8860686914e+01    0.2858897    0.2476697 -43.94  0.001187126    1.285    0.222
        47 -11.8286    144.8346    145.7734   1.0140854866e+02   2.5127093278e+01    0.4328263    0.3342444  87.82  0.002361423    1.629    0.386
        48 -11.7205    108.5794    140.9479   1.0841178389e+02   3.2481694096e+01    0.4646353    0.3131856 -34.40  0.002390764    2.111    0.526
        49 -12.5025     97.0686    141.4390   1.1107586399e+02   3.4224519130e+01    0.2461524    0.2233376  54.30 0.0004606826    1.155    0.134
        50 -11.8888    115.7226    131.0588   1.0503281343e+02   3.3235690878e+01    0.5436569    0.3807477  23.04  0.001263439    1.988    0.497
        51 -11.1085    106.0000    131.0041   1.0726910597e+02   3.4901911169e+01    0.3201994    0.2509815 -67.14  0.001159515    1.266    0.210
        52 -11.3492    103.5004    127.6309   1.0724233804e+02   3.6003202153e+01    0.2899324    0.2318807 -61.44  0.000547432    1.233    0.189
        53 -11.6083    136.1945    124.8316   9.9128867385e+01   3.0685476811e+01    0.6982659    0.3599472 -47.64  0.003104113    2.011    0.503
        54 -10.6395    161.0610    128.6225   9.4538700170e+01   2.5000766070e+01    0.3351698    0.2943243 -83.22  0.001888352    1.330    0.248
        55 -11.2309    120.1825    125.0099   1.0282862026e+02   3.3651778168e+01    0.3095866    0.1905919 -36.14 0.0009517587    2.061    0.515
        56 -10.6487    111.2400    119.6215   1.0385620554e+02   3.6333184161e+01    0.2820748    0.2315734  22.35 0.0006337802    1.519    0.342
        57 -10.3871    167.8518    112.7281   8.9474495810e+01   2.6376896280e+01    0.3713927    0.2565981 -78.20  0.001484992    2.415    0.586
        58 -10.0650    135.0000    112.0090   9.6571965554e+01   3.3410209371e+01    0.2335219   0.08034442 -45.71 0.0008039212    2.953    0.661
        59 -10.0722     66.6951    233.1833   1.2627180233e+02   2.2273948091e+01    0.1400699   0.09982999  54.94            0    1.142    0.124
        60 -10.2557    205.5145    110.1863   8.1506677168e+01   1.8426347462e+01     0.314162    0.1930704  41.54 0.0007997195    1.584    0.369
        61 -10.4823    116.2529    109.7338   1.0053723012e+02   3.7461445964e+01    0.2242882    0.1087615 -39.88 0.0009000399    2.418    0.586
        62 -10.1193    134.5107    103.8101   9.4739181174e+01   3.5114901265e+01    0.3853236    0.1405635 -44.22  0.001369891    2.760    0.638
        63  -9.7235     78.8047    232.2061   1.2429977029e+02   2.0938972284e+01    0.1160692   0.09793029  53.56 0.0009893941    1.333    0.250
        64  -9.2780    127.8373     94.6234   9.4044847955e+01   3.8281776451e+01    0.2000971    0.1339945  58.68 0.0004719771    1.657    0.396
        65  -9.4930     37.0484    223.4824   1.3034705097e+02   2.7066993504e+01    0.1263257   0.06974461  50.62 0.0004342679    1.375    0.273
        66 -12.4346    172.1797     71.2959   7.7381804889e+01   3.2509943501e+01    0.5357529     0.371698 -82.15 0.0009754976    2.251    0.556
        67  99.0000     41.6916    220.4234   1.2945600325e+02   2.7051229835e+01    0.2589988    0.1111517  45.25   0.00137541    1.809    0.447
        68  -9.7411     96.4733     63.5230   9.3692210629e+01   5.0538954327e+01    0.1399686    0.1298647 -48.86  0.000809244    1.044    0.042
        69 -10.3111    106.7903     62.0535   9.0242298858e+01   4.8895761910e+01    0.2212968    0.2043254  43.20 0.0003421112    1.148    0.129
        70 -11.5031    106.9829    209.8197   1.1770542227e+02   2.0526747276e+01    0.4273525     0.310245  55.64  0.003088137    1.070    0.066
        71 -11.8152    106.0104    201.8508   1.1706033454e+02   2.1919648463e+01    0.4043782    0.2165287  48.78  0.002090829    1.500    0.333
        72 -10.6547    172.9328    244.6651   1.1052860722e+02   6.1574203813e+00     0.204174     0.156588 -60.99  0.001596073    1.948    0.487
        73 -11.6206    216.5382     18.5343   5.4223064996e+01   2.8178400313e+01    0.2507637    0.2441544 -53.85 0.0006222507    1.006    0.006
