#   1 NUMBER                 Running object number                                     
#   2 MAG_AUTO               Kron-like elliptical aperture magnitude                    [mag]
#   3 X_IMAGE                Object position along x                                    [pixel]
#   4 Y_IMAGE                Object position along y                                    [pixel]
#   5 X_WORLD                Barycenter position along world x axis                     [deg]
#   6 Y_WORLD                Barycenter position along world y axis                     [deg]
#   7 A_WORLD                Profile RMS along major axis (world units)                 [deg]
#   8 B_WORLD                Profile RMS along minor axis (world units)                 [deg]
#   9 THETA_WORLD            Position angle (CCW/world-x)                               [deg]
#  10 FWHM_WORLD             FWHM assuming a gaussian core                              [deg]
#  11 ELONGATION             A_IMAGE/B_IMAGE                                           
#  12 ELLIPTICITY            1 - B_IMAGE/A_IMAGE                                       
         1 -15.3838    183.0463     97.4838   2.9025675924e+02   5.5703636046e+00   0.07797772   0.05762269 -89.23   0.00643255    1.674    0.403
         2 -14.8083    189.1857     83.1385   2.9010220794e+02   5.6985145479e+00   0.06261619   0.03358093 -72.06  0.004669343    2.215    0.548
         3 -15.3727    201.3643     86.9970   2.8998438470e+02   5.5892230917e+00     0.110602   0.06028461  66.55  0.008160731    3.278    0.695
         4 -15.9110     82.8179     84.5628   2.9133786039e+02   6.2565594658e+00    0.1190866   0.09288811 -61.00  0.009888529    1.290    0.225
         5 -13.0946    246.1871      3.7737   2.8898098280e+02   6.2812526869e+00   0.03068485   0.02217505  33.27  0.002300891    1.376    0.273
         6 -14.9247    248.8955     29.5951   2.8910105561e+02   5.9766695223e+00    0.1369822   0.02661457 -59.83  0.008563076    4.373    0.771
         7 -13.9177    244.7811     11.3229   2.8904140985e+02   6.2041537818e+00   0.04882227   0.03014508  37.19  0.004879012    1.625    0.384
         8 -14.1552    171.7010     33.2488   2.9001222280e+02   6.3540234943e+00   0.04037142   0.02517109 -49.18  0.003362825    1.559    0.359
         9 -13.5617    176.9055     25.6192   2.8990754824e+02   6.4115951194e+00   0.03306255   0.02336922  -0.79   0.00160936    1.610    0.379
        10 -13.7407    170.5291     14.3218   2.8991501487e+02   6.5730412686e+00   0.03505961   0.02619667  31.06  0.002390282    1.327    0.247
        11 -12.6793    162.8578      6.7803   2.8995941417e+02   6.6992783588e+00   0.02698909   0.02018929  49.15  0.002025261    1.464    0.317
        12 -11.9114    235.3579      2.1099   2.8909598013e+02   6.3587322505e+00   0.02799239  0.009098895  32.02  0.002176315    2.804    0.643
        13 -12.0903    188.8251      2.1825   2.8963286158e+02   6.6103089761e+00   0.02743807   0.01148797  26.47  0.002350117    2.330    0.571
        14 -11.7944      1.9047    210.0658   2.9300039595e+02   5.2771389154e+00   0.01600153   0.01105132 -80.65  0.001283657    1.738    0.424
        15 -14.3107    248.4691    224.0176   2.9024145192e+02   3.7930066072e+00   0.07537883     0.024845 -52.77  0.005909842    2.736    0.635
        16 -14.3714    245.3628    248.2722   2.9041835802e+02   3.5369188656e+00   0.03924844   0.03140504  44.89  0.002920711    1.321    0.243
        17 -13.8365    250.0963    243.4823   2.9033607199e+02   3.5652452499e+00   0.04130441   0.01801707 -69.34  0.003223537    2.742    0.635
        18 -16.9393    168.7130    242.4051   2.9126593919e+02   4.0164572538e+00    0.2256675   0.08507087  31.47  0.009255295    2.476    0.596
        19 -10.8909     11.3413    205.9240   2.9286762306e+02   5.2732851897e+00   0.01578848   0.01169171 -25.41  0.001228007    1.464    0.317
        20 -10.7566    237.5014    203.4800   2.9024794428e+02   4.0833335205e+00   0.00647124  0.006194524 -18.92 0.0001957247    1.011    0.010
        21  -9.9837      5.2616    203.3442   2.9292280068e+02   5.3349164805e+00  0.006823299  0.004597314 -33.24 0.0006972185    1.598    0.374
        22 -19.6583     53.1915    152.8267   2.9207701015e+02   5.6471222545e+00      1.02247    0.2094608 -64.77   0.05545598    5.988    0.833
        23 -12.2733    195.8529    194.5226   2.9067503203e+02   4.4091110988e+00   0.02406289   0.01628105  -0.66  0.002499225    1.729    0.422
        24 -14.2896    186.7799    190.2376   2.9075454559e+02   4.5063273192e+00   0.04798223   0.04450109  51.51  0.004087372    1.149    0.130
        25 -12.2823    194.6118    185.2622   2.9063539462e+02   4.5200495301e+00   0.02069276   0.01799099  23.13  0.001397132    1.143    0.125
        26 -13.7326    165.5164    176.4378   2.9091910723e+02   4.7764412118e+00   0.05057155   0.03036422 -68.68  0.003805003    1.809    0.447
        27 -11.6762      1.9607    183.9461   2.9284858996e+02   5.5711973885e+00   0.01517475  0.009754372 -60.75   0.00108157    1.547    0.353
        28 -10.8550     35.8781    183.9760   2.9245750930e+02   5.3890922944e+00  0.009251195  0.008834587 -17.49 0.0003560472    1.015    0.015
        29 -11.3550    210.8842    181.8663   2.9042828095e+02   4.4703764078e+00   0.01058283  0.008638723 -25.48  0.000956818    1.267    0.211
        30 -15.1345     22.4564    102.9957   2.9214234496e+02   6.3733548559e+00   0.08396245   0.06969903 -64.64  0.008483263    1.236    0.191
        31 -11.3734    219.5766    179.2240   2.9031283402e+02   4.4531406742e+00  0.009525036  0.005661169 -49.68 0.0007120496    1.630    0.386
        32 -11.2138     95.6720    175.5615   2.9171905140e+02   5.1626539071e+00   0.01929321  0.008747281 -45.47  0.001465383    2.231    0.552
        33 -11.2740     97.7093    170.8721   2.9166830640e+02   5.2045138303e+00   0.01381564  0.008500913 -39.11  0.000763705    1.703    0.413
        34  -9.8690    113.3265    169.2696   2.9147891052e+02   5.1384935595e+00  0.006691619  0.004764646 -22.81 0.0002390859    1.576    0.366
        35 -15.0912     24.0806     74.8046   2.9195962420e+02   6.6820519123e+00   0.09655274   0.06899502 -23.42   0.01049228    1.560    0.359
        36 -12.6541     92.0766    156.5870   2.9165022907e+02   5.3957288823e+00   0.01763836   0.01514363 -11.21  0.001098595    1.197    0.164
        37 -11.4803    102.3510    161.9554   2.9156294115e+02   5.2799676350e+00   0.01412596   0.01132784 -33.30  0.000856676    1.265    0.210
        38 -12.5465     98.7782    157.9907   2.9158109308e+02   5.3438531370e+00   0.02077381   0.01856121  78.52  0.001418216    1.258    0.205
        39 -13.8881    114.0434    150.5773   2.9136190946e+02   5.3451507833e+00   0.05193045   0.03797276  -2.40  0.005707861    1.529    0.346
        40 -15.3451    186.2321    118.1034   2.9034039898e+02   5.3211561599e+00   0.07886826   0.06700034 -77.53  0.007881854    1.284    0.221
        41 -14.5974    201.6841    125.2945   2.9020432865e+02   5.1567021073e+00   0.06587207   0.03509075 -60.76  0.006344073    1.856    0.461
        42 -14.1443    212.4903    154.5423   2.9025050806e+02   4.7691818438e+00   0.07184089   0.04085137   7.59  0.005858315    2.161    0.537
        43 -14.9788    205.4374    142.9498   2.9026410806e+02   4.9377561667e+00   0.07822533   0.04910303  31.12  0.006809519    1.563    0.360
        44 -10.7235     19.1324    249.3728   2.9302909074e+02   4.7419108643e+00  0.009866611  0.005897674  29.74 0.0009918561    1.636    0.389
        45 -13.3868    178.4504    147.3972   2.9060091533e+02   5.0335375303e+00   0.04574377   0.02202469 -70.73  0.003936081    2.488    0.598
        46 -12.6013    173.2240    142.3411   2.9063166666e+02   5.1186734627e+00   0.02327075   0.01415947   7.11  0.002270679    1.939    0.484
        47 -13.4689    133.4455    143.7726   2.9109855252e+02   5.3172122809e+00   0.03549641   0.02857396  81.42  0.003116547    1.488    0.328
        48 -12.3428    132.7552    134.1070   2.9105021793e+02   5.4297588663e+00   0.02110642   0.01652906  65.82  0.001661337    1.523    0.343
        49 -13.1290    185.9641    144.1331   2.9049531862e+02   5.0296866625e+00   0.02369357   0.01496665  43.62  0.002324116    1.684    0.406
        50 -13.2891     10.5687    142.7987   2.9251076604e+02   5.9887395690e+00   0.02799015   0.02266704 -12.37  0.002612485    1.310    0.237
        51 -12.2336      5.8447    136.7979   2.9253049278e+02   6.0816514990e+00   0.01923254    0.0155945 -28.47  0.001305955    1.266    0.210
        52 -10.9569    124.4413    144.3633   2.9120582617e+02   5.3591002066e+00   0.01270585  0.007710293  28.71 0.0008100295    1.614    0.380
        53 -11.0332    158.9939    141.5463   2.9079103933e+02   5.2044495748e+00   0.01331819  0.008375138 -44.22  0.001250724    1.587    0.370
        54 -11.2002    108.9352    141.3051   2.9136686867e+02   5.4770820153e+00   0.01573603  0.009292081 -38.69  0.001547091    1.803    0.445
        55 -14.4480    118.9902    130.4268   2.9118754767e+02   5.5454003120e+00   0.06186159   0.03123557 -59.22  0.004161347    1.923    0.480
        56 -11.3685    104.0049    139.9690   2.9141596611e+02   5.5186803455e+00   0.01119648  0.009024552  20.19  0.000545734    1.237    0.192
        57 -12.5690    184.8845    138.3519   2.9047404611e+02   5.1005832238e+00   0.01797408  0.009811219  23.56  0.001733404    1.839    0.456
        58 -11.2669    241.8029    137.8866   2.8981590717e+02   4.7979840087e+00   0.01039375  0.008674541 -30.85  0.001072742    1.210    0.174
        59 -10.9378     27.9136    134.9940   2.9226522080e+02   5.9836825777e+00  0.009625546  0.009145515  -7.81 0.0004247369    1.027    0.027
        60 -11.9576    248.1624    131.9136   2.8970784978e+02   4.8307299125e+00   0.01464052   0.01423644 -15.86  0.001115737    1.012    0.012
        61 -15.8578     94.7750    114.6227   2.9137492077e+02   5.8537880194e+00   0.08817794   0.08014154   0.67    0.0060142    1.095    0.086
        62 -14.2165    158.3258    103.5307   2.9057707103e+02   5.6359211614e+00   0.06771864   0.03412252 -76.36  0.004476417    2.728    0.633
        63 -13.7892    161.8032     92.2192   2.9047095617e+02   5.7444106367e+00   0.03459315   0.02905234  56.14  0.002867811    1.320    0.242
        64 -12.7909    214.0291    226.1455   2.9064992745e+02   3.9550536290e+00   0.03019467   0.02226684 -86.56  0.002323363    1.653    0.395
        65 -11.7876     24.6310    157.1493   2.9243169977e+02   5.7516832712e+00    0.0225748   0.01203913  30.00  0.002182569    1.819    0.450
        66 -12.4357    124.1689    107.9001   2.9099655264e+02   5.7710841989e+00   0.02361279   0.02203753 -80.44  0.002435427    1.149    0.130
        67 -13.2301    133.7369    116.6204   2.9093700244e+02   5.6213219057e+00   0.03347992   0.02757426 -80.02  0.002599291    1.353    0.261
        68 -14.1839    220.7714    237.9577   2.9064110061e+02   3.7857268739e+00   0.04447681   0.03184346 -77.70  0.003060623    1.611    0.379
        69 -14.6576    148.0616     64.5528   2.9046794092e+02   6.1298736807e+00    0.0782833   0.04064563 -41.42   0.00653887    2.039    0.510
        70 -13.4521    240.5408     64.3719   2.8940081175e+02   5.6313376291e+00     0.028748   0.02010426  73.80  0.002967133    1.915    0.478
        71 -13.0497    240.6855     58.8495   2.8936683692e+02   5.6926065750e+00   0.01843176   0.01544308  18.07  0.001914837    1.190    0.160
        72 -14.4362    226.3507    226.2267   2.9050866410e+02   3.8876170042e+00   0.05969618   0.02474325 -49.58  0.004036915    2.303    0.566
        73 -12.0597     82.2845     54.2363   2.9116721243e+02   6.6006974438e+00   0.01961499   0.01156158 -61.14  0.001975577    1.690    0.408
        74 -14.7505    217.9739    215.9967   2.9054547489e+02   4.0479733033e+00    0.0504837   0.03752353  26.14  0.003645193    1.332    0.249
        75 -14.4085    221.5857    204.6842   2.9043805031e+02   4.1557734814e+00   0.03924642   0.03557348 -78.95  0.002575443    1.188    0.159
        76  99.0000     19.6078    243.6407   2.9299048426e+02   4.8039588989e+00   0.01799516   0.01061645  15.00  0.001767298    1.841    0.457
        77 -11.5277    189.7978     43.6083   2.8986407981e+02   6.1396410677e+00   0.01345014  0.008089861  50.22   0.00130906    1.948    0.487
        78 -10.6120      8.0284    116.9708   2.9239019333e+02   6.2933012733e+00   0.01017493  0.009640918 -19.64 0.0009090753    1.025    0.025
        79 -13.4161    186.5570    227.1262   2.9097175342e+02   4.0922588261e+00   0.02958982   0.02173314  41.39  0.001965642    1.412    0.292
        80 -10.4980      7.7014    226.2734   2.9302729681e+02   5.0634463163e+00  0.006427477  0.004863034  57.32  0.000393173    1.529    0.346
        81 -12.0011    232.1015     28.2212   2.8928643862e+02   6.0832370895e+00   0.01314854  0.008684528  44.34  0.001379003    1.615    0.381
        82 -12.3093    159.1649     48.6216   2.9024674229e+02   6.2490202913e+00     0.015052   0.01194635  30.92 0.0008970135    1.255    0.203
        83 -13.2389    182.2158    210.2654   2.9092365508e+02   4.3054924374e+00   0.03180667   0.02157764  47.39  0.002624554    1.618    0.382
        84 -13.3653    112.3718    210.0397   2.9172682333e+02   4.6844097971e+00   0.02500923   0.01366268   7.69  0.002246865    2.308    0.567
        85 -13.7399    106.7023    208.0639   2.9178068540e+02   4.7371752094e+00   0.02871945   0.01658306 -40.60  0.002428585    1.811    0.448
