#   1 NUMBER                 Running object number                                     
#   2 MAG_AUTO               Kron-like elliptical aperture magnitude                    [mag]
#   3 X_IMAGE                Object position along x                                    [pixel]
#   4 Y_IMAGE                Object position along y                                    [pixel]
#   5 X_WORLD                Barycenter position along world x axis                     [deg]
#   6 Y_WORLD                Barycenter position along world y axis                     [deg]
#   7 A_WORLD                Profile RMS along major axis (world units)                 [deg]
#   8 B_WORLD                Profile RMS along minor axis (world units)                 [deg]
#   9 THETA_WORLD            Position angle (CCW/world-x)                               [deg]
#  10 FWHM_WORLD             FWHM assuming a gaussian core                              [deg]
#  11 ELONGATION             A_IMAGE/B_IMAGE                                           
#  12 ELLIPTICITY            1 - B_IMAGE/A_IMAGE                                       
         1 -10.5957    155.4989     13.6140   2.9003341314e+02   6.7279759313e+00   0.02088228  0.008300702 -53.08  0.001713956    2.352    0.575
         2 -11.1118    200.0000     11.1166   2.8949989269e+02   6.4981746427e+00   0.01395524  0.003738499 -62.66 0.0009061266    3.707    0.730
         3 -10.3863    207.3361      8.5460   2.8939900105e+02   6.4852532498e+00   0.00647034  0.006138684 -74.24 0.0003347561    1.072    0.067
         4 -10.1152    196.0257      5.9837   2.8951528171e+02   6.5807796210e+00  0.009909076  0.007423825  66.31  0.001051764    1.576    0.365
         5 -10.6811     38.5109      2.9379   2.9133475491e+02   7.5291626323e+00   0.01038427  0.006454848 -62.02 0.0007473576    1.593    0.372
         6 -10.9954    159.3480      1.6949   2.8991684721e+02   6.8437664264e+00   0.00951205  0.009073442   1.90 0.0006757485    1.061    0.058
         7 -10.5396    112.5050      1.5359   2.9046226485e+02   7.1174645830e+00  0.006535432  0.006440577 -28.37 0.0008095691    1.005    0.005
         8  -9.6175    105.6714      1.3363   2.9054081773e+02   7.1593804613e+00  0.007081939  0.004956277  62.86 0.0007051941    1.727    0.421
         9  -9.9566     89.1738    170.8365   2.9174874647e+02   5.2866669649e+00  0.009091728  0.007497924 -29.39 0.0002778542    1.284    0.221
        10 -14.4879    161.3259     68.5585   2.9029566563e+02   6.0568382886e+00     0.147988   0.05413074  32.57  0.003470993    2.556    0.609
        11 -10.8793    163.1247    140.7934   2.9070792650e+02   5.2077064282e+00   0.01044641  0.008674731  56.54  0.001195689    1.295    0.228
        12  -9.9129    101.2039    136.2256   2.9140172889e+02   5.6193743800e+00  0.008856903  0.007544013  61.01 0.0004257889    1.270    0.213
        13 -11.0107    138.8690    103.9084   2.9076936199e+02   5.7767174430e+00   0.01022873  0.009890072 -31.77 0.0005084486    1.029    0.028
        14 -11.3878    136.1475    130.1863   2.9095850428e+02   5.4872714032e+00   0.02703439  0.009683213 -65.22  0.001908787    2.977    0.664
        15 -11.8411    134.8681    120.5444   2.9091565736e+02   5.6066858188e+00   0.03071795   0.01084198 -67.28   0.00181573    3.290    0.696
        16 -12.9156    134.6065    107.5705   2.9084096995e+02   5.7588908544e+00   0.05153804   0.01501366 -64.05  0.003482532    3.592    0.722
        17 -13.3426    161.0569    127.9701   2.9065516869e+02   5.3686359729e+00   0.02567953   0.02231734 -20.70  0.001890568    1.218    0.179
        18 -12.1359    152.2601    119.7744   2.9070848122e+02   5.5148299472e+00   0.02163494  0.009625043 -47.86  0.001833475    2.250    0.555
        19 -11.4617    121.8997    113.1297   2.9102232925e+02   5.7679288668e+00   0.01570753  0.008446629  42.81  0.001329239    1.931    0.482
        20 -11.8828    118.0331    110.3343   2.9105064129e+02   5.8227892478e+00   0.01449079   0.01287326  32.75  0.001156776    1.130    0.115
        21  -9.5789    111.5617    113.4641   2.9114480211e+02   5.8238964751e+00   0.00651839  0.006421824 -44.55 0.0001542028    1.006    0.006
        22 -12.9686    120.1116    103.1129   2.9098315739e+02   5.8946296933e+00   0.02772653   0.01850958 -54.00  0.002909155    1.455    0.313
        23 -11.2898    112.3119    104.3500   2.9108147194e+02   5.9254218586e+00   0.01323821   0.01191102  64.90  0.001266264    1.184    0.155
        24 -12.0271    143.9495     99.8170   2.9068564543e+02   5.7947778531e+00   0.01700026   0.01607789 -27.27 0.0007944814    1.065    0.061
        25 -18.3781    247.4709    123.6778   2.8962428218e+02   4.9165860576e+00    0.7023173    0.1233452 -64.39   0.03387191    7.097    0.859
        26 -11.4881    131.3203     96.4084   2.9081235704e+02   5.9075602578e+00   0.01279986   0.01145628  64.45 0.0002491294    1.192    0.161
        27 -10.8943    113.2090     95.0170   2.9101509947e+02   6.0286256786e+00   0.01140562  0.009484411  22.76 0.0004130662    1.217    0.179
        28  -9.7686    212.7164     90.9652   2.8983194464e+02   5.4982665711e+00  0.009017849  0.008338377 -60.68 0.0005006474    1.075    0.070
        29 -11.5753    203.1046     89.4201   2.8993449756e+02   5.5720686869e+00   0.01864504   0.01466184  64.05 0.0007076216    1.444    0.308
        30 -10.9273    197.8518     86.8758   2.8998034698e+02   5.6321207963e+00   0.02002781   0.01531028   7.08  0.002203228    1.445    0.308
        31 -12.0288    136.6272     89.2727   2.9070773168e+02   5.9596610738e+00   0.01630176   0.01352801  54.87 0.0007801556    1.288    0.223
        32 -12.9200    148.3743     82.9344   2.9053283903e+02   5.9651316190e+00   0.01614409   0.01282854 -60.81  0.000761921    1.245    0.197
        33 -10.3075    217.9501     82.0271   2.8971737262e+02   5.5715348468e+00   0.01127835  0.007593945 -28.66  0.001126384    1.748    0.428
        34 -11.8765    223.4197     79.6591   2.8963952192e+02   5.5671902809e+00   0.01266874   0.01168252   0.40 0.0006826573    1.117    0.105
        35 -11.1511    142.8430     79.7723   2.9057831640e+02   6.0339191519e+00   0.01001251   0.00871989 -28.02 0.0005214989    1.194    0.163
        36 -10.6963    207.7260     78.3820   2.8981442628e+02   5.6732788928e+00   0.01328607  0.006575479 -43.01 0.0009899212    2.185    0.542
        37  -8.9071    218.2860     76.4304   2.8967983742e+02   5.6345073493e+00   0.01809173  0.008892844  36.99  0.001630175    1.990    0.498
        38 -14.6222     65.6481    166.9165   2.9199940524e+02   5.4680996601e+00   0.05136993   0.04385359  24.04  0.003029461    1.182    0.154
        39  99.0000    179.5434     75.7666   2.9012676811e+02   5.8674071840e+00     0.518857    0.2488654 -80.86   0.02922581    3.452    0.710
        40  99.0000    186.0244     27.9869   2.8976415342e+02   6.3839445431e+00    0.5832412     0.183928  21.83   0.02593901    3.957    0.747
        41 -11.7027    189.3365     62.9958   2.8993603228e+02   5.9586824121e+00   0.03297536    0.0222879   6.29   0.00334405    1.754    0.430
        42  99.0000    187.0664     59.6879   2.8994258889e+02   6.0102504301e+00   0.04646483   0.02245892   3.58   0.00321352    3.978    0.749
        43 -11.2535    230.0318    166.8411   2.9008584406e+02   4.5169413416e+00   0.01605773  0.009780236 -79.88  0.001305763    2.038    0.509
        44 -10.0096    204.9048     64.8053   2.8976568133e+02   5.8471818390e+00  0.008865742  0.007295841  52.50 0.0005744192    1.288    0.224
        45 -11.5499     64.2984     61.4082   2.9138418999e+02   6.7017854478e+00   0.01433055  0.006548582  26.52  0.001228475    2.199    0.545
        46 -12.0157    170.0258    153.0150   2.9070081114e+02   5.0257291616e+00   0.01825689   0.01206405  62.15  0.001305064    1.889    0.471
        47 -12.0236    173.1548    150.3714   2.9064856708e+02   5.0382910315e+00   0.01952554  0.008484346  38.00  0.001577931    2.251    0.556
        48 -12.7556    202.1272     50.4962   2.8971200378e+02   6.0292962502e+00   0.02491331   0.01533908  12.08  0.002348037    1.907    0.476
        49 -10.9201    215.1068     49.0176   2.8955204902e+02   5.9709283410e+00  0.006878864  0.006759624  -2.21 0.0003703103    1.019    0.019
        50  -9.9607    182.4912     47.5124   2.8992269836e+02   6.1780695802e+00  0.006695562  0.006293138  63.61 0.0008081942    1.110    0.099
        51 -11.1998    219.4652     44.6490   2.8947506072e+02   5.9962130671e+00  0.007837268  0.006501688 -66.64 0.0005607935    1.218    0.179
        52 -11.9053    195.7806     51.9660   2.8979472185e+02   6.0491587994e+00   0.01225206   0.01029485  68.13  0.001208036    1.320    0.243
        53 -11.4471    216.2192     37.0655   2.8946721897e+02   6.1030224257e+00   0.01129926  0.009405554  15.49 0.0009522636    1.244    0.196
        54  -9.6817    207.4122     35.2821   2.8955899451e+02   6.1749548262e+00  0.007888462  0.006384785 -82.63  0.000359722    1.354    0.262
        55 -11.8779    167.6797    148.2288   2.9069944832e+02   5.0949281531e+00   0.01701542   0.01048875  54.22  0.001622463    1.918    0.479
        56 -10.5433    143.7200    145.5709   2.9096243777e+02   5.2646754951e+00   0.01162205  0.008278698  84.32  0.001182491    1.763    0.433
        57 -11.2680    133.6056    145.8371   2.9108180342e+02   5.3201690506e+00   0.03448026   0.01001322 -69.60  0.001896602    5.620    0.822
        58 -10.4475    192.5116     15.2192   2.8961178900e+02   6.4942070612e+00  0.008045303  0.006527978 -68.15 0.0002903013    1.256    0.204
        59 -10.5643    169.7068    228.0806   2.9115350325e+02   4.1554886362e+00   0.01559705  0.007991903  42.26  0.001151149    2.017    0.504
        60 -13.4801     68.3217    144.9137   2.9183686484e+02   5.7084268549e+00    0.1535612   0.06406875  53.97  0.008417397    3.985    0.749
        61 -15.6586     18.4855    196.4887   2.9272512163e+02   5.3961305287e+00    0.1230272    0.1054425  53.55   0.01455254    1.230    0.187
        62 -15.6180     34.6152    192.0575   2.9251084803e+02   5.3547612125e+00    0.1191821   0.07708792 -20.73  0.003659131    2.000    0.500
        63 -13.5444     58.9292    172.5871   2.9211152540e+02   5.4409510680e+00   0.02928467   0.02149281 -27.82  0.001014585    1.534    0.348
        64 -14.1940     70.4867    160.8152   2.9190660526e+02   5.5110918429e+00   0.04101257   0.02955163  43.16  0.001657419    1.425    0.298
        65 -11.2204    191.0993    191.9655   2.9068886046e+02   4.4510899040e+00   0.02808162     0.013794  88.41  0.001720387    5.173    0.807
