#   1 NUMBER                 Running object number                                     
#   2 MAG_AUTO               Kron-like elliptical aperture magnitude                    [mag]
#   3 X_IMAGE                Object position along x                                    [pixel]
#   4 Y_IMAGE                Object position along y                                    [pixel]
#   5 X_WORLD                Barycenter position along world x axis                     [deg]
#   6 Y_WORLD                Barycenter position along world y axis                     [deg]
#   7 A_WORLD                Profile RMS along major axis (world units)                 [deg]
#   8 B_WORLD                Profile RMS along minor axis (world units)                 [deg]
#   9 THETA_WORLD            Position angle (CCW/world-x)                               [deg]
#  10 FWHM_WORLD             FWHM assuming a gaussian core                              [deg]
#  11 ELONGATION             A_IMAGE/B_IMAGE                                           
#  12 ELLIPTICITY            1 - B_IMAGE/A_IMAGE                                       
         1 -10.3423     10.2471     18.8379   1.1278344481e+02   7.5387772563e+01     1.470438    0.5442271 -22.99  0.003883435    7.479    0.866
         2 -10.9555     23.6731     32.7818   1.0906354026e+02   7.1201014945e+01      1.40629    0.5809075 -38.46   0.00325548    2.552    0.608
         3  -8.5626     72.0537      8.4473   7.0625485802e+01   6.5804288616e+01    0.2152481    0.1766439  12.09 0.0004780548    1.324    0.245
         4  -9.9746     69.7447     40.5948   8.7590854513e+01   6.1927992227e+01    0.9270741     0.421759 -34.96  0.002371505    2.430    0.589
         5  -9.9619     73.5536     17.9414   7.5147471618e+01   6.4397814323e+01     1.034328    0.2517446 -28.03  0.003152272    4.662    0.785
         6  -9.8187     79.5831     24.0171   7.6132435471e+01   6.2196701454e+01    0.7099749    0.3020107  37.01  0.002115327    3.038    0.671
         7  -9.7715     63.9168      3.0131   7.0245144983e+01   6.8264558199e+01    0.5331027    0.2966274 -30.91  0.002647373    1.984    0.496
         8  -9.8504     60.8844     31.5351   8.7140673983e+01   6.5305118467e+01    0.9201925    0.4856957 -23.89  0.003098996    2.516    0.603
         9 -10.1651     50.4221     15.6817   8.3483189193e+01   6.9813657120e+01     1.533021    0.7467486  23.50  0.005461093    3.647    0.726
        10  -9.6057     63.1689     21.4151   8.0924293561e+01   6.6329105133e+01    0.4726774      0.29167 -46.93  0.001709149    1.980    0.495
        11  -9.7491     64.6296     13.3846   7.5947395201e+01   6.7018554807e+01    0.3631801    0.3203114  15.63 0.0002345687    1.147    0.128
        12  -8.7676    128.8427     24.4221   6.4413323760e+01   4.9502777432e+01    0.5884612    0.3071862 -14.48  0.001936771    2.652    0.623
        13  -9.7846    131.2922     16.9342   6.1324203833e+01   4.9668818734e+01    0.5089903    0.2466295  82.43  0.001682518    2.188    0.543
        14  -9.1218    125.0762     13.0471   6.0864524659e+01   5.1701818272e+01    0.2917283    0.2256622  61.30 0.0006815303    1.198    0.165
        15  -9.2599    120.2166     16.1554   6.2835704988e+01   5.2679353844e+01    0.4899115    0.2525866  23.08  0.001781779    3.527    0.716
        16  -9.0121    115.2566      4.5561   5.9125621633e+01   5.5067882868e+01     0.301391    0.1910139 -54.71 0.0005638768    1.700    0.412
        17  -8.8542    112.3948     15.5477   6.4017097298e+01   5.4808518320e+01    0.3326921    0.2168811 -47.69 0.0007394133    1.656    0.396
        18  -9.2531    114.2058     10.0351   6.1478798806e+01   5.4865296347e+01     0.380052    0.1953917  47.21 0.0003000049    1.966    0.491
        19  -9.1776    103.1281     20.9544   6.8196699496e+01   5.6654021623e+01      0.38565    0.2311257 -38.63 0.0009022832    1.791    0.442
        20  -9.1830    125.7446      5.2017   5.7855292764e+01   5.2238238477e+01    0.3319768    0.2402817   1.68  0.001188161    1.797    0.443
        21  -8.6008     95.7828     16.4819   6.7988408677e+01   5.9045355745e+01    0.3206323    0.1890931 -34.65  0.001037251    1.834    0.455
        22  -8.3458     96.9853     12.0147   6.5704427390e+01   5.9193238868e+01    0.3396633    0.1621285  40.30  0.001388738    2.338    0.572
        23 -10.7003     36.9871      9.5873   8.7002878408e+01   7.3244907403e+01    0.8512788    0.4338669 -36.78  0.002134117    2.101    0.524
        24  -9.9911     27.0851     10.9236   9.4502073444e+01   7.4729720480e+01     1.091169    0.5258327  36.10  0.005277202    1.943    0.485
        25  -9.6144      2.3436     14.3822   1.1773907768e+02   7.6889733809e+01    0.6556305    0.2634612 -70.04  0.002638983    3.640    0.725
        26  -8.6995     19.5293      8.8969   9.8969884771e+01   7.6154181188e+01    0.2553271    0.1608968  25.98 0.0003921598    1.482    0.325
        27  -9.7802     18.1722      3.9492   9.6564661192e+01   7.7123647496e+01    0.5036176    0.3412837  44.93  0.002404086    1.773    0.436
        28  -9.9344      6.4304      5.3241   1.0854678604e+02   7.8288802399e+01    0.4105939    0.2402996   0.08 0.0005405428    1.812    0.448
        29  -9.7591      3.4955      2.7735   1.0989706441e+02   7.9014087352e+01    0.3770256    0.2295485  -5.12  0.001816656    1.653    0.395
        30  -9.4726     85.3018     13.0918   6.9102927963e+01   6.2067502474e+01    0.4391113    0.2570554 -57.81  0.001538079    2.324    0.570
        31  -8.0201     80.6205     12.8424   7.0301377565e+01   6.3260360603e+01    0.2886616    0.1757478 -38.29 0.0008439739    1.830    0.453
        32  -8.6837    141.5107     12.0719   5.8220910392e+01   4.7462681458e+01    0.2403907    0.1953806 -45.21  0.001162849    1.265    0.210
        33  -8.9445    137.8001      9.2067   5.7711844682e+01   4.8705006198e+01     0.335066    0.1741574 -58.88    0.0010762    2.073    0.518
        34 -10.0339    132.2692      9.0809   5.8383407639e+01   5.0172629853e+01    0.6828012    0.1997222 -43.83  0.002387695    3.418    0.707
        35  -8.5684    133.6341      4.2420   5.6498445533e+01   5.0237933379e+01    0.2902609    0.2206175 -35.88 0.0007695269    1.412    0.292
        36  -8.3301    136.4782      1.4857   5.5209536285e+01   4.9719256992e+01    0.2317883    0.1175688  75.51  3.26185e-05    1.707    0.414
        37  -8.4734    101.8994      7.9034   6.2851100403e+01   5.8298716539e+01     0.316388    0.1750475 -33.64 0.0008955006    1.948    0.487
        38 -10.1302     46.2862     29.7265   9.3484443982e+01   6.8429778132e+01    0.4769293    0.3109115 -57.76  0.001131607    2.150    0.535
        39  -8.8539    110.2376      7.9304   6.1313722663e+01   5.6104284623e+01    0.2222984    0.1708937 -20.04 0.0006016887    1.504    0.335
        40  -8.6539    110.0121      3.6348   5.9585436565e+01   5.6529526328e+01    0.3745462    0.2343111 -60.18  0.001841868    1.779    0.438
        41  -7.8966     95.7237      2.6886   6.1745830880e+01   6.0351840932e+01    0.2090511    0.1750201 -13.20 0.0005582821    1.389    0.280
        42  -7.9434     85.5405      6.1399   6.5640883339e+01   6.2677867001e+01    0.3999951    0.1277695  44.54  0.001382519    3.202    0.688
        43  -8.4440     88.8372      2.6544   6.3171562898e+01   6.2133158437e+01    0.4227442    0.1822425 -23.75  0.001776835    2.555    0.609
        44  -8.3579     77.4525      6.5117   6.7968990690e+01   6.4671282704e+01    0.2459105    0.1911701  36.19 0.0005447005    1.260    0.206
        45  -8.6576     78.7105      2.9436   6.5758502912e+01   6.4674556093e+01    0.2606077     0.217146 -41.18 0.0009412289    1.372    0.271
        46  -7.9939     97.6885      5.6960   6.2715740093e+01   5.9591189878e+01    0.2460561    0.1976248  -6.64 0.0009482329    1.470    0.320
        47  -8.1466    104.5153      2.0095   5.9822944141e+01   5.8107213438e+01    0.2664562    0.1591347  56.36 0.0009438218    1.474    0.321
        48  -8.5100    143.0191      5.0288   5.5688192419e+01   4.7712713579e+01    0.3445236     0.134243 -39.44  0.001195545    2.428    0.588
        49  -7.4957    151.3510      1.6935   5.3765482208e+01   4.5842416550e+01    0.1467081   0.08362746 -64.50 0.0007042456    1.709    0.415
        50 -10.4169    128.4594    100.7602   8.9314152819e+01   3.6868038840e+01    0.9683951    0.5347617 -26.54  0.002592993    2.711    0.631
        51 -11.3640    201.4145    248.7580   1.0195762880e+02  -1.0631283772e+00    0.8240222    0.2779355  38.66  0.003848464    3.308    0.698
        52 -10.0698    170.4332    249.0614   1.0771884845e+02   2.5456350688e+00    0.4374534    0.1306293  39.34  0.001836937    3.363    0.703
        53  -7.4492    177.0203    126.4999   8.4740406156e+01   2.1448972667e+01    0.1814132    0.1187197  18.53 0.0003662033    2.105    0.525
        54  -9.5930     41.6132    122.3301   1.2337938966e+02   4.7199312443e+01    0.5802771    0.2914789  87.84  0.002141392    2.774    0.640
        55  -9.7761     27.4159    123.0540   1.2878843804e+02   4.8474003974e+01    0.6395567    0.2989542  62.97  0.002169726    2.651    0.623
        56  -9.5406    157.4612    121.2209   8.7579947499e+01   2.6419429193e+01    0.5188161     0.333033 -81.88  0.001824413    3.533    0.717
        57  -8.7052    141.2402    112.5896   8.9207728200e+01   3.1601751037e+01    0.2989525    0.2437394 -53.08  0.001487864    1.283    0.220
        58 -10.1164    119.7023    106.2776   9.3195977851e+01   3.7638728963e+01     1.290305    0.5696356 -30.79  0.003658309    4.215    0.763
        59  -8.3009      1.3906    116.2484   1.3790568417e+02   5.2119036091e+01    0.3016781     0.117208 -83.96 0.0007769688    2.381    0.580
        60 -10.0983     91.9385    113.0379   1.0344312411e+02   4.1798849491e+01      0.59962    0.4743277  79.38  0.001600823    1.541    0.351
        61  -9.0114     92.9003    103.5364   1.0069257492e+02   4.3874361635e+01    0.6969568    0.3887428  22.75  0.002471347    2.636    0.621
        62 -10.0379    140.6902    118.4270   9.0809455391e+01   3.0527220433e+01    0.4716528    0.3426639 -74.87  0.001111332    1.945    0.486
        63 -10.1949     78.2350    113.0471   1.0811794644e+02   4.4299075536e+01    0.5669643    0.3777588  87.82   0.00162884    2.212    0.548
        64  -9.9181     66.1968    103.1956   1.1020574713e+02   4.8792086271e+01    0.9045424    0.5796525  17.85  0.003848587    1.894    0.472
        65 -10.4259     62.9144     95.6667   1.0962739467e+02   5.1209677813e+01    0.6401004    0.4054457  87.26  0.001525708    2.534    0.605
        66  -9.3447     63.8952     86.9934   1.0690594743e+02   5.3188132988e+01    0.8551775    0.5003718 -38.32  0.003058265    1.953    0.488
        67  -9.5095     59.4722    109.5099   1.1422332503e+02   4.8219595619e+01    0.5122318    0.2849688 -69.87 0.0008686027    2.004    0.501
        68 -10.0429     14.5121    111.6103   1.3240117002e+02   5.2542939058e+01    0.6693566    0.2855833  57.34   0.00196871    2.737    0.635
        69  -8.6114    158.9524    111.8607   8.4958659825e+01   2.7894716175e+01    0.2518605    0.2085999 -48.69 0.0005518254    1.223    0.183
        70  -9.7043     33.2297    109.8920   1.2466072785e+02   5.1394459969e+01     0.579124    0.3912591  52.72  0.002832003    1.548    0.354
        71 -10.9099     44.8688    102.4559   1.1855488628e+02   5.2036634924e+01    0.9697822    0.4761716  65.03  0.003039601    3.569    0.720
        72  -9.4929    139.4463    104.7028   8.7592038140e+01   3.3593333888e+01    0.4614651    0.2956003 -63.30 0.0007455754    2.072    0.517
        73  -8.9752    140.5800     99.8058   8.6000870876e+01   3.4313609819e+01    0.4069456    0.2342427  27.94  0.001492759    2.619    0.618
        74  -8.9555     40.2272    106.7672   1.2129001844e+02   5.1461667301e+01    0.3108223    0.2058902  72.04 0.0009740912    1.803    0.445
        75  -9.4885     41.1882     52.3891   1.0638891265e+02   6.4766055374e+01    0.6059273    0.4808437  83.49  0.003121483    1.778    0.438
        76  -9.6655    221.6465    249.2827   9.8562361170e+01  -3.3272507509e+00     0.268632    0.1166798  22.93  0.001592583    1.921    0.480
        77 -10.6316     31.7019     64.5463   1.1557440118e+02   6.3163713804e+01     1.451939     0.670654 -26.58   0.00496651    3.576    0.720
        78 -10.8355     21.0496    101.4123   1.2840921399e+02   5.4744199399e+01     1.308269    0.5593996  72.44  0.003807686    3.823    0.738
        79 -10.9861     24.8706     78.6460   1.2262738470e+02   6.0343674577e+01     1.367193    0.7827193 -52.94  0.003781114    1.598    0.374
        80  -9.6912     15.9987     70.6372   1.2550928760e+02   6.3089361403e+01    0.4406448    0.2367998 -63.34  0.001312301    1.665    0.399
        81  -9.8362     16.8919     61.1056   1.2288293986e+02   6.5390402010e+01    0.7358576    0.3257889 -59.71  0.003240783    1.965    0.491
        82 -10.7882     21.9774     53.6832   1.1787479030e+02   6.6744236930e+01    0.9550295    0.5233488  75.54  0.002875941    3.932    0.746
        83  -9.4711    242.9163    247.1397   9.4850722638e+01  -5.2520689682e+00    0.2064034    0.1420493   2.93 0.0004692528    1.044    0.042
        84 -10.0732     34.5495     90.7036   1.2058897391e+02   5.6289203974e+01    0.6376914    0.3237884 -89.00  0.001821084    2.995    0.666
        85 -10.1348     37.1704     80.8638   1.1715239123e+02   5.8513448701e+01    0.8421392    0.4328522 -13.97  0.002636137    3.650    0.726
        86 -10.2449     12.3818     45.5681   1.2148991978e+02   6.9429862891e+01    0.9580383    0.4256826  -8.17  0.003342892    3.093    0.677
        87 -10.1935      4.9683     42.0855   1.2552923073e+02   7.0697204338e+01    0.7339162    0.3470768 -63.78  0.003299965    1.877    0.467
        88  -9.4349      6.8456     32.7802   1.2135342593e+02   7.2704539228e+01    0.3001255    0.2168345 -11.61 0.0007950763    1.341    0.254
        89 -10.1231      7.2906     28.3326   1.1940301249e+02   7.3648264990e+01    0.4277019    0.3127562  45.68  0.001114042    1.716    0.417
        90  -9.6701      6.3507    103.7161   1.3487202753e+02   5.5126174931e+01    0.5054373    0.2943464  50.76  0.001476044    1.782    0.439
        91  -9.3361    164.8436    103.6446   8.1650723175e+01   2.8139341818e+01    0.3458081    0.2804146  70.16 0.0009627595    1.395    0.283
        92  -9.8413    149.5676    103.3725   8.4856513642e+01   3.1585497846e+01    0.4228252    0.2820338 -57.90  0.001084846    1.748    0.428
        93  -8.0130     78.3181    105.2663   1.0620686739e+02   4.6211996472e+01     0.379158    0.2329705  10.51  0.001389687    2.645    0.622
        94  -9.6408     81.4317    100.0387   1.0373582428e+02   4.6917758711e+01    0.4710779    0.3345747 -79.85  0.001153856    1.857    0.461
        95  -8.0236     82.0137     94.4608   1.0200287054e+02   4.8142096759e+01    0.3465602    0.2329722 -16.41  0.001076028    2.331    0.571
        96  -8.4842     14.5161    105.0454   1.3163864488e+02   5.4272534676e+01    0.2524011    0.1810314 -22.47 0.0007592164    1.611    0.379
        97  -8.1161     73.8603    102.8971   1.0724137816e+02   4.7582368047e+01    0.2691337    0.2103463 -68.79 0.0007442801    1.378    0.274
        98 -10.0243    244.5202     98.0322   6.8184465814e+01   1.3471619996e+01    0.3787618    0.1572231 -49.38   0.00170609    2.660    0.624
        99  -9.7071    220.2123     97.3105   7.0997275308e+01   1.7840881136e+01    0.2223786    0.1996995 -25.76 0.0003227091    1.087    0.080
       100  -9.4270     94.3532     97.2911   9.8499735733e+01   4.5036698491e+01     0.365916    0.2761784 -65.80 0.0006538504    1.508    0.337
       101  -8.7530     95.7433     91.4064   9.6344951534e+01   4.6087593513e+01    0.5010564    0.3182817   7.32  0.001702847    3.206    0.688
       102  -8.5548    159.0807    101.3646   8.2253091612e+01   2.9834692785e+01     0.273467     0.216787 -70.75 0.0005190621    1.502    0.334
       103  -8.3049    151.3273     95.9209   8.2474343775e+01   3.2604371348e+01    0.5542588    0.3010404  24.91  0.001737156    3.946    0.747
       104  -8.6032    238.9771     96.5615   6.8510997309e+01   1.4603517292e+01    0.1585953    0.1212939  55.47 0.0003445956    1.569    0.363
       105  -6.8186    171.2645     95.6799   7.8352305441e+01   2.8140594438e+01    0.1445211    0.1091223 -66.41 0.0002788749    1.554    0.357
       106  -8.8590    164.5146     94.5445   7.9358335517e+01   2.9851929951e+01    0.2892982    0.2467175 -79.47  0.001442074    1.316    0.240
       107  -8.2568    224.9924     93.5144   6.9540809358e+01   1.7509091938e+01    0.1960157    0.1477087 -33.46 0.0005234654    1.159    0.137
       108  -9.7941    138.8116     92.1209   8.4296602815e+01   3.6224701250e+01    0.6000061    0.3091684 -45.33  0.001643984    1.973    0.493
       109  -9.4523    140.5635     82.3327   8.1066015733e+01   3.7661649639e+01    0.6923896    0.3958825 -45.47  0.001750741    1.775    0.437
       110  -9.1782    140.0180     74.9800   7.9000362604e+01   3.9125110319e+01    0.5632573    0.2547867 -34.95   0.00127479    2.359    0.576
       111 -10.3080      4.3080     89.4927   1.3423542421e+02   5.8938594082e+01    0.7743411    0.3873301  74.07  0.001950092    2.307    0.567
       112  -9.4609      6.2348     78.5701   1.3191628955e+02   6.1661469552e+01    0.7266698     0.229755 -37.77  0.002513459    3.629    0.724
       113  -9.5783    150.2737     90.0641   8.1099816900e+01   3.3937176353e+01    0.4203625     0.267096 -27.12  0.001564625    1.854    0.461
       114  -8.0783    107.3515     91.3365   9.2618561011e+01   4.3594791626e+01    0.2588255    0.1988041  28.17  0.001187013    1.454    0.312
       115  -9.2747    112.3490     89.2766   9.0508199049e+01   4.2915155898e+01    0.5512055    0.3199445  32.97  0.002141879    2.074    0.518
       116 -10.2731     47.8898     84.5169   1.1312108635e+02   5.6236657017e+01    0.6572571    0.4412839 -80.95  0.001906567    1.857    0.462
       117  -9.2781     48.4673     77.6723   1.1099824040e+02   5.7847837595e+01    0.7752747    0.5002985  -6.70  0.003282814    2.221    0.550
       118  -7.6905    174.7835     88.9525   7.5965291427e+01   2.8507754133e+01     0.193938    0.1128584 -36.25 0.0005138281    1.665    0.399
       119 -10.1860     85.3571     86.6252   9.8513047952e+01   4.9309160253e+01    0.5479798    0.3923807  78.63   0.00079394    2.020    0.505
       120  -9.3764     87.0316     79.0745   9.5554654097e+01   5.0652949787e+01    0.7140664    0.4106023  21.68  0.002076745    2.817    0.645
       121  -8.8049    163.6475     87.2262   7.7575893081e+01   3.1337318112e+01    0.2270644    0.1732394 -53.52 0.0006125726    1.335    0.251
       122 -10.4194    103.9630     82.6286   9.1018112823e+01   4.6206940783e+01    0.5752117      0.36159 -56.43 0.0007771936    1.824    0.452
       123  -9.7302    105.0236     71.4242   8.7050223269e+01   4.8241596528e+01    0.7963938    0.5921998 -20.46  0.003630776    1.683    0.406
       124  -9.1124    157.8316     82.7246   7.7481930275e+01   3.3477837987e+01    0.4530395     0.235505 -35.38   0.00135388    1.958    0.489
       125  -8.8664    157.0021     76.2080   7.5808334186e+01   3.4793742432e+01    0.4062704    0.2024088 -39.88  0.001293455    1.954    0.488
       126  -7.8647    170.4070     83.2818   7.5253590635e+01   3.0452639764e+01    0.2125029    0.1252674 -47.78 0.0009420217    1.690    0.408
       127  -8.9391    246.6200     80.8704   6.4403945099e+01   1.5407204176e+01    0.2376875    0.1572382  39.60  0.001399333    2.031    0.508
       128  -9.2466    149.9684     80.2659   7.8395390993e+01   3.5779227647e+01     0.429983    0.2134426 -36.61  0.001425968    2.049    0.512
       129  -8.8352    119.0114     80.4017   8.5903873102e+01   4.3180436772e+01    0.3415068     0.253545 -67.75 0.0006824982    1.638    0.390
       130  -8.1423    119.8452     76.1197   8.4330196792e+01   4.3813790981e+01    0.2771008    0.2231327 -12.45 0.0006380022    1.553    0.356
       131  -9.1589     74.1755     79.3491   1.0047418273e+02   5.3159178215e+01    0.6621199    0.2875998 -52.23  0.001733228    2.401    0.584
       132  -9.9863     65.6881    110.9151   1.1218075679e+02   4.6913988055e+01    0.6137437    0.4601969  65.59  0.001342163    1.521    0.343
       133  -8.8081    165.4338     77.7038   7.4639093572e+01   3.2538777053e+01    0.3754426    0.2299834 -59.38 0.0009373821    1.934    0.483
       134  -8.0861    184.0680     78.0454   7.1579360013e+01   2.8197590346e+01    0.2073607    0.1983354 -51.97 0.0005852973    1.045    0.043
       135  -7.4886    174.4254     78.5376   7.3282137191e+01   3.0308897820e+01     0.140627    0.1342836 -52.62 9.856988e-05    1.034    0.033
       136  -7.8973    237.5135     86.9836   6.6648538718e+01   1.6169855501e+01    0.1694046    0.1007693 -11.26 0.0006268928    2.516    0.603
       137  -8.7621    130.0728     58.2671   7.5956712576e+01   4.4459681710e+01     0.405488    0.2219016 -52.54 0.0005903529    2.101    0.524
       138  -8.0162    130.7458     54.0288   7.4390700593e+01   4.4968792280e+01    0.2453804    0.1774022  30.32 0.0008693691    1.736    0.424
       139  -9.4080    127.2675     75.1628   8.2091674555e+01   4.2201770356e+01    0.3981027    0.2753692 -57.35 0.0007341929    1.627    0.385
       140  -9.0002    128.8525     69.3945   7.9872870815e+01   4.2863043966e+01    0.5483465    0.2842699  34.81  0.001865575    2.796    0.642
       141  -8.4962    130.5748     64.3433   7.7835100216e+01   4.3316996129e+01    0.4626523    0.2343658 -37.32   0.00155279    2.032    0.508
       142  -9.8680     81.5241     72.3532   9.5349168798e+01   5.3254520976e+01      0.45315    0.3496194 -79.64  0.001024602    1.720    0.419
       143  -8.9728     83.7625     64.5920   9.1791609703e+01   5.4401330486e+01    0.5878273    0.3895438   2.80  0.002237399    2.710    0.631
       144  -9.0042    115.3288     72.0353   8.4249664306e+01   4.5677575798e+01    0.5466717    0.2769588 -34.50  0.001441638    2.226    0.551
       145 -10.0288     62.8138     60.8073   9.8895867808e+01   5.9390177735e+01    0.8320565    0.2896087  36.65  0.001311957    2.933    0.659
       146 -10.4826     54.9894     70.8950   1.0593634275e+02   5.8480435338e+01    0.7235195    0.3799108  52.45  0.001168242    2.494    0.599
       147  -9.2021     55.2847     63.2840   1.0323786775e+02   6.0168307022e+01    0.4532255     0.308983  -4.35  0.001571416    2.070    0.517
       148  -8.1244    157.5162     91.5081   7.9960500136e+01   3.1993329454e+01    0.2518797    0.1887002 -70.65  3.96923e-06    1.625    0.385
       149  -8.4361    169.4414     71.6423   7.2258542911e+01   3.2577493991e+01    0.3344127    0.1391593 -33.91    0.0012507    2.408    0.585
       150  -8.2400    162.6515     72.8904   7.3803585232e+01   3.3991482895e+01    0.2810251    0.1953061 -63.71 0.0008170154    1.631    0.387
       151  -7.5282    175.4842     72.4713   7.1478062590e+01   3.1030220887e+01    0.1448305    0.1295593 -65.75 6.730714e-06    1.077    0.071
       152  -8.6098    156.8218     69.4817   7.3907145681e+01   3.5955074504e+01    0.3838786     0.208201 -33.26  0.001233288    1.912    0.477
       153  -9.1975    146.9581     69.1374   7.5744325015e+01   3.8430001636e+01    0.3512985     0.245372 -62.22 0.0008645848    1.624    0.384
       154  -9.8510     94.9255     68.0978   8.9130027189e+01   5.1226404702e+01    0.5456827    0.2837838 -47.24 0.0009433147    2.043    0.510
       155  -9.0954     97.7021     57.9017   8.4553892536e+01   5.2525239401e+01    0.7409405    0.4742162   3.07   0.00266034    3.132    0.681
       156  -9.3189    138.2630     65.0911   7.6338013836e+01   4.1268213415e+01    0.6054474    0.3026356 -30.05  0.001604187    2.311    0.567
       157  -9.2244    121.1391     65.9527   8.0682251571e+01   4.5381535650e+01     0.399657    0.2820018 -55.73 0.0005942585    1.567    0.362
       158  -8.5205    121.7155     61.0973   7.8905971598e+01   4.6088498001e+01    0.2715633    0.2439992  59.99 0.0008311831    1.062    0.058
       159  -8.1074     75.5947     66.2281   9.5501816716e+01   5.5770154801e+01    0.1992844    0.1446894 -36.13 0.0008664679    1.468    0.319
       160  -7.6813    170.8557     64.8371   7.0137441545e+01   3.3301399815e+01    0.1992657    0.1579674 -69.63 0.0004558977    1.300    0.231
       161  -9.3132    109.7155     63.7850   8.3049041975e+01   4.8570699229e+01    0.4142359    0.2905558 -57.12  0.000606249    1.632    0.387
       162  -8.8710    110.9120     57.8772   8.0632895586e+01   4.9329635186e+01    0.4132018    0.3058884  37.08  0.001186249    1.455    0.313
       163  -8.3033    147.4325     63.7657   7.4018883679e+01   3.9197654565e+01    0.3166458    0.2270446  42.07  0.001078965    1.541    0.351
       164  -7.9249    157.5491     62.9564   7.1865138866e+01   3.6819475598e+01    0.2170181    0.1381574 -39.67 0.0005299299    1.541    0.351
       165  -9.4799     49.3375     61.1639   1.0535797341e+02   6.1599898452e+01    0.3790258    0.1685524 -51.54  0.001496263    2.220    0.549
       166  -7.6021    152.8012     60.7624   7.2077967682e+01   3.8337641441e+01    0.2009749    0.1617593 -70.80 0.0004479948    1.296    0.228
       167  -9.2587     88.2495     56.3909   8.7124878279e+01   5.5000066019e+01    0.8212773     0.471814 -22.47  0.002446894    2.589    0.614
       168 -10.2709     89.5204     38.4984   7.9449960742e+01   5.7745864203e+01     1.011729    0.3605394  41.24   0.00318293    3.421    0.708
       169 -10.2800     85.1733     48.1082   8.4927866973e+01   5.7197009749e+01    0.4664535    0.3701473 -82.92  0.001131987    1.657    0.397
       170  -9.8145     73.1226     59.3635   9.3965260541e+01   5.7692264744e+01    0.5141465    0.3018224 -55.73 0.0009015053    2.043    0.511
       171  -9.3361     75.2643     50.7587   8.9713194214e+01   5.8921639776e+01     0.706652    0.3958656  20.35  0.002415118    3.350    0.702
       172  -8.3612      9.6490     60.0025   1.2682139575e+02   6.6149511717e+01    0.2397966    0.2127547 -72.91   0.00142313    1.132    0.116
       173  -8.3680    164.5995     60.2762   6.9869196648e+01   3.5502842643e+01    0.1882926    0.1394452 -24.71 0.0006016066    1.514    0.339
       174  -9.3647    146.8539     56.8491   7.1997433271e+01   4.0435597543e+01     0.816139    0.3461408 -20.31  0.002358717    4.702    0.787
       175  -8.2990    149.8307     48.2606   6.8769795238e+01   4.0956117295e+01    0.2557801    0.2121675 -29.09 0.0005955154    1.314    0.239
       176  -9.3282    138.7832     55.6769   7.3223780380e+01   4.2662475747e+01    0.6102831    0.2166863 -38.90  0.001583329    2.740    0.635
       177  -8.8294    141.9595     47.9156   7.0083380222e+01   4.3018731788e+01    0.5130048    0.2118486 -32.99   0.00124646    2.490    0.598
       178  -7.8434    168.9628     55.9866   6.7945316139e+01   3.5074672031e+01    0.1738677    0.1599128 -81.50 0.0003572832    1.024    0.024
       179  -7.2608    157.4971     55.9720   6.9803578452e+01   3.7899102417e+01    0.2080585    0.1059016 -55.57 0.0006471688    2.312    0.568
       180  -8.1356    122.8716     40.9592   7.1569488649e+01   4.8953804060e+01    0.4866263    0.2525386  28.44  0.001585451    3.796    0.737
       181  -9.1140    118.1823     55.4006   7.7832155114e+01   4.7935625395e+01    0.3716934    0.2646556 -63.12 0.0007193533    1.661    0.398
       182  -9.0341    120.9669     47.6848   7.4418141319e+01   4.8455765166e+01    0.5455747    0.3512864 -15.88 0.0007384152    2.106    0.525
       183 -10.0295     50.0433     54.4833   1.0255392874e+02   6.2957438282e+01    0.6231937    0.4229187 -82.99  0.002014446    2.598    0.615
       184  -9.7756     56.5356     43.1771   9.4660297631e+01   6.4113885833e+01    0.8871019    0.5001615   9.77   0.00290063    4.084    0.755
       185  -9.5050    162.9584     53.2738   6.8102570332e+01   3.6939431673e+01    0.4787686    0.2315073 -31.87  0.001990356    2.121    0.528
       186  -9.2337     80.0533     46.2312   8.6001865181e+01   5.8688550954e+01    0.3022163    0.2539973 -41.25 0.0003094044    1.266    0.210
       187  -9.1609    217.5121     49.0296   6.0232183996e+01   2.5035764029e+01    0.3183596    0.2079822 -35.28  0.001534235    1.380    0.275
       188  -6.9656    172.3132     50.6514   6.5935803498e+01   3.5018015824e+01    0.1531799   0.09676305 -63.83 0.0007046525    1.720    0.419
       189  -8.4991    157.3573     49.3148   6.7827055852e+01   3.8902154310e+01    0.2890844    0.1783074 -66.94 0.0006846258    1.915    0.478
       190  -7.8651    152.6335     53.7752   6.9985663851e+01   3.9443530766e+01    0.1974674    0.1280579 -45.22 0.0002849645    1.522    0.343
       191  -8.7422    130.1293     48.0445   7.2494731777e+01   4.6045207168e+01    0.2749789    0.2153024 -57.71 0.0005099249    1.338    0.253
       192  -8.8371    130.4827     44.0158   7.1034533090e+01   4.6543814720e+01    0.7321545    0.4235722  12.77  0.002406285    4.075    0.755
       193  -8.5755    111.7677     46.9381   7.6412644482e+01   5.0917129708e+01    0.2689196    0.2090189  70.53 0.0004685909    1.289    0.224
       194  -9.0633    105.4492     51.8812   7.9977001383e+01   5.1700378548e+01    0.5481119    0.3021583 -33.55  0.001761613    1.979    0.495
       195  -8.3268    238.4557    126.6761   7.4778545266e+01   1.0475281106e+01    0.1833789    0.1323932  16.57  0.000356899    1.664    0.399
       196  -7.2132    101.2050    239.9204   1.2105716985e+02   1.2802084326e+01    0.1321046    0.1020021 -65.59 0.0006876786    1.683    0.406
       197 -10.0376     76.2215     32.0561   8.1134626321e+01   6.1862837755e+01    0.5629226    0.3844539  80.65  0.001071114    2.157    0.536
       198  -8.2133     71.1929     32.1433   8.3088772749e+01   6.2990294041e+01    0.3227146    0.2293603 -69.25  0.001073941    2.141    0.533
       199  -8.8861     71.4486     25.6864   7.9838499348e+01   6.3880003442e+01     0.479968    0.1967133  46.23  0.001884438    2.222    0.550
       200 -10.1168    187.6975    234.2620   1.0242585699e+02   2.3736395727e+00    0.2803572    0.2082166   7.51   0.00116409    1.062    0.058
       201 -10.1123    136.3658    233.0542   1.1259355850e+02   9.2670580205e+00    0.2186274    0.1781379  16.40 0.0002935241    1.077    0.071
       202  -8.9226     84.7292     21.9372   7.3507220211e+01   6.1207405617e+01    0.2565576    0.2154605 -23.77 0.0006075727    1.315    0.240
       203  -9.9513     37.9444     42.2341   1.0414520861e+02   6.7396204425e+01    0.4416514    0.3318058  83.12  0.001362319    2.202    0.546
       204 -10.4296     35.9045     37.9720   1.0348816378e+02   6.8559177707e+01    0.5129948     0.320022  -1.02 0.0003584234    2.198    0.545
       205  -9.7228    152.8491     41.1182   6.6034692369e+01   4.1172239372e+01    0.3893825    0.3758019 -31.57  0.001431032    1.169    0.145
       206  -8.4951    113.9628     40.9901   7.3632012330e+01   5.1251728971e+01    0.4495834    0.2890723  10.55  0.001799857    2.629    0.620
       207  -8.9102    104.9996     41.0309   7.5938296382e+01   5.3531340265e+01    0.3756874    0.2460748 -55.96 0.0009497611    1.816    0.449
       208  -8.4903    106.0503     36.3107   7.3793802280e+01   5.3948314934e+01    0.2714079    0.2347656  30.04 0.0007431153    1.258    0.205
       209  -8.9902    139.5159     39.7402   6.7841430910e+01   4.4793316052e+01    0.4441728      0.22117 -41.43  0.001452448    2.003    0.501
       210  -8.1998     53.5354     39.4596   9.4450331281e+01   6.5367617499e+01    0.2545511    0.1985906 -38.75 0.0008906098    1.323    0.244
       211  -8.7511     54.4998     35.4861   9.2095296320e+01   6.5905950089e+01    0.2601255    0.2104064  14.20 7.560226e-05    1.274    0.215
       212  -7.6336    160.3192     38.8170   6.4201192043e+01   3.9577048662e+01    0.1907594    0.1327003 -18.94 0.0009340592    1.738    0.425
       213  -8.8490    143.9633     36.4273   6.5976044943e+01   4.4075951957e+01    0.2816215    0.2151536 -51.07 0.0006018595    1.308    0.235
       214  -8.8176    136.0238     26.7498   6.4027484512e+01   4.7342176724e+01    0.2365945    0.2119726 -34.39 0.0007045554    1.226    0.184
       215  -8.7439    132.9825     35.9774   6.7758432909e+01   4.6995946034e+01    0.2925865    0.2112141 -33.67 0.0004829264    1.470    0.320
       216 -10.6946    133.9984     30.9983   6.5844134261e+01   4.7363327667e+01    0.2631053    0.2464712 -89.59            0    1.045    0.043
       217  -8.7990    118.9063     34.8836   7.0200498810e+01   5.0820540352e+01    0.3070949    0.1949635 -40.03 0.0006480911    1.646    0.393
       218  -8.4492    153.5097     34.8002   6.3958520285e+01   4.1820365219e+01    0.2313573    0.1769724 -76.69 0.0004400804    1.293    0.227
       219  -9.1110    110.3162     33.1779   7.1498587603e+01   5.3280113832e+01    0.4492078    0.2250744 -46.38  0.001187059    2.229    0.551
       220  -7.9749    109.8868     26.6462   6.9002523481e+01   5.4225201529e+01    0.2486791    0.2139288 -24.79   0.00136948    1.302    0.232
       221  -7.5887    183.6572    226.3251   1.0203715377e+02   3.9617319279e+00    0.1085934   0.08929711  46.38 0.0007050901    1.735    0.424
       222  -8.0184      8.6492    220.9989   1.4092020645e+02   2.6801915228e+01     0.158236    0.1273002  67.05 0.0004812221    1.139    0.122
       223  -7.4723    138.5550    218.5370   1.1020286836e+02   1.1342845730e+01    0.1294838    0.1062683  24.55 0.0001139562    1.028    0.028
       224  -9.8540     11.2523    207.0601   1.3980324190e+02   2.9466866934e+01    0.6138129    0.2865782  21.73  0.003112176    2.149    0.535
       225  -8.3484    123.9890    205.9182   1.1175169812e+02   1.5710905313e+01    0.1909751    0.1601883  28.63            0    1.016    0.016
       226  -8.4266     42.3010     28.2909   9.4970828532e+01   6.9376974841e+01    0.2331282    0.1781139  -4.89 0.0001708187    1.419    0.295
       227  -9.1102    101.1365     32.0185   7.3330577012e+01   5.5792270503e+01    0.3832441    0.2298994 -41.48 0.0009917202    1.792    0.442
       228  -7.8402    165.3108     30.3550   6.1003174776e+01   3.9368464129e+01    0.1381738    0.1032238  34.76 0.0001804209    1.730    0.422
       229  -9.8547    153.9886     25.5024   6.0975854721e+01   4.2809244580e+01    0.4232269    0.2523309  -0.41  0.001785702    2.803    0.643
       230  -8.0033    147.6864     29.2948   6.3066102165e+01   4.3995366009e+01    0.1485022   0.09831093 -67.96 0.0004066295    1.598    0.374
       231  -7.8564    118.6747     27.6947   6.7535169592e+01   5.1796651576e+01     0.239362    0.1583762  36.41  0.001112964    1.771    0.435
       232  -8.8037    144.1879     25.8987   6.2471344664e+01   4.5302858115e+01    0.2729914    0.1737893 -35.85  0.001019962    1.606    0.377
       233  -9.0706     91.2724     25.9656   7.3434690434e+01   5.9077448095e+01    0.3584031    0.2469488 -52.81  0.001070723    1.709    0.415
       234  -8.5855     91.9766     21.0337   7.1016611350e+01   5.9505221911e+01    0.3566273    0.2335377  17.49  0.001419832    2.060    0.515
       235  -8.7243    246.1450    204.6456   8.7887587320e+01  -8.6619951526e-01    0.1938487    0.1346842  -3.37 0.0004088749    1.126    0.112
       236  -9.2852    191.8978    194.1378   9.5319780500e+01   7.5212201317e+00    0.6291901    0.3397846 -58.67  0.002335162    5.087    0.803
       237  -9.5422    243.7189    186.2186   8.5165399596e+01   1.6834223414e+00    0.2954483     0.234561 -49.59  0.001166779    2.001    0.500
       238  -9.1422    119.0301     21.3692   6.5048241809e+01   5.2437780806e+01    0.2867125    0.2361209  80.33 0.0004930716    1.123    0.110
       239  -9.0950    232.1516    181.6030   8.6131917041e+01   3.7475109104e+00    0.2318558    0.1994739  23.06 0.0006107884    1.363    0.266
       240  -8.1994    111.6023     21.1198   6.6414602460e+01   5.4421889387e+01    0.3410182    0.1680958 -30.44  0.001464204    2.163    0.538
       241  -9.2669    232.7108    176.8809   8.5203277804e+01   4.3095083466e+00    0.2379346    0.1732503 -11.40 0.0003959346    1.155    0.134
       242  -7.6257     14.0559    179.2807   1.3779551018e+02   3.5454427833e+01    0.1784215    0.1453768  47.05 0.0006055949    1.096    0.087
       243 -10.1230    101.0008    175.9978   1.1308508963e+02   2.5371226157e+01    0.2048314    0.1834701  36.87            0    1.003    0.003
       244  -8.7206    232.9153    171.8782   8.4267729375e+01   4.9622582914e+00    0.1772773    0.1550235   2.54 0.0003235465    1.194    0.163
       245  -8.2054    104.9879     14.5056   6.5059336610e+01   5.6861032225e+01    0.2532098    0.1198305  36.31 0.0009626762    2.766    0.638
       246  -8.8067     40.9482     20.9176   9.1692706470e+01   7.0847806810e+01    0.2615579     0.188817 -32.13 0.0004223894    1.424    0.298
       247  -9.0753     87.0594    172.0080   1.1631057272e+02   2.8449783213e+01    0.2086141    0.1899985  37.25 0.0002889231    1.034    0.033
       248  -7.3634    242.5812    171.5294   8.2748527698e+01   3.7261674899e+00    0.1161255   0.09004263 -14.03 0.0002261614    1.012    0.012
       249 -10.3830    201.0221    169.1318   8.9094094976e+01   1.0009903139e+01    0.2379265    0.2098786   0.93 0.0003326648    1.074    0.069
       250  -7.3607     13.5314    170.4990   1.3745339906e+02   3.7586829839e+01    0.1307737    0.1110736  63.38 0.0002178923    1.003    0.003
       251  -8.3620    153.9165    171.6484   9.9150147219e+01   1.7352293183e+01    0.2092454    0.1763003 -14.09 0.0002736854    1.202    0.168
       252  -8.5213     86.8221    156.6285   1.1395528898e+02   3.2101975802e+01     0.219595    0.1941872 -44.36 0.0004994606    1.239    0.193
       253  -8.8445    220.9317    152.0450   8.2398776801e+01   9.5240697354e+00    0.1792244    0.1532806 -14.27 0.0003324789    1.029    0.029
       254  -7.8156    206.7265    150.7045   8.4479661092e+01   1.1989804253e+01    0.1647409    0.1502403 -52.09  0.001047486    1.367    0.269
       255  -8.7774    133.7938    146.7823   9.9037604826e+01   2.5977774704e+01    0.7600647    0.1874618 -52.71  0.001882564    5.755    0.826
       256  -7.6093    149.1084    148.8434   9.5732919704e+01   2.2640890988e+01    0.1920043    0.1624468   1.22  0.000273559    1.256    0.204
       257  -7.0501    189.3165     15.6874   5.4483294778e+01   3.5154621479e+01    0.1404275   0.07882966 -61.02            0    1.642    0.391
       258  -9.2622     66.7131    144.1682   1.1813293621e+02   3.8251945395e+01    0.5805278    0.2941692  51.83  0.002295341    2.146    0.534
       259  -8.8080    236.4975    145.5525   7.8779784585e+01   8.1125787132e+00    0.1209014   0.09885976 -18.27 0.0001463478    1.009    0.009
       260  -8.3275    248.2196    139.8480   7.6068445281e+01   7.2002807130e+00    0.2066892    0.1340181   8.23 0.0009522587    1.955    0.489
       261  -8.3842    239.9957    137.7510   7.6768033886e+01   8.6863927917e+00    0.1409114    0.1016647  40.30 0.0008933219    1.608    0.378
       262  -8.4584    112.1730    133.8587   1.0207814810e+02   3.2992189790e+01    0.3177502    0.2229068  72.36  0.001344361    2.000    0.500
       263 -10.0903    116.8103    123.6995   9.8421893127e+01   3.4385652529e+01     1.039657    0.7472016 -57.41  0.002520759    1.514    0.339
       264  -9.9069    133.9710    131.2362   9.5564984954e+01   2.9244685955e+01    0.6345664    0.5293177 -38.37  0.002640072    1.237    0.192
       265 -10.7233    132.2119    119.9712   9.3332880733e+01   3.2005946220e+01    0.8874823    0.6045287  81.50   0.00286557    2.497    0.599
       266 -10.9814    133.4275    109.5504   9.0376789153e+01   3.3936896240e+01    0.9234444    0.4811011 -46.70  0.002431869    1.970    0.492
       267 -10.6000    123.5372     90.4204   8.7694359658e+01   4.0115411713e+01     1.029466    0.6202912 -30.22  0.002793687    2.029    0.507
       268  -9.9554    108.6037    114.3799   9.8530904491e+01   3.8178463494e+01    0.5943914     0.393629 -76.67  0.001398859    2.284    0.562
       269 -10.7538    108.9213    101.0805   9.4924522092e+01   4.1116146129e+01      1.13911     0.869119 -89.21   0.00507041    1.759    0.431
       270 -10.1970    122.2204    111.5214   9.3874377511e+01   3.5954568832e+01    0.8133687     0.438589 -35.38  0.002014955    2.204    0.546
       271  -8.1080    142.1967    131.4192   9.3547546046e+01   2.7535725887e+01    0.3538606    0.2349233 -84.60  0.001305103    3.062    0.673
       272  -8.2131     82.3070    130.9109   1.1062117531e+02   3.9143390697e+01     0.441472    0.2699215 -84.96  0.001693634    2.470    0.595
       273 -10.3763     70.1390    126.6385   1.1385903509e+02   4.2199998386e+01    0.8054451    0.6684294 -14.63  0.001742341    1.454    0.312
       274 -10.0945     58.2445    124.5495   1.1765650329e+02   4.4499123933e+01      0.69481    0.3940595  72.42  0.002383167    2.610    0.617
       275  -9.7706     98.5020    128.5734   1.0497300253e+02   3.6829128541e+01    0.6439768    0.3928727  71.75  0.002313939    2.818    0.645
       276  -7.7266    241.5265    130.4995   7.5132744620e+01   9.4669094008e+00    0.1211774   0.09838305 -22.91 0.0008099746    1.024    0.024
