#   1 NUMBER                 Running object number                                     
#   2 MAG_AUTO               Kron-like elliptical aperture magnitude                    [mag]
#   3 X_IMAGE                Object position along x                                    [pixel]
#   4 Y_IMAGE                Object position along y                                    [pixel]
#   5 X_WORLD                Barycenter position along world x axis                     [deg]
#   6 Y_WORLD                Barycenter position along world y axis                     [deg]
#   7 A_WORLD                Profile RMS along major axis (world units)                 [deg]
#   8 B_WORLD                Profile RMS along minor axis (world units)                 [deg]
#   9 THETA_WORLD            Position angle (CCW/world-x)                               [deg]
#  10 FWHM_WORLD             FWHM assuming a gaussian core                              [deg]
#  11 ELONGATION             A_IMAGE/B_IMAGE                                           
#  12 ELLIPTICITY            1 - B_IMAGE/A_IMAGE                                       
         1 -15.0865     19.4717    148.1834   1.2398711641e+02   4.1788969761e+01     1.868667     1.374374 -88.67  0.009950742    1.008    0.008
         2 -14.0881      2.7396     75.1213   1.1964203421e+02   5.8426223373e+01     2.931783    0.2506219 -69.42  0.007430284    8.616    0.884
         3 -12.6837    215.4508     10.9287   4.6168414872e+01   2.9690206833e+01    0.6848837    0.6275891 -40.87  0.003147097    1.118    0.106
         4 -14.9666    193.8354    164.3092   8.9883910023e+01   1.0886066687e+01      2.99191     1.613179 -50.20   0.01323498    2.293    0.564
         5 -14.4861    244.6061    235.3803   9.3456206273e+01  -7.5020496097e+00     2.015354     0.964588 -23.78    0.0115935    2.494    0.599
         6 -11.1931    102.5469    248.2956   1.1799648214e+02   1.3377027320e+01     1.248498    0.5813049  34.84  0.006431402    3.073    0.675
         7 -13.3960    171.8861    229.0519   1.0454368006e+02   5.2011124130e+00     1.120209     1.039676  55.11  0.007863843    1.191    0.160
         8 -14.6895    160.0678    244.8914   1.0847025086e+02   5.0563045083e+00     4.689451     1.086751  45.29   0.01900017    3.248    0.692
         9  99.0000    108.7693    221.7308   1.1449288562e+02   1.6569750409e+01     2.057994     1.796909  64.81   0.01251125    1.201    0.167
        10 -14.8474    148.9363    218.9296   1.0718952270e+02   1.0541089653e+01      2.08819     1.499646  31.85     0.011908    1.557    0.358
        11 -12.9166    138.5224    248.5846   1.1234863348e+02   7.9703405924e+00    0.5158246    0.3059539  52.36  0.002450133    1.272    0.214
        12 -13.5943    128.3549    248.4468   1.1395408775e+02   9.5493267169e+00    0.9549272    0.4362271  48.85  0.004776256    1.630    0.387
        13 -11.7457     75.6006    248.8765   1.2215630534e+02   1.6970856844e+01    0.4668758     0.267823  48.64  0.003348463    1.437    0.304
        14  -8.6748     25.1034    215.7193   1.2774984624e+02   2.8336285012e+01     1.424126    0.7006686  64.87  0.009841933    1.555    0.357
        15 -14.2260     42.4482    223.5297   1.2552427170e+02   2.5111857979e+01     2.028436    0.8093999  73.72   0.01097664    2.649    0.623
        16 -15.0739     41.9610    243.9518   1.2680119609e+02   2.1841681409e+01     2.196016    0.5386977  51.95   0.01178992    2.740    0.635
        17 -15.7802     14.5167    245.3460   1.3071784834e+02   2.4558036620e+01     1.745301    0.5478552  69.27  0.009957144    2.825    0.646
        18 -14.6386     26.5919    247.5839   1.2915822460e+02   2.2967430611e+01    0.8576725    0.2256226  57.56  0.004810893    2.713    0.631
        19 -10.9819      1.6863    250.1869   1.3260952944e+02   2.5062856367e+01    0.1390637   0.07347577  71.32 0.0007953464    1.222    0.182
        20 -14.8404    209.6906    174.9189   8.8991418572e+01   6.0408388038e+00     1.950653     1.082447 -50.63  0.008912643    2.465    0.594
        21 -12.7711    207.5722    192.8168   9.2680603477e+01   3.8465165620e+00     0.971464    0.5875151  25.92  0.004970278    1.818    0.450
        22 -10.0167     36.4236    207.9777   1.2547723728e+02   2.8493265340e+01    0.2127158    0.1256706  47.99  0.001442504    1.578    0.366
        23 -10.5162     60.7681    201.0469   1.2083586746e+02   2.6895760640e+01    0.4381396    0.2748646 -56.73  0.002830936    2.001    0.500
        24 -11.3974     54.2620    200.4999   1.2192232721e+02   2.7797603302e+01     0.489682    0.2525227 -71.73  0.002864614    1.797    0.444
        25 -10.3920      7.8352    201.3223   1.2967388282e+02   3.2552394356e+01     0.194954     0.111008  75.09  0.001222657    1.266    0.210
        26 -10.1439     23.5922    194.4584   1.2671620970e+02   3.2299430035e+01     0.297815    0.2028145  53.36   0.00149244    1.403    0.287
        27  99.0000     31.6364    197.3266   1.2555379796e+02   3.0943721827e+01     0.599369    0.2699429  85.89  0.003490133    2.077    0.518
        28 -12.0865     34.3805    191.1219   1.2464457922e+02   3.1810952111e+01    0.5628756    0.2607803  82.37  0.002758015    2.075    0.518
        29  -9.2376     18.1538    198.3540   1.2785567886e+02   3.2118498595e+01    0.1893729   0.08497451  51.77  0.001234991    1.843    0.458
        30 -10.0418     14.1594    197.1236   1.2843511197e+02   3.2724267010e+01    0.1634565   0.09129084  74.18 0.0005688877    1.349    0.258
        31 -11.4640    158.3700    193.0311   1.0179964291e+02   1.3002291724e+01    0.6176105    0.3075811  46.26  0.003006149    1.730    0.422
        32  -9.9048      7.6527    184.9867   1.2881749517e+02   3.5558923947e+01    0.2693903    0.2092185  74.74  0.001419916    1.200    0.167
        33 -13.0381      2.6132    124.1508   1.2541256224e+02   4.8091730736e+01    0.8797343    0.2601572 -77.14  0.004085034    2.644    0.622
        34 -14.5174    136.2586    224.7000   1.1010200561e+02   1.1765421228e+01     1.472364     1.024075 -80.53  0.009423843    1.780    0.438
        35 -11.4673     16.9647    189.4839   1.2751708245e+02   3.3868892053e+01    0.3990764    0.2900364  35.57     0.002698    1.864    0.463
        36 -12.9006     20.0700    179.8538   1.2635061069e+02   3.5401230842e+01     1.015177    0.6763706 -89.83  0.007465363    1.129    0.114
        37 -13.4722     31.2301    160.5968   1.2274223071e+02   3.8140858566e+01    0.9955759      0.82348   6.00  0.007137059    2.086    0.521
        38 -12.7621    185.7203    187.8512   9.5804990715e+01   8.7090042292e+00    0.6657099     0.479201  55.05  0.003752458    1.372    0.271
        39 -11.6018    172.1384    187.8199   9.8352294507e+01   1.1294966236e+01    0.5565482    0.4261733   9.89  0.003095935    1.751    0.429
        40 -13.2473    108.7115    179.1914   1.0940898722e+02   2.4179230660e+01     1.670452     1.113534  49.58  0.008510402    1.369    0.269
        41 -10.3810     71.7311    188.7576   1.1770098129e+02   2.7789617853e+01    0.4019184    0.3103536  31.65   0.00266348    1.790    0.441
        42 -10.3660     67.0159    184.9128   1.1819119044e+02   2.9153309044e+01    0.1729364    0.1428235  82.77 0.0007296588    1.101    0.092
        43 -12.1964     68.8473    164.3509   1.1555345483e+02   3.3040185320e+01    0.3440697    0.2663703 -47.13  0.001205491    1.705    0.414
        44 -10.5399     72.8815    177.3336   1.1625641405e+02   2.9869422243e+01    0.3355891    0.1913131 -63.29  0.001306511    1.707    0.414
        45 -12.4478     80.1175    174.6530   1.1451784526e+02   2.9409663140e+01    0.8191564    0.4934796  55.66  0.004276967    1.512    0.339
        46 -12.0175     79.3592    167.9067   1.1383915710e+02   3.0881873891e+01    0.8626955    0.3325962  43.26  0.002492956    2.469    0.595
        47 -13.3958    151.9918    169.0530   9.9070182474e+01   1.8409788926e+01      1.15556     1.136638 -40.85  0.007335449    1.158    0.136
        48 -10.8315     32.7965    171.0043   1.2334825726e+02   3.5882108357e+01    0.2869265    0.2058085  75.96  0.001462903    1.112    0.101
        49  -9.3034      4.2779    172.3173   1.2864941860e+02   3.8252782599e+01     0.093412   0.06463014 -66.17 0.0005615339    1.573    0.364
        50 -10.6623     59.4187    167.7683   1.1785678710e+02   3.3537782721e+01    0.5376865    0.3687907  52.46  0.003492111    1.400    0.286
        51 -11.6100    111.0600    166.2286   1.0704481452e+02   2.6350077555e+01    0.5362644    0.3908067  75.32  0.003045126    1.397    0.284
        52  -9.2139     87.2574    161.3522   1.1132873221e+02   3.1095748678e+01    0.1167285   0.09487899 -43.65  0.000367894    1.606    0.377
        53 -14.5703    140.4963    146.8689   9.7352334103e+01   2.4924860572e+01     1.897369     1.442422 -52.61   0.01011365    1.357    0.263
        54 -12.5206    194.3452    201.8337   9.6585671867e+01   5.0174474764e+00     1.229703    0.8200662  16.30  0.006599163    1.941    0.485
        55 -12.9701     90.2740    140.2685   1.0744076650e+02   3.5120671462e+01     1.075006    0.5089944 -50.10   0.00488494    2.184    0.542
        56 -14.8336    172.1275    133.9516   8.7799283450e+01   2.0888278285e+01     1.264426     1.129825  53.52  0.006898645    1.094    0.086
        57 -11.4747     79.6232    152.5866   1.1173002938e+02   3.4039034918e+01    0.4977562    0.3819281 -50.95  0.003036084    1.501    0.334
        58 -12.5886     81.2535    127.5934   1.0739202552e+02   3.9230378424e+01    0.6934026    0.3655356 -55.05  0.003403615    1.743    0.426
        59 -12.2913     68.2320    143.5108   1.1295772500e+02   3.7530253654e+01    0.8582697    0.3489105  50.46  0.003893699    2.577    0.612
        60 -10.2668     98.6302    129.3380   1.0352628796e+02   3.6183974336e+01    0.2604174    0.2090529 -11.54 0.0009847374    1.899    0.473
        61 -13.3298     43.9445    143.8932   1.1838480491e+02   4.0323582977e+01    0.9329879    0.7139391  75.66   0.00415575    1.175    0.149
        62 -11.1356     22.9814    110.0278   1.1907650655e+02   4.9610305323e+01    0.3330995    0.1861347 -53.29  0.002007014    1.676    0.403
        63 -12.2321     32.7323    107.5881   1.1626734150e+02   4.9314910242e+01    0.4317471    0.2870097  69.64  0.002295686    1.669    0.401
        64 -12.5109      4.9836    139.0284   1.2617802938e+02   4.4840154011e+01    0.4632953    0.3356641 -80.44  0.002287629    1.104    0.094
        65 -10.5481     60.5796    210.6131   1.2166493993e+02   2.5188353801e+01     0.481095    0.2071115  66.08  0.002565081    2.330    0.571
        66 -13.3575    195.8152     33.6372   5.5392572435e+01   3.2153607696e+01     1.056143    0.5472384  40.65   0.00415939    2.241    0.554
        67 -12.0612    208.3752     20.2766   4.9670341605e+01   3.0489921178e+01    0.3869413    0.2897869  22.67 0.0009764529    1.632    0.387
