#   1 NUMBER                 Running object number                                     
#   2 MAG_AUTO               Kron-like elliptical aperture magnitude                    [mag]
#   3 X_IMAGE                Object position along x                                    [pixel]
#   4 Y_IMAGE                Object position along y                                    [pixel]
#   5 X_WORLD                Barycenter position along world x axis                     [deg]
#   6 Y_WORLD                Barycenter position along world y axis                     [deg]
#   7 A_WORLD                Profile RMS along major axis (world units)                 [deg]
#   8 B_WORLD                Profile RMS along minor axis (world units)                 [deg]
#   9 THETA_WORLD            Position angle (CCW/world-x)                               [deg]
#  10 FWHM_WORLD             FWHM assuming a gaussian core                              [deg]
#  11 ELONGATION             A_IMAGE/B_IMAGE                                           
#  12 ELLIPTICITY            1 - B_IMAGE/A_IMAGE                                       
         1 -19.0229    228.3813    102.2908   3.8269131495e+01   1.3364795714e+01      7.41132      6.14639 -30.84   0.02818984    1.150    0.131
         2 -11.6484    119.2440      9.8029   3.1261767979e+01   5.3196352324e+01    0.6572694     0.412662  36.45  0.002552491    1.499    0.333
         3 -10.2200    207.8719      7.0581   1.6381294025e+01   3.1549750580e+01    0.4453485     0.200371  54.67  0.001949687    2.126    0.530
         4  -9.9278    190.9773      6.5570   1.8197434791e+01   3.5849380269e+01    0.2323181    0.1888359  15.64 0.0006265222    1.478    0.323
         5  -8.8927    203.6712      4.5834   1.6184827328e+01   3.2845822245e+01    0.2449467    0.1131929  65.26 0.0008213406    1.918    0.479
         6  -9.8498    111.4205      2.5049   3.0210843877e+01   5.5637905461e+01     0.281128    0.1177289  57.84   0.00121973    2.196    0.545
         7  -8.9566    142.9774    222.8858   7.8713453152e+01   9.9581714396e+00    0.1809348    0.1502661  51.98 0.0004784814    1.019    0.018
         8 -12.3310    194.9151    249.1136   7.3051917839e+01  -2.2679706080e+00     1.310608    0.2482147  43.35  0.004643332    4.105    0.756
         9 -11.8683    220.4335    235.9480   6.6795320289e+01  -4.7911249181e+00    0.4436041    0.3031845  21.89  0.001490492    1.291    0.226
        10 -12.7091    222.8979    246.5954   6.7985229210e+01  -6.3691746611e+00     1.019637    0.4394095  45.59  0.005374108    2.101    0.524
        11 -13.0083    213.3687    241.9411   6.8900269830e+01  -4.3610171843e+00     1.142047    0.7160188  25.72  0.007165002    1.420    0.296
        12 -12.1229    247.8510    248.5371   6.4187208083e+01  -1.0287117383e+01    0.9765731     0.685805  40.42   0.00692448    1.457    0.314
        13 -11.3439    237.7577    249.3455   6.5944945912e+01  -8.8962981098e+00    0.5197485    0.3249473  38.98  0.003300066    1.365    0.268
        14 -10.0589    171.7180    204.3557   7.0597827253e+01   7.8994751863e+00    0.4031254    0.2527758  72.19  0.001630496    2.836    0.647
        15  -9.4331      3.0274    205.0967   1.0196314648e+02   3.1710183835e+01     0.149212    0.1080139  80.43 0.0004043553    1.062    0.059
        16 -11.0757    192.3276    193.7904   6.4871571536e+01   5.7740252627e+00    0.9018328    0.4648286 -61.96  0.002988039    5.391    0.815
        17  -9.8693    151.2469    248.3245   8.0409584224e+01   4.8285119729e+00    0.2048403    0.1558419  53.05 0.0002460596    1.123    0.109
        18 -12.7518     55.3908    118.1502   8.2082250551e+01   4.4535058961e+01    0.6228824    0.5206872 -50.54  0.000768249    1.199    0.166
        19 -10.4750     69.5500    109.4774   7.6631412700e+01   4.4692825816e+01    0.2535987    0.2142644 -56.78 0.0001528852    1.065    0.061
        20  -8.5936     47.5114    145.4474   8.8144591471e+01   3.9380472076e+01    0.1226514    0.1016826 -86.03 3.054435e-05    1.013    0.013
        21 -11.2203    114.0081    141.2472   7.1665241693e+01   3.0641547823e+01     0.814119      0.28897 -59.76  0.002615919    3.729    0.732
        22 -11.1926    108.8609    139.3334   7.2521271703e+01   3.1964346009e+01    0.4197897    0.3009034 -59.24  0.002179048    1.375    0.273
        23 -13.5493     32.1432    120.6550   8.8495574038e+01   4.6408340312e+01    0.9961175    0.7798247 -72.26  0.004054375    1.039    0.037
        24 -10.1763    126.0703    127.9146   6.5968694448e+01   3.1255688829e+01    0.3047324    0.1911009 -54.15 0.0009607425    1.627    0.385
        25  -9.7587    103.9643    129.2821   7.1705035645e+01   3.5007457824e+01    0.3245743    0.1981594  74.17  0.001314194    2.667    0.625
        26 -10.8098     90.4454    122.9790   7.3839676252e+01   3.8629984105e+01    0.4710212    0.2598239 -75.48  0.001880901    2.719    0.632
        27 -11.3604      7.7477    122.6327   9.4756341904e+01   4.7947921682e+01    0.2837579    0.1839478 -88.70   0.00188126    1.330    0.248
        28  -8.7556    137.8141    175.4744   7.2607510816e+01   1.9253455068e+01    0.2460917    0.1566464 -77.81  0.001048744    2.344    0.573
        29  -9.6076     97.9974    114.9710   7.0164816819e+01   3.9168473793e+01    0.2136173    0.2006511 -69.93 0.0004007613    1.021    0.021
        30  -9.4269    110.9671    123.2764   6.8672190394e+01   3.5086800661e+01    0.1985744    0.1884136  65.25 0.0006375812    1.065    0.061
        31 -11.2360    118.4239     93.6528   5.9470096911e+01   3.9983343270e+01    0.5952532    0.4575219  36.58  0.003004087    1.365    0.268
        32 -10.6053    133.1527     91.2615   5.5017573003e+01   3.7427159429e+01    0.4576679    0.2744224 -32.38 0.0009050717    1.812    0.448
        33 -11.4825    134.0000     87.0136   5.3607759895e+01   3.8079897548e+01    0.9629689    0.2782817 -37.42  0.002773079    3.839    0.740
        34  -9.7366    153.9064    170.5729   6.8337585004e+01   1.7146968996e+01    0.2299153    0.2195884 -31.28 0.0003550382    1.150    0.130
        35  -9.9837    146.3650     83.4680   4.9569620294e+01   3.6002827506e+01    0.2906515    0.2816429 -35.80  0.000932415    1.040    0.038
        36  -8.6104    120.2203    168.9991   7.5283227113e+01   2.3711350738e+01    0.1818799    0.1655642 -84.55 0.0003211279    1.088    0.081
        37  -8.7353     53.3797     80.1873   7.4839446836e+01   5.3100202889e+01    0.2559264    0.1012355 -52.01  0.001124821    2.090    0.522
        38 -10.2389    135.2017     74.4386   4.9613875196e+01   4.0199110916e+01      0.40175    0.3366154  76.05  0.001323769    1.443    0.307
        39  -9.1035      6.8571    189.8754   1.0044718293e+02   3.4223183273e+01    0.1450364    0.1125799 -85.92 0.0003417143    1.207    0.172
        40  -8.9522    143.0343    165.8955   6.9788606521e+01   2.0140840862e+01    0.2032672    0.1914605  63.05 0.0004814944    1.021    0.021
        41  -9.0925    138.4250     67.4785   4.6688384216e+01   4.0722612930e+01    0.1497761    0.1416306   3.88 9.023208e-05    1.043    0.041
        42 -10.2582    153.0194    162.5001   6.6998635214e+01   1.8864146516e+01     0.332012    0.2412203 -62.81 0.0007408577    1.610    0.379
        43  -8.9597    107.9247     56.8854   5.1260602004e+01   4.9107784006e+01    0.2113434    0.1765826  -0.71 0.0003249069    1.240    0.193
        44 -12.5120    140.9059     42.5490   3.8048165050e+01   4.4139960264e+01    0.9146338    0.6756508  -3.73  0.004496471    1.565    0.361
        45 -11.2914    136.2172     46.4025   4.0413774953e+01   4.4675530593e+01    0.5734751    0.2736384 -44.37  0.002237264    2.370    0.578
        46 -10.8217    131.9501     47.0204   4.1637661479e+01   4.5566800842e+01     0.399315     0.265963  -8.71  0.001618153    1.857    0.461
        47  -8.9421    125.5010     49.4798   4.4063116660e+01   4.6637757839e+01     0.145925    0.1351041  11.76  0.000163896    1.027    0.026
        48 -11.0536    130.4766     38.7640   3.9170849192e+01   4.7119365215e+01    0.5235052    0.2576424  40.88  0.001697321    2.073    0.518
        49  -8.6756     97.0139    162.4903   7.9341755404e+01   2.8954488603e+01    0.1835839    0.1245649  44.68 0.0001023894    1.450    0.310
        50  -9.3707    122.0451     34.0046   3.9539739127e+01   4.9691262561e+01    0.2271722    0.1583971  16.75  0.000504409    1.638    0.389
        51  -9.5843    154.9283     30.4903   3.1131274446e+01   4.2345954421e+01    0.2123174    0.1899327 -18.04  0.000552814    1.170    0.145
        52 -10.8657     70.1435    157.9359   8.4681064940e+01   3.3874296167e+01    0.6708037    0.2636012 -74.82  0.002410461    3.587    0.721
        53 -10.0575    160.8298     21.7140   2.7207521061e+01   4.1916181736e+01    0.3499526    0.2237759  32.71 0.0006446224    1.747    0.428
        54 -10.1522    156.2212     22.5985   2.8313089833e+01   4.2971446389e+01    0.4388815    0.2734294  21.02  0.001959454    2.066    0.516
        55 -10.8635     61.1666    149.1576   8.5497291076e+01   3.6949602449e+01    0.3493185    0.3213141  80.85  0.001309552    1.130    0.115
        56 -13.2145     68.0150    142.6308   8.2932125426e+01   3.7503816862e+01     1.662119    0.8585969 -72.25  0.007512163    1.997    0.499
        57  -8.2498    128.6059    184.7852   7.6056731871e+01   1.9120760707e+01    0.1767176    0.1232803 -72.16 0.0006662735    1.676    0.403
        58  -9.3002    177.9899    156.3727   6.0494670162e+01   1.4959436645e+01    0.2285938    0.2056649 -51.60 0.0002897112    1.215    0.177
        59  -9.4260    125.9063     14.1396   3.1408672479e+01   5.1225880634e+01    0.2202001    0.1976101  37.25  0.001291014    1.027    0.026
        60  -8.8230    162.3198    245.3018   7.8138496157e+01   3.4647447874e+00    0.1128168   0.08065131  22.70  0.000257885    1.626    0.385
        61 -13.9144     68.0197    117.7933   7.8681375317e+01   4.3041064440e+01      1.75404     1.276902  39.34   0.01006708    1.519    0.342
        62 -10.3781    167.0284    153.2715   6.2144451946e+01   1.7805620101e+01    0.2475377    0.2126128 -57.76  0.000209023    1.280    0.218
        63  -9.5948    166.9059    182.0743   6.7755349681e+01   1.2538549091e+01    0.4101619    0.2665288  82.90  0.001368363    3.081    0.675
        64  -9.4760    152.2242    243.9715   7.9721784662e+01   5.2782077683e+00    0.1553442    0.1322595  48.36 0.0004398167    1.093    0.085
        65  -9.2404    115.6923    194.6004   8.0131664812e+01   1.9457746899e+01    0.2065097    0.1753274  82.28 0.0003547318    1.144    0.126
        66 -10.2726    119.1251    235.1120   8.4480175442e+01   1.1861994182e+01    0.2063621    0.1753888 -87.54 0.0004397956    1.284    0.221
        67 -10.4081    110.3297    147.4004   7.3709470183e+01   2.9965728259e+01     0.306696    0.2072605 -77.19  0.001048992    1.778    0.438
        68  -8.7694     70.3392    226.0009   9.2094043680e+01   2.0448388180e+01    0.1492467    0.1179709  78.83 0.0004668632    1.105    0.095
        69 -10.8134    101.4521    145.6449   7.5476949244e+01   3.1852874246e+01    0.3797564    0.2379493 -76.26  0.001776103    1.949    0.487
