#   1 NUMBER                 Running object number                                     
#   2 MAG_AUTO               Kron-like elliptical aperture magnitude                    [mag]
#   3 X_IMAGE                Object position along x                                    [pixel]
#   4 Y_IMAGE                Object position along y                                    [pixel]
#   5 X_WORLD                Barycenter position along world x axis                     [deg]
#   6 Y_WORLD                Barycenter position along world y axis                     [deg]
#   7 A_WORLD                Profile RMS along major axis (world units)                 [deg]
#   8 B_WORLD                Profile RMS along minor axis (world units)                 [deg]
#   9 THETA_WORLD            Position angle (CCW/world-x)                               [deg]
#  10 FWHM_WORLD             FWHM assuming a gaussian core                              [deg]
#  11 ELONGATION             A_IMAGE/B_IMAGE                                           
#  12 ELLIPTICITY            1 - B_IMAGE/A_IMAGE                                       
         1 -13.9957    162.2071     38.6581   8.2799694032e+01   4.0112246742e+01     1.397366    0.9759594  -6.94  0.004007398    1.682    0.405
         2 -13.3603    174.9686      6.1325   6.9984261110e+01   4.0488173910e+01    0.9411212       0.8011  66.34  0.004577145    1.093    0.085
         3 -10.5446    140.3223    218.6499   1.2958164187e+02   1.2042563069e+01    0.3499759    0.1949293 -74.49  0.001563591    3.100    0.677
         4 -13.8307    196.1880    244.5874   1.2332525575e+02  -6.4401141232e-01    0.7836401    0.6052328  49.67  0.005643113    1.311    0.237
         5 -19.9917     71.5705    175.6888   1.3756938472e+02   3.0555881624e+01     16.91791     4.195332 -64.95   0.06241816    3.925    0.745
         6 -10.3937      9.3233    201.7196   1.5134964301e+02   3.2435042004e+01    0.1559431    0.0982259  85.01  0.000472164    1.173    0.147
         7 -11.6744    164.4931    205.2956   1.2325694333e+02   9.9942035215e+00    0.3132355    0.2555829 -62.89 0.0007659793    1.504    0.335
         8  -9.6050    157.8470    207.2160   1.2478301118e+02   1.0863170926e+01    0.1683411    0.1369691  24.15 0.0004432227    1.359    0.264
         9 -10.5778    169.8533    204.0070   1.2206004567e+02   9.2407887808e+00    0.2696356    0.1666195 -72.18  0.001229801    3.119    0.679
        10 -11.8676    135.3945    196.1189   1.2743584385e+02   1.6632171531e+01      0.38179    0.2605735  86.09  0.001463476    1.968    0.492
        11 -11.0875    207.3134    196.8610   1.1400265256e+02   3.5311566758e+00    0.1845505    0.1700011 -59.28  0.001204254    1.451    0.311
        12 -11.3023    170.0018    195.6726   1.2070012744e+02   1.0523232767e+01    0.2754421    0.1877925 -47.07 0.0009924968    1.703    0.413
        13  -9.6311    124.0796    196.7605   1.2972797796e+02   1.8441663554e+01    0.1939389    0.1478786  68.88 0.0006496111    1.269    0.212
        14 -11.2030    175.8548    195.2176   1.1951660510e+02   9.5225289369e+00    0.3073875    0.1908173  61.01  0.001529605    1.980    0.495
        15 -11.8407    179.3886    192.1808   1.1833576224e+02   9.3473241049e+00     0.505406    0.3414003  83.35  0.001904119    2.920    0.658
        16 -10.6619    157.9905    193.2030   1.2260237696e+02   1.3119757481e+01    0.2091502    0.1862244 -79.70 0.0003041924    1.293    0.227
        17 -10.6826     31.3903    178.6396   1.4588010464e+02   3.4724813155e+01     0.740033    0.3772323  15.78   0.00304534    5.929    0.831
        18 -11.9361     36.5073    186.5483   1.4554437494e+02   3.2614262729e+01    0.3497864    0.2868197   0.19   0.00197755    2.296    0.564
        19 -10.0115     26.0056    184.9695   1.4737973402e+02   3.4016379286e+01    0.1624648    0.1074385  72.49  0.001144232    1.192    0.161
        20 -12.0493     30.6959    183.1571   1.4636899171e+02   3.3896624345e+01     0.586169    0.2869067  33.72  0.003419325    2.420    0.587
        21 -10.7498    126.0428    186.8605   1.2792935567e+02   1.9919772595e+01    0.3806315    0.2198742  73.56   0.00133136    2.616    0.618
        22 -11.7596    206.5116    181.5044   1.1133777934e+02   5.8840346021e+00    0.3834212    0.2771855  19.90   0.00212054    1.424    0.298
        23 -12.6541    210.8451    179.1244   1.1008984618e+02   5.4156052551e+00    0.8017181    0.4921802   4.89   0.00361269    2.432    0.589
        24 -10.6478      3.8401    180.5662   1.5113627587e+02   3.6914424588e+01    0.2362454    0.1864112   7.13  0.001784788    2.312    0.568
        25 -12.0885    198.0499    175.9559   1.1184912568e+02   8.3495635192e+00    0.3960737    0.3500321 -51.28  0.001184918    1.359    0.264
        26 -11.0114    178.3185    173.8168   1.1523943864e+02   1.2548549824e+01    0.3002165    0.1274504 -39.36  0.001220873    2.639    0.621
        27 -11.5886    146.5917    171.2276   1.2118397820e+02   1.9140441915e+01    0.5549173    0.3627284  84.68  0.002455715    2.519    0.603
        28 -11.2419    137.8245    171.7389   1.2309946070e+02   2.0678527292e+01    0.4083261     0.258853  77.08  0.001829572    2.377    0.579
        29 -10.9413    132.1280    171.6831   1.2428401995e+02   2.1729489476e+01     0.316673    0.1476286  53.59  0.001269129    2.229    0.551
        30 -11.8773    203.4575    167.7094   1.0920344243e+02   8.5849170124e+00    0.6431824    0.5359598  73.07  0.002873738    1.592    0.372
        31 -10.3163    123.7679    166.7832   1.2523633860e+02   2.4192943065e+01    0.2538224    0.1544153  65.52  0.000643336    1.966    0.491
        32  -9.7253     11.0184    174.3756   1.4943660787e+02   3.7515242570e+01    0.1412307    0.1058499  78.98 0.0005320137    1.068    0.064
        33 -10.3494     32.6327    152.8598   1.4329564682e+02   3.9945237745e+01    0.2059925    0.1825824 -24.73  0.001045213    1.712    0.416
        34 -12.4462     34.5834    158.6932   1.4345992014e+02   3.8508234809e+01     0.597059     0.568418  75.34  0.004569823    1.355    0.262
        35 -10.9547    125.6795    159.5354   1.2356802179e+02   2.5308904213e+01    0.3407401    0.2354596  75.41  0.001557032    1.780    0.438
        36  -9.9399     22.9779    156.0702   1.4565636487e+02   4.0189502866e+01    0.1731972    0.1325343  89.07 0.0005713202    1.019    0.018
        37 -12.1432    133.8504    145.1599   1.1901677008e+02   2.6720035575e+01     1.044482     0.248239 -53.48  0.002718512    5.552    0.820
        38 -10.6697    133.7380    249.6846   1.3429244561e+02   8.5071938149e+00    0.1733342    0.1514644  75.91  0.000743912    1.255    0.203
        39 -10.5115     17.4568    249.8451   1.5235597793e+02   2.3465245384e+01    0.1574717    0.1443931  73.46  0.001118372    1.709    0.415
        40 -11.0796    147.8593    147.9876   1.1647112511e+02   2.3386476992e+01    0.2824159    0.2010679  53.83 0.0006701507    1.392    0.281
        41 -11.4933    143.8450    144.7744   1.1669358562e+02   2.4833026678e+01      0.32466    0.2283877 -75.39   0.00150734    1.888    0.470
        42 -12.4118    117.3567    138.3416   1.2145879492e+02   3.1256830662e+01    0.4759607    0.3723405 -28.09  0.001866324    1.642    0.391
        43 -10.1805    138.5535    215.4903   1.2949613769e+02   1.2838092192e+01    0.2259061    0.1475977 -68.60 0.0007046408    1.943    0.485
        44 -11.9700     42.6977    154.6089   1.4129224272e+02   3.8522419261e+01    0.3880493    0.2272222  28.69  0.001572083    2.242    0.554
        45 -12.0915    110.4998    124.9046   1.2032434690e+02   3.5413902593e+01    0.2923451     0.282563 -30.73 0.0005058732    1.156    0.135
        46 -13.0077    120.8328    129.1640   1.1871403753e+02   3.2582601490e+01    0.6252067    0.3970841  37.32  0.002197056    1.715    0.417
        47 -12.7490    127.0683    128.2579   1.1701611930e+02   3.1579939804e+01    0.7180461    0.4387699 -78.51  0.002594034    2.817    0.645
        48 -11.1446    168.3260    250.1998   1.2864526606e+02   3.0844057784e+00    0.1963384     0.122352  37.78  0.001235647    1.304    0.233
        49 -11.2909    135.4006    122.3008   1.1366180333e+02   3.1173869071e+01    0.5160861    0.1361213 -51.10  0.001393603    4.512    0.778
        50 -11.2804    114.7391    118.4809   1.1783212342e+02   3.6038907564e+01    0.2510417    0.2232338 -48.32 0.0003764773    1.118    0.106
        51 -10.4065    150.8043    249.9313   1.3150613035e+02   5.8534771203e+00     0.179145    0.1401981  48.42 0.0004532474    1.040    0.038
        52 -10.1409      1.5640    214.6361   1.5321583117e+02   3.0823347628e+01    0.1693787   0.08266642 -71.41  0.000732286    1.959    0.490
        53  -9.9393    205.5826    110.1976   9.5609399048e+01   1.7722763200e+01    0.2444421    0.1773064  44.59 0.0006738165    1.388    0.279
        54  -9.3152    157.1358    106.1353   1.0451923045e+02   2.9758376048e+01    0.1980785    0.1778197 -82.09  0.001009434    1.248    0.199
        55 -10.9780     10.2547    211.0685   1.5167498289e+02   3.0656175735e+01    0.1747778    0.1252843 -88.84 0.0006921689    1.238    0.192
        56 -13.2072     11.5938    206.2277   1.5121027458e+02   3.1401064603e+01    0.4663223    0.3133639  42.43  0.002644425    1.657    0.397
        57  -9.6884    180.2049     76.4297   9.1200408603e+01   2.9679752246e+01    0.2047621    0.1525923  70.80 0.0003235814    1.533    0.348
        58  -9.8191     13.5081     59.9537   1.3478351098e+02   6.1854882633e+01    0.1769324   0.09026468 -62.64 0.0004147107    1.510    0.338
        59 -12.8655    150.6510     53.9093   9.0279578234e+01   4.0787618716e+01    0.5031102    0.4861247  -3.38    0.0010678    1.016    0.016
        60  -9.3909    160.2671    247.3317   1.2964027871e+02   4.7127058184e+00    0.1034478   0.07838477  20.90 0.0002650036    1.582    0.368
        61 -12.0592    165.5789     30.8499   7.9569198645e+01   4.0258182892e+01    0.4081531    0.3633533  25.03 0.0009466674    1.156    0.135
