#   1 NUMBER                 Running object number                                     
#   2 MAG_AUTO               Kron-like elliptical aperture magnitude                    [mag]
#   3 X_IMAGE                Object position along x                                    [pixel]
#   4 Y_IMAGE                Object position along y                                    [pixel]
#   5 X_WORLD                Barycenter position along world x axis                     [deg]
#   6 Y_WORLD                Barycenter position along world y axis                     [deg]
#   7 A_WORLD                Profile RMS along major axis (world units)                 [deg]
#   8 B_WORLD                Profile RMS along minor axis (world units)                 [deg]
#   9 THETA_WORLD            Position angle (CCW/world-x)                               [deg]
#  10 FWHM_WORLD             FWHM assuming a gaussian core                              [deg]
#  11 ELONGATION             A_IMAGE/B_IMAGE                                           
#  12 ELLIPTICITY            1 - B_IMAGE/A_IMAGE                                       
         1 -12.0119     40.9636     41.6417   4.2035729686e+01   6.7221715709e+01    0.9964575    0.7081624 -31.08  0.003320242    1.466    0.318
         2  99.0000     36.2568     21.0927   3.4174513856e+01   7.1916671266e+01     2.723011     1.146299  48.51   0.01098153    2.835    0.647
         3 -12.5879     81.2870     22.1493   1.4805784398e+01   6.2371792824e+01     1.001678    0.3603131  51.87  0.002803872    2.511    0.602
         4 -13.4732     67.0258     14.9104   1.5725713190e+01   6.6624569151e+01     1.359227     1.225006 -51.02  0.007042253    1.226    0.185
         5 -11.9004     76.0818      7.1573   8.5420932488e+00   6.5349209811e+01    0.7496779    0.6444083  51.45  0.004493569    1.074    0.069
         6 -14.3394     35.4730     56.2219   5.0828640008e+01   6.4717194225e+01     2.577645     1.605196  -9.04    0.0112088    2.317    0.568
         7 -13.2134     25.9731     40.3034   5.0458133309e+01   6.9547656317e+01     2.350543    0.7479067 -43.38  0.008276098    3.196    0.687
         8 -14.3145      9.6698     36.0487   6.0047439382e+01   7.2070293254e+01     1.574564     1.075751 -66.04  0.008777658    1.426    0.299
         9 -13.8440     63.5794     34.3277   2.7367777330e+01   6.4502878906e+01     1.664077     1.308949  34.85   0.00732708    1.280    0.219
        10 -13.8521    176.4962     84.9231   1.5750711425e+01   2.9427985087e+01     2.257938     1.361581   2.88  0.007090946    4.955    0.798
        11 -14.0894    227.4693     64.5245   4.0074237740e+00   2.2208618999e+01     2.609321     1.175704 -59.08   0.01144494    2.744    0.636
        12 -12.3387    235.0788     38.3647   3.5741191215e+02   2.4158462030e+01     1.799009    0.4144489 -53.79  0.005154636    5.572    0.821
        13 -13.8024    243.9619      8.4844   3.5036480504e+02   2.5836925755e+01     1.198828    0.4543094 -74.37  0.005829529    2.926    0.658
        14 -12.7258    161.5221     37.7550   4.5623150627e+00   4.0239992106e+01     1.058036    0.8854978  33.16  0.004009149    1.516    0.340
        15 -12.9589    176.4060     39.3630   3.1378214451e+00   3.6466736895e+01     1.184236    0.9322965  19.53  0.006394679    1.813    0.449
        16 -12.9189    188.5761     35.1439   6.1076843232e-01   3.4208012910e+01     1.563613     0.796832  39.56  0.006329245    3.419    0.708
        17 -12.9761    225.0189     23.9425   3.5480985978e+02   2.7794016608e+01    0.9157296    0.5629088  44.13  0.003756949    2.511    0.602
        18 -13.5216    222.4616     10.4257   3.5182108744e+02   2.9772507262e+01    0.9656167     0.609822 -65.31  0.004240946    1.347    0.258
        19 -13.1455    238.2406     51.4215   8.0969659328e-02   2.1951103689e+01     1.696253     0.391355 -47.53  0.006247189    3.606    0.723
        20 -13.6715    193.1234     43.4543   2.3668217313e+00   3.2109541929e+01     2.270121     1.076369  65.59  0.009966482    2.231    0.552
        21 -11.6776    241.7387     22.4931   3.5348336625e+02   2.4755339073e+01     2.796218    0.4524538  74.89  0.009247796    6.965    0.856
        22 -11.2230    101.7225     21.8144   9.2244096276e+00   5.7380566292e+01    0.4680473    0.2254093 -31.99  0.001999549    2.104    0.525
        23 -12.0810    135.0682     20.6025   2.6143081858e+00   4.8999603010e+01    0.4813503     0.342076  65.61  0.001858072    1.352    0.260
        24 -11.3634     20.6075     22.7914   4.5910808069e+01   7.3874442143e+01    0.5101314    0.2403621 -54.88  0.000687757    2.221    0.550
        25 -11.3763    123.7132     23.7592   5.6109519073e+00   5.1538255365e+01    0.7910217    0.3582827 -13.65   0.00276766    3.577    0.720
        26  -8.9770    113.3170     21.9925   6.8445594840e+00   5.4411983135e+01    0.6447835    0.4352816  38.86  0.003148795    1.713    0.416
        27 -10.8760    118.8887     16.6941   3.6952331126e+00   5.3585254203e+01     0.413776    0.3016545 -87.80  0.002047197    1.378    0.274
        28 -11.5230    113.3071     14.2433   3.6696437945e+00   5.5281242974e+01    0.3966499    0.3052568  12.59 0.0006362565    1.640    0.390
        29 -11.8525    116.1716      8.0313   6.5286598319e-01   5.5160384929e+01    0.6580033    0.4372562 -43.69  0.002785431    1.511    0.338
        30 -10.1934    203.0400     18.2712   3.5492239995e+02   3.2991450489e+01    0.4008817    0.3044826  22.03  0.002247003    2.036    0.509
        31 -10.4209    155.4659     13.3072   3.5759882598e+02   4.4642345589e+01    0.6112418    0.2940152  -2.96  0.002140782    4.316    0.768
        32 -11.2711    150.2393     13.3416   3.5817116617e+02   4.5942327821e+01    0.2416967    0.1913551 -56.04 0.0005308304    1.155    0.134
        33 -10.3650     14.3004     13.1089   4.5303367790e+01   7.6481203391e+01     0.237111    0.1882476  69.54  0.001364112    2.020    0.505
        34 -10.5650    108.7153     10.1866   2.7767119460e+00   5.6870959291e+01    0.4898942    0.2899966   4.01  0.002166761    2.478    0.596
        35  -9.4809    107.4778      5.5266   9.8552455023e-01   5.7623800023e+01    0.1941279    0.1357866   0.40 0.0006364338    1.795    0.443
        36 -10.9005     38.0383     12.3023   2.7501624337e+01   7.3004825310e+01    0.2077054    0.1729767  -8.67 0.0003262406    1.186    0.157
        37 -10.8088    125.4084     11.5238   6.5820616645e-01   5.2446120514e+01    0.3327504    0.2445559 -52.93  0.001033471    1.335    0.251
        38  -9.9954     88.7028     12.0830   7.7988501730e+00   6.1749221660e+01    0.1774388    0.1672241   9.87  0.000405414    1.149    0.129
        39  -9.9240     92.7040     11.3304   6.4950305822e+00   6.0827458865e+01    0.2455054    0.1466747 -37.96 0.0006159279    1.734    0.423
        40 -10.1096    144.4992     10.1881   3.5775134149e+02   4.7704889261e+01    0.3006057    0.1543543 -82.95  0.001057413    2.114    0.527
        41  -7.7741    100.8943      7.3795   2.9660320670e+00   5.9139462834e+01    0.5834887    0.2660177 -56.91   0.00227071    2.864    0.651
        42 -10.8023     26.2253      9.6824   3.3403962794e+01   7.5426037115e+01    0.2936167    0.2003587  22.00  0.001005527    1.495    0.331
        43 -12.0070    193.6674      8.1686   3.5294820188e+02   3.6122619727e+01    0.2829657    0.2262978  77.36  0.001058295    1.329    0.248
        44 -12.7609    173.2403      6.2768   3.5386095629e+02   4.1023827054e+01    0.4196299    0.2477496 -18.63  0.001714919    1.973    0.493
        45  -9.7092     44.5674      8.2418   2.1160742931e+01   7.2299613476e+01    0.3015268    0.2088454  -1.46  0.001278039    1.697    0.411
        46 -10.3138     48.8949      6.5106   1.7897560511e+01   7.1616983775e+01    0.3358629    0.2595602 -21.34  0.001972578    1.343    0.255
        47 -11.0599     46.0991      2.2669   1.6241913980e+01   7.2681350885e+01    0.3156626     0.216172  36.98  0.001119984    1.370    0.270
        48  -9.6050    164.5094      7.4574   3.5491577238e+02   4.3007187522e+01    0.1313803    0.1140517 -72.48  6.03669e-05    1.036    0.035
        49 -13.9923      4.2271     54.7726   6.8766819916e+01   6.7853408089e+01     2.217439      0.93123 -85.96  0.008706645    2.840    0.648
        50 -10.4920      3.6025      5.9466   5.0878254920e+01   7.8924277082e+01    0.5066603    0.2335301 -29.81  0.002374505    2.405    0.584
        51 -11.5169    216.2062      2.3252   3.5023740561e+02   3.1861236339e+01    0.4444841    0.2073272  80.49  0.002107364    2.176    0.540
        52 -10.3270    209.7355      6.0624   3.5146226596e+02   3.2840875127e+01    0.2393014    0.1486863 -86.71  0.001424268    1.547    0.353
        53  -8.9192    207.4920      2.6613   3.5074784759e+02   3.3651601206e+01    0.1735307    0.1026116 -34.10 -0.0002241819    1.500    0.333
        54  -9.6529    188.7540      5.2561   3.5249091721e+02   3.7518539300e+01     0.125181   0.07443091 -57.56 0.0002475904    1.418    0.295
        55  -9.3469    184.3381      3.3803   3.5226590184e+02   3.8707967935e+01    0.3218135    0.1289544  61.15  0.001267438    2.664    0.625
        56  -9.7890    142.9054      3.0868   3.5549092486e+02   4.8771126049e+01    0.3063496    0.1739705  34.35  0.001087956    2.508    0.601
        57 -11.0982     55.7456      3.6127   1.3088468706e+01   7.0444945797e+01    0.3593336    0.2251728  43.40 0.0006692942    1.476    0.322
        58 -11.8750    154.4181      2.2112   3.5413910636e+02   4.5971295727e+01    0.2272358    0.1922045 -68.68 0.0002926853    1.025    0.024
        59 -11.6336     87.8518      1.4223   2.6963948577e+00   6.2962458196e+01    0.3750639    0.1313735  62.24 0.0005255849    2.350    0.575
        60 -10.0765    126.9232      1.7216   3.5672618935e+02   5.2955975560e+01    0.1868429    0.1513217  89.23 0.0002918126    1.108    0.098
        61 -12.6280    183.1309     96.0774   1.7499943586e+01   2.6098094887e+01    0.7509787    0.6851137 -36.42  0.003435625    1.055    0.053
        62 -11.3391      3.3914    248.6859   8.2388344980e+01   2.0692736219e+01    0.3540656    0.1511323  57.05  0.002096645    1.769    0.435
        63 -12.0895    151.2886     96.7293   2.3726733707e+01   3.2759925059e+01    0.5277702    0.3758918 -54.49  0.002518835    1.417    0.295
        64 -12.8484    200.0116     96.5045   1.4930985396e+01   2.2654418644e+01    0.4232635    0.3344242  69.56  0.002431358    1.518    0.341
        65 -11.9240    106.8178     87.1408   3.2219606834e+01   4.4585667039e+01    0.7414856     0.369497  47.55  0.001882724    2.050    0.512
        66 -13.3002    103.0603     96.5715   3.6119381099e+01   4.3241435990e+01    0.9601403    0.5771307  28.31  0.001685049    2.208    0.547
        67 -11.9570     95.2754     90.0027   3.6668142431e+01   4.6369413510e+01     0.590503    0.4261773  63.27  0.001242219    1.602    0.376
        68 -11.9897    114.7286     86.5499   2.9759196501e+01   4.2980353428e+01    0.3507791    0.3155016 -73.16 0.0005538571    1.132    0.117
        69 -12.9404    114.6014     80.9711   2.8077041832e+01   4.4192113686e+01     0.775982    0.5121683 -48.27  0.002689322    1.484    0.326
        70 -11.1436    250.5087     93.9280   8.0590095342e+00   1.4180565318e+01    0.3741149    0.1950459 -43.36  0.001471634    1.540    0.350
        71 -10.5955     11.6998     98.0380   7.1780471233e+01   5.5993422102e+01    0.2071283     0.162768 -77.36 0.0007276291    1.126    0.112
        72 -10.2291     81.4924     98.5018   4.3729311248e+01   4.6994831760e+01    0.2725098    0.2156512 -70.80  0.001063751    1.325    0.245
        73 -10.4069     16.9789     96.9886   6.9366377828e+01   5.5909831356e+01    0.2103509    0.1885916 -72.82 0.0003475008    1.030    0.029
        74 -11.0920    159.2446     95.7991   2.1825677152e+01   3.1205343491e+01    0.4351745    0.2091342  57.51   0.00142906    2.405    0.584
        75 -12.9961     59.2634     91.2843   5.0182077462e+01   5.2595417800e+01    0.5343929    0.4359651  41.46  0.001789768    1.264    0.209
        76 -11.6299     44.6810     92.8287   5.6611841494e+01   5.4245116404e+01    0.3953736    0.2733469 -19.23   0.00175515    1.913    0.477
        77  -9.1648    173.9426    131.0000   2.7512544213e+01   2.1538448340e+01    0.2209474    0.0808866  45.17 0.0008032628    2.948    0.661
        78 -13.8829    235.8491     85.9391   7.9233744821e+00   1.7703916704e+01     2.186966    0.8443974  66.58  0.009163662    4.064    0.754
        79 -11.8449    160.7873     54.1566   9.6664561262e+00   3.8062319521e+01       1.1408    0.8223074  52.45  0.005830695    1.519    0.342
        80  -9.8249    222.3121    124.6977   1.7986334758e+01   1.4171233691e+01    0.1920328    0.1546822 -39.85 0.0005660858    1.137    0.121
        81 -10.6881    221.1213    121.0738   1.7389639733e+01   1.4928994105e+01    0.3469204     0.246934  60.82  0.001474504    1.888    0.470
        82 -12.3173    162.1246     83.4617   1.7913664678e+01   3.2849660795e+01     0.524176    0.4676208  51.24  0.002904844    1.222    0.181
        83 -12.6994    168.7720     78.6466   1.5383089426e+01   3.2207749837e+01    0.8689895    0.4209467 -48.62  0.003196166    2.015    0.504
        84 -12.6631    165.2648     65.5407   1.2289224255e+01   3.5206233712e+01     1.296545    0.4966705  54.88  0.004895125    2.700    0.630
        85 -14.4392    195.7483     80.5169   1.1639339578e+01   2.6092627745e+01     1.467434     1.249526 -61.13  0.003914047    1.143    0.125
        86 -12.7120    180.8248     71.1479   1.1387939659e+01   3.0773079927e+01     1.402293    0.4692895  60.74  0.004217837    3.317    0.699
        87 -13.6104    184.1676     61.3844   8.2740285831e+00   3.1552647633e+01     1.140355     1.089091  54.16  0.001127379    1.229    0.186
        88 -10.1021    196.1706    123.3071   2.1743015168e+01   1.8856622894e+01    0.2643001     0.158844 -56.45  0.001226972    2.088    0.521
        89  -9.4024    248.7109    121.7124   1.3903919093e+01   1.0571763609e+01    0.1132618   0.08019869 -10.76 0.0001789098    1.537    0.349
        90 -11.7748    149.4151     40.9226   7.3460256140e+00   4.2783616236e+01    0.9723544    0.6793495  36.35  0.004698904    1.867    0.464
        91 -10.5951    228.7992    118.9971   1.5886176034e+01   1.4002246084e+01     0.256781    0.1670781  44.86 0.0009699173    1.860    0.462
        92 -11.6296    204.0304    116.5997   1.8966327819e+01   1.8581603295e+01    0.4864311    0.3540931 -76.24  0.002522853    2.081    0.520
        93 -10.3088    248.3105    117.8325   1.3176731696e+01   1.1176982248e+01    0.2360711    0.1673306  80.84  0.001396992    2.487    0.598
        94 -10.6299    181.8172    114.6546   2.2255825332e+01   2.3059863280e+01    0.3251569    0.2812843 -72.24  0.001633272    1.341    0.255
        95 -12.8428    221.5365     39.5598   3.5872569780e+02   2.6631353395e+01    0.8593186    0.4719995 -55.45  0.001639796    1.600    0.375
        96 -10.8090    171.8642    116.4931   2.4555447370e+01   2.4666795597e+01     0.261772    0.1892717 -46.18  0.001331439    1.302    0.232
        97 -12.4001    147.8271     82.4532   2.0472760063e+01   3.6277990189e+01      1.01213     0.453369 -47.91  0.003803105    2.220    0.550
        98 -11.6368    212.7189     90.0261   1.1620608142e+01   2.1258513135e+01    0.2306494    0.1708243 -69.22 0.0007125811    1.589    0.371
        99 -12.3234    248.9201     83.0634   5.9561156050e+00   1.5920119850e+01    0.2449571    0.2177858 -50.71 0.0003699494    1.185    0.156
       100 -10.0025     80.7446     84.0914   3.9869464655e+01   5.0650057295e+01    0.2606052    0.1779907 -25.60  0.001084827    1.982    0.496
       101 -10.9828     18.2172     82.5005   6.6503218840e+01   5.9735150653e+01    0.4014638     0.189798 -24.88  0.001509072    3.053    0.672
       102 -12.1797    234.9148     79.8300   6.6842281018e+00   1.8730045303e+01    0.6286845    0.3060553  75.20  0.002902324    3.335    0.700
       103 -10.7788     81.4929     79.4834   3.8157930075e+01   5.1588507524e+01    0.2665693    0.2590358  41.77 0.0008038959    1.064    0.060
       104 -11.7594     84.9993     73.5663   3.4955410746e+01   5.2230248459e+01     0.802125    0.5512354 -66.77  0.003515938    1.750    0.429
       105 -10.6747     67.4925     70.5109   4.0599089794e+01   5.6332722554e+01    0.2885195    0.1510381  33.87 0.0008973373    2.094    0.522
       106 -12.0165     74.3054     75.4198   3.9529907440e+01   5.3923004454e+01    0.6862491    0.4868086  33.05   0.00222704    1.519    0.342
       107 -11.3089     74.3144     70.3783   3.7831256698e+01   5.5080870479e+01    0.3696283    0.2789082 -32.10  0.001362387    1.469    0.319
       108  -9.8751    155.5345     76.8210   1.7291814550e+01   3.5536811925e+01    0.2404686    0.1738669  64.76  0.000961262    1.482    0.325
       109 -12.0127    249.6857     72.7743   3.7171495964e+00   1.7175463697e+01    0.5955869    0.2035121 -33.31  0.002710827    2.307    0.566
       110 -12.1125    138.0489     71.6064   1.9324619354e+01   4.0575324579e+01     1.239404    0.4060953  58.20  0.003879196    3.418    0.707
       111  -9.1722    136.6511     62.0775   1.6603425235e+01   4.2610271591e+01    0.4794967    0.2616798  70.55  0.001901124    2.234    0.552
       112 -10.9870    137.4710     58.0077   1.5107183576e+01   4.3103632387e+01    0.5078249    0.3756416  67.86  0.001941168    1.384    0.277
       113 -11.2413    145.2574     59.2834   1.3971814014e+01   4.0994159290e+01     0.557494    0.3470771  39.62  0.001883544    2.036    0.509
       114 -10.4834    152.0353     59.2947   1.2715709632e+01   3.9353812025e+01     0.375517    0.2846533  -1.93 0.0006338849    1.881    0.468
       115 -11.5787    144.0955     67.9449   1.6910348318e+01   3.9794922840e+01    0.3896649    0.3427113 -53.08 0.0005153256    1.071    0.066
       116 -11.7586    148.8579     65.9212   1.5342838398e+01   3.9010171747e+01    0.7080039    0.4048422 -65.30  0.002139393    2.371    0.578
       117 -10.4003    142.5759     54.4569   1.2939146870e+01   4.2435371375e+01    0.2523237    0.2369898 -52.92 0.0005355045    1.068    0.064
       118 -10.6760    145.5406     52.4100   1.1724448584e+01   4.2032450114e+01    0.2610716    0.2187102  38.11 0.0001138317    1.410    0.291
       119 -10.5362    250.2542     97.4359   8.8091315431e+00   1.3736378173e+01    0.2407032    0.1345411 -41.79 0.0007586079    1.410    0.291
       120 -13.0947     51.9837     44.5713   3.7544965207e+01   6.4796508330e+01    0.7655638    0.4661283  15.07  0.001226639    2.518    0.603
       121  -9.1263     43.2686     65.2917   4.9805961889e+01   6.1493476042e+01    0.1441476    0.1060169 -29.10 0.0002731729    1.509    0.337
       122 -10.8507    127.0315     58.9198   1.7676456846e+01   4.5498987135e+01    0.4405529    0.2832971  32.81  0.001853343    2.137    0.532
       123 -11.4983    173.6219     56.7089   8.4624800906e+00   3.4653139966e+01     0.348816    0.2645885  70.09 0.0005199129    1.386    0.278
       124 -11.7607    126.6470    116.0092   3.4640330713e+01   3.3942065036e+01    0.3776789    0.2267168  42.90 0.0005917908    1.715    0.417
       125 -13.4969     54.2444     57.4065   4.1713296725e+01   6.1653315148e+01     1.395458    0.9775367  77.52  0.003517415    2.248    0.555
       126 -11.0479    249.6777     49.7648   3.5883620689e+02   2.0127982088e+01    0.2887407    0.1737294 -36.31  0.001156924    1.298    0.229
       127 -10.9421    245.1823     53.6000   1.2712997871e-03   2.0432574976e+01     0.262999    0.1468601 -37.02  0.000695835    1.377    0.274
       128 -11.1661    245.0434     49.9765   3.5922878720e+02   2.0912337686e+01    0.1910311     0.149435 -39.22  0.001312422    1.119    0.106
       129 -11.5629    154.7958     65.1779   1.4003952799e+01   3.7723945091e+01    0.6195458     0.322633 -40.46  0.001651607    1.773    0.436
       130 -11.6577    123.5205     53.5946   1.6644288132e+01   4.7270678817e+01    0.4019978    0.2643614  67.80 0.0007706966    1.600    0.375
       131 -11.8451    133.7043     46.6457   1.2049289410e+01   4.5860357567e+01    0.3331752    0.2919658 -73.85 0.0006795543    1.104    0.094
       132 -11.4435    133.1136     40.2282   9.9303237229e+00   4.6964179590e+01    0.4827532    0.3398695 -65.17  0.001882386    1.513    0.339
       133 -12.0094    124.9045     45.2827   1.3379050968e+01   4.8270653476e+01    0.6751345    0.3587447  74.63  0.001271519    2.305    0.566
       134  -9.6466     99.2326     46.4518   2.0231341812e+01   5.4397502155e+01    0.2798384    0.2025377 -56.29 0.0008382585    1.500    0.333
       135 -11.3886     96.1280     42.2615   1.9432090322e+01   5.5840282649e+01      0.69837    0.2747546  53.33    0.0022296    2.429    0.588
       136 -11.4447    247.9488     41.4538   3.5718612254e+02   2.1442403334e+01    0.3901807    0.2723251 -42.23  0.001682925    1.091    0.083
       137 -10.1318    104.9251     42.6754   1.7151730783e+01   5.3640737900e+01     0.296791    0.1807577  67.76  0.001294148    1.774    0.436
       138 -10.3292    112.3382     38.8561   1.3794995101e+01   5.2395123692e+01    0.3921866    0.1407477  57.53 0.0009441653    2.604    0.616
       139 -12.3352     92.2446     33.3400   1.6755239127e+01   5.8171048263e+01    0.6368365    0.3824824  38.11  0.001765189    1.922    0.480
       140 -10.9018    239.5319     31.9470   3.5568193505e+02   2.4089669704e+01     0.327663    0.2092711 -42.54   0.00102866    1.188    0.158
       141 -10.8400    131.5027     32.8263   7.5927910976e+00   4.8399407228e+01     0.470663    0.2012968 -48.26 0.0009965462    2.435    0.589
       142 -11.2429    247.7165     32.8240   3.5535737693e+02   2.2500590029e+01    0.1826267     0.134647 -52.19 0.0003769871    1.056    0.053
       143 -10.7097    121.6456     33.0991   9.5544724316e+00   5.0868809235e+01     0.225796    0.1920223  70.73 0.0005498198    1.130    0.115
       144 -10.4869    112.3853     31.9632   1.1062801398e+01   5.3371833550e+01    0.4579448    0.2452392  48.18  0.001962703    1.939    0.484
       145  -9.6563    114.3541     28.2949   9.1755924623e+00   5.3362867270e+01    0.1455734    0.1366654  77.78 0.0007793811    1.031    0.030
       146 -10.0440    196.3539    113.1657   1.9413138375e+01   2.0559819442e+01    0.3580174    0.1827072 -45.46   0.00163188    1.816    0.449
       147 -11.3389    104.0347     29.8655   1.2133801642e+01   5.5760570483e+01    0.4318985    0.3188545  88.53  0.001373579    1.511    0.338
       148 -11.4219    196.8548    108.5701   1.8267234363e+01   2.1246902786e+01    0.4593482    0.2873308 -56.71  0.002230889    1.853    0.460
       149 -10.9667     97.5245     21.8037   1.0207209110e+01   5.8436894840e+01    0.2926734    0.2652299 -29.65  0.001110595    1.173    0.148
       150 -11.7807    158.9686     26.9193   1.5238573596e+00   4.2246970327e+01     0.393386    0.2621534  -9.04   0.00167913    2.047    0.511
       151 -10.8579    154.0044     25.8009   1.7896390835e+00   4.3610612247e+01     0.344034    0.2296413 -65.63 0.0009624406    1.475    0.322
       152 -10.5101    148.4468     24.5575   2.1074608270e+00   4.5148399175e+01    0.2472921    0.2050431  62.68 0.0008878572    1.254    0.202
       153 -10.9286    151.4521     22.0475   8.9183313243e-01   4.4688240534e+01    0.2513588    0.2143716 -87.74  0.000437366    1.086    0.079
       154 -10.4309    138.5621     29.3708   5.1835654773e+00   4.7055365062e+01    0.3716809    0.2002295 -16.16  0.001526179    2.515    0.602
       155  -9.8678     80.4432     30.4368   1.9093370529e+01   6.1406059525e+01    0.2159277    0.1835809  49.60 0.0001053897    1.133    0.117
       156 -11.4478     85.4016     28.8249   1.6748571501e+01   6.0473889517e+01    0.4947944    0.2271614  55.00  0.002028214    2.040    0.510
       157 -10.3823    134.9790     26.0774   4.5881748580e+00   4.8376382007e+01    0.3082831    0.2087723  -2.74  0.001130634    2.090    0.522
       158 -10.2534    199.8056    106.2360   1.7257917810e+01   2.1083301314e+01    0.2499536    0.2127645 -22.36 0.0006983189    1.168    0.144
       159  -9.1772    120.4751     28.4571   8.0109933221e+00   5.1782136030e+01     0.145584    0.1300149 -77.66 5.127843e-05    1.074    0.069
       160 -11.3984    176.3364     24.5930   3.5889573331e+02   3.8329086475e+01    0.3927132    0.1719877 -41.87  0.001092435    1.932    0.482
       161  -9.4982    210.8602    112.0000   1.6899229128e+01   1.8119268478e+01     0.187286      0.07685  51.46 0.0007936311    2.882    0.653
       162 -10.9454    209.7039    105.3615   1.5571963430e+01   1.9395596223e+01    0.3597379     0.227039 -55.99  0.001810184    1.783    0.439
       163 -10.5310    128.3438     23.9454   4.8886828002e+00   5.0329672986e+01    0.3086683    0.2338688  49.94   0.00162974    1.402    0.287
       164 -12.3933    160.7549    104.6992   2.3844741486e+01   2.9179996856e+01    0.4699408    0.2641691 -46.72 0.0002411567    1.691    0.409
       165 -10.2498     15.3203    106.9026   7.1343378072e+01   5.3323222545e+01    0.2027167    0.1619132 -74.54  0.000448208    1.120    0.107
       166 -10.2291    184.7766    105.4957   1.9540618535e+01   2.4115429682e+01    0.2339853    0.1425582  57.16 0.0006648995    1.917    0.478
       167 -11.4218    148.5125    103.9742   2.6262163792e+01   3.1920668556e+01    0.2713897    0.2540253 -72.27 0.0008290495    1.091    0.083
       168 -14.4228    209.4371     68.5942   6.9193571559e+00   2.5128234382e+01     1.879395    0.9198416  67.43  0.003212644    2.458    0.593
       169 -13.7734    207.4320     59.6538   4.9528468566e+00   2.6821245425e+01     1.274697    0.7079186  61.07  0.005618796    2.033    0.508
       170 -11.4289    144.4970    103.0610   2.6925500291e+01   3.2966906318e+01    0.3616243    0.3173268  21.21  0.001250205    1.313    0.239
       171  -9.8544    200.6934     15.7307   3.5443928902e+02   3.3779055930e+01    0.1845451    0.1105502 -33.30 0.0002116073    1.516    0.340
       172 -11.0561    162.2936     20.3662   3.5909574477e+02   4.2195060013e+01    0.3824731    0.2331385 -82.89 0.0006313411    1.673    0.402
       173 -13.3281    230.0809     47.2027   3.5980103736e+02   2.4006794759e+01    0.7404925    0.5763354  47.12  0.002543674    1.734    0.423
       174  -9.9955    194.3369     18.5429   3.5563811583e+02   3.4876695904e+01    0.2232094    0.1201846 -43.16 0.0009348756    1.528    0.346
       175  -9.8898    170.5572     19.4234   3.5795719670e+02   4.0296573569e+01    0.2169705    0.1060832  61.09 0.0009958998    2.095    0.523
       176  -9.8124     14.4151     18.9218   4.8678373517e+01   7.5349473617e+01    0.1864871    0.1184023 -55.78  0.001006238    1.623    0.384
       177  -9.9482     92.7189     16.8691   9.1122464091e+00   6.0223141972e+01    0.2510958    0.1657209  51.86  0.000637812    1.436    0.304
       178 -14.8933    132.4869     90.9132   2.6406413931e+01   3.8096741050e+01      2.39989      2.08481 -35.49   0.01239319    1.177    0.150
       179  -9.3319    160.2582     14.0097   3.5733128657e+02   4.3385348283e+01    0.1793117    0.1565075 -52.45 0.0003712951    1.102    0.093
       180 -13.6591     50.4103     85.0964   5.2261856754e+01   5.5506253559e+01    0.9784353    0.7051988  28.83  0.004757011    1.478    0.323
       181  -9.3055    102.2913     14.6459   5.9443667102e+00   5.8056129692e+01    0.1470094   0.09807813 -61.50 0.0007028528    1.680    0.405
       182 -14.2511     66.5000     82.8876   4.4933297462e+01   5.3539216164e+01     2.347939     1.340321  72.96  0.007479057    3.806    0.737
       183 -12.5409     99.9216     54.9180   2.3324988533e+01   5.2735676547e+01     1.231657    0.9141571  36.14  0.003133071    1.514    0.340
       184 -10.7926     36.2083    249.1926   7.5708215442e+01   1.7592771832e+01    0.1741929    0.1100748 -26.79 0.0009622619    2.888    0.654
       185 -12.4160     86.9122     63.8712   3.0873199816e+01   5.3915294264e+01    0.6500477    0.4748222  63.27 0.0005281396    1.544    0.352
       186 -14.7072     42.3819     75.6240   5.3326179261e+01   5.9034361734e+01      2.02475     1.477421 -10.42   0.00670831    1.731    0.422
       187 -11.7149    153.6250    100.1701   2.4148400411e+01   3.1578793602e+01    0.3260638    0.2427033 -27.72 0.0008555088    1.461    0.316
       188  -9.2977    211.2464     11.2893   3.5265192387e+02   3.1988383744e+01    0.1001118   0.09391414   9.84 0.0001961252    1.471    0.320
       189  -9.6225    179.2433     11.3209   3.5484171793e+02   3.9103862587e+01     0.113343     0.099502  26.94 0.0006893281    1.523    0.343
       190 -10.5998    180.9560    244.0411   4.5851476883e+01   1.9049019866e+00    0.1772448    0.1328543   8.24  0.001293711    1.034    0.033
       191  -9.4941    218.5848    239.7800   3.8810235933e+01  -1.5975552423e+00    0.1260676   0.09015448 -32.70 0.0006401098    1.593    0.372
       192 -10.4480     15.9236    238.7973   7.9539133080e+01   2.1435820501e+01    0.1550321    0.1478238  33.13 0.0009099972    1.343    0.255
       193 -13.3101     98.4841     74.9129   3.0892158301e+01   4.9067711054e+01     1.408937     1.091774 -34.21  0.005317798    1.383    0.277
       194  -9.5326      9.2704     10.2520   4.8031167377e+01   7.7567299476e+01    0.1201303   0.08227354 -19.03 0.0002273549    1.448    0.309
       195 -13.6814      6.6148     68.0900   6.9889202737e+01   6.4310463844e+01     1.254243    0.8921979 -25.30  0.003961685    1.513    0.339
       196  -9.7923     26.4886    207.0377   7.5785308032e+01   2.6930718247e+01    0.1661634   0.08622803 -51.73 0.0008095006    2.510    0.602
       197  -9.8187    101.0954    176.0983   5.3451112962e+01   2.4675312434e+01    0.1798343    0.1520492  60.26            0    1.224    0.183
       198 -10.0844    236.8378    146.1058   2.0244861610e+01   8.7688096881e+00    0.1709263    0.1392797 -33.42  0.000433433    1.171    0.146
       199 -12.3025    123.7776     70.1195   2.2184571293e+01   4.4238528154e+01    0.4834234    0.4160801 -60.40 0.0009818603    1.147    0.129
       200 -13.8242    116.8403     60.5591   2.0709158745e+01   4.7677082197e+01     1.118107     1.082634 -62.04  0.004258893    1.040    0.039
       201 -13.2553     61.0293     43.4977   3.2802915977e+01   6.3336599181e+01    0.5198681    0.4227459 -71.87 0.0005198892    1.530    0.347
       202  -9.9028    250.2379    132.0255   1.5744948009e+01   8.9089230876e+00    0.1611809    0.1191021 -30.74 0.0002836013    1.047    0.045
       203 -14.0750     76.8625     58.8145   3.2632357539e+01   5.7086121673e+01     1.015006    0.4120277  44.33   0.00366941    2.487    0.598
       204 -13.4146     79.1897     49.8630   2.8182849611e+01   5.8374903308e+01     1.635955    0.7467656  43.45  0.006310428    2.245    0.555
       205 -12.9042     81.3181     40.9130   2.3590364849e+01   5.9521477380e+01    0.6027378    0.4338662  51.46  0.001697309    1.362    0.266
       206 -12.6198     75.2458     41.6942   2.6138331318e+01   6.0734375444e+01    0.3343513    0.3117027  88.15 0.0004971458    1.164    0.141
       207 -11.1050     69.5947    102.3028   4.8983832793e+01   4.8096892706e+01    0.2996225    0.1489741 -62.96 0.0009925464    2.080    0.519
       208 -11.8901    215.3117     99.7988   1.3521268116e+01   1.9260586987e+01    0.5018521    0.2864843 -37.63  0.002609316    1.453    0.312
       209 -12.1681    169.4594     97.2960   2.0236913207e+01   2.8734428999e+01    0.6522697    0.4109327 -23.29  0.002884075    1.958    0.489
       210 -11.4159     82.7035    101.3646   4.4066570419e+01   4.6059277749e+01    0.2668352    0.2357818  61.80 0.0005205607    1.164    0.141
       211 -11.3742     87.3472     97.7815   4.1518826951e+01   4.6079187930e+01    0.5495719    0.3159386  41.04  0.001596213    1.771    0.435
