#   1 NUMBER                 Running object number                                     
#   2 MAG_AUTO               Kron-like elliptical aperture magnitude                    [mag]
#   3 X_IMAGE                Object position along x                                    [pixel]
#   4 Y_IMAGE                Object position along y                                    [pixel]
#   5 X_WORLD                Barycenter position along world x axis                     [deg]
#   6 Y_WORLD                Barycenter position along world y axis                     [deg]
#   7 A_WORLD                Profile RMS along major axis (world units)                 [deg]
#   8 B_WORLD                Profile RMS along minor axis (world units)                 [deg]
#   9 THETA_WORLD            Position angle (CCW/world-x)                               [deg]
#  10 FWHM_WORLD             FWHM assuming a gaussian core                              [deg]
#  11 ELONGATION             A_IMAGE/B_IMAGE                                           
#  12 ELLIPTICITY            1 - B_IMAGE/A_IMAGE                                       
         1 -14.7143    179.6065     34.8642   6.8173002075e+01   3.6230017784e+01     1.238527     1.002726  20.75  0.004234409    1.678    0.404
         2 -12.2435    189.7730     14.6959   6.1818450227e+01   3.6146511785e+01    0.2529709    0.2055676  74.87 0.0009170455    1.088    0.081
         3 -13.4353    202.1752      3.7351   5.7970552089e+01   3.4397123082e+01    0.6984955    0.4301893  48.22  0.002998478    1.966    0.491
         4 -12.8834    196.8584      3.1434   5.8366555410e+01   3.5677495618e+01    0.4802988     0.303083  73.07  0.001857125    1.318    0.242
         5  -9.9824    220.5887    228.9059   1.0477278723e+02  -7.4193232050e+00    0.2853527    0.1163073 -48.94  0.001130242    3.421    0.708
         6 -18.8004     51.8535    244.4490   1.4051435797e+02   1.7266021619e+01     6.449553     5.658185  59.05   0.04646612    1.318    0.241
         7 -13.9102    107.3266    209.6384   1.2527793955e+02   1.6254823483e+01    0.8260317    0.6576747  65.82  0.004605344    1.177    0.150
         8 -19.1082     35.9975    103.1045   1.2554756604e+02   5.1606048212e+01     17.46861    0.9491468 -60.13   0.02767136   16.496    0.939
         9 -10.6235     15.8795    213.2949   1.4472265082e+02   2.8039771287e+01    0.1151552   0.09443931  63.90 0.0001682226    1.246    0.197
        10 -12.8972    106.1209    202.3532   1.2446101792e+02   1.8087674017e+01    0.6599432    0.4012762  37.86  0.001827105    1.673    0.402
        11 -12.9596    116.3564    211.4709   1.2355581364e+02   1.4291111467e+01    0.7119173    0.4295439 -73.71  0.002407606    2.011    0.503
        12 -10.4795    187.3110    210.3063   1.0801473076e+02   1.4746706530e+00    0.1411586    0.1060986   2.64            0    1.617    0.381
        13 -13.9091     11.9129    206.2242   1.4494594744e+02   2.9971832979e+01    0.5515683    0.2737518  35.04  0.003125681    2.268    0.559
        14 -10.3239     10.5587    213.8775   1.4576026625e+02   2.8453288858e+01    0.1541694    0.1329836  52.31 0.0007072411    1.416    0.294
        15 -12.2284    121.8725    199.1510   1.2037213122e+02   1.6021653417e+01     0.421525    0.3042502 -17.25  0.001630486    2.315    0.568
        16 -10.4300    163.3759    204.0262   1.1194688668e+02   7.1797834201e+00    0.1995824    0.1798647 -50.08   0.00051581    1.180    0.152
        17  -9.2712    179.2494    206.2918   1.0896009226e+02   3.7300774801e+00    0.1346352    0.1076909  -3.59 -0.000275831    1.479    0.324
        18 -10.1621      6.2358    202.2483   1.4573962616e+02   3.1381693156e+01   0.09937602   0.07440235 -67.59 0.0003037484    1.393    0.282
        19 -11.1788    139.4845    200.5993   1.1662575889e+02   1.2437773012e+01    0.2943527    0.1449033 -53.51  0.001204558    2.149    0.535
        20 -12.5861    193.4336    192.5915   1.0336385733e+02   3.7033603169e+00    0.8594671    0.4829012 -52.47  0.002960538    2.048    0.512
        21 -10.3928    209.0230    197.9902   1.0126159014e+02  -2.1410967277e-01     0.204352    0.1757003  88.29  0.000635659    1.633    0.388
        22 -10.3792    154.0265    196.0024   1.1253804509e+02   1.0643898664e+01    0.2342645    0.1791569  78.73  0.001099632    1.657    0.397
        23  -9.9816     22.9013    195.9103   1.4190995555e+02   3.1151898670e+01    0.1290449   0.09699652 -85.70 -0.0009232552    1.069    0.064
        24 -10.9331    167.6368    188.6054   1.0810378932e+02   9.5418902823e+00    0.2839938    0.2601301 -85.76  0.001176812    1.207    0.172
        25 -14.7080    102.2762    193.6963   1.2400304452e+02   2.0728267477e+01     1.236076    0.9723964 -56.45  0.002779983    1.318    0.241
        26 -11.4243    207.4969    179.5469   9.7855732351e+01   3.5370805016e+00    0.5839992    0.3815696  16.71   0.00258092    2.087    0.521
        27 -12.6759     97.9268    180.7715   1.2293721167e+02   2.4513375279e+01    0.5589287    0.3089474  43.30  0.002479214    1.783    0.439
        28 -11.9454    140.9875    176.2500   1.1175811572e+02   1.7573448984e+01    0.2787702    0.2208949 -53.52 0.0006961914    1.279    0.218
        29 -12.4339     72.2887    174.7323   1.2820322273e+02   3.0025181685e+01    0.5213498     0.282689  52.70  0.001403879    1.939    0.484
        30 -10.0349    195.7092    174.3317   9.9164239646e+01   6.8771420580e+00    0.2514986    0.1936691  67.43 0.0007944474    1.645    0.392
        31 -11.5720    195.8894    170.1973   9.8251555172e+01   7.6769588084e+00    0.4103816     0.391296 -81.28  0.001918631    1.156    0.135
        32 -10.8587    193.8256    164.9470   9.7551822984e+01   9.1701019677e+00    0.3919744    0.3156565 -67.53  0.001404343    1.467    0.318
        33 -10.6693    198.8888    222.9137   1.0793833981e+02  -2.8372207843e+00     0.201658    0.1825033  23.25 0.0005377138    1.054    0.051
        34 -12.0433    137.5298    171.2757   1.1158853861e+02   1.9405397657e+01    0.3535922    0.3072296  65.41  0.001233011    1.166    0.143
        35 -13.1741    110.9464    139.8239   1.1163576014e+02   3.2073065454e+01    0.8539037    0.5422598 -24.97  0.003325661    2.459    0.593
        36 -11.9437     97.6082    161.0157   1.1950597661e+02   2.9345324499e+01    0.3133391    0.2545666 -58.61 0.0003554185    1.183    0.155
        37 -13.8624    102.4123    153.7470   1.1684610994e+02   3.0275576346e+01     1.126543    0.8280925   4.74  0.005013267    2.103    0.524
        38  -9.6111     13.2183    160.3956   1.4054870001e+02   4.0257210652e+01    0.1526901    0.1031811  51.52 0.0006606757    1.588    0.370
        39  -9.8712      8.2961    160.6569   1.4171813395e+02   4.0601663223e+01    0.1261918    0.1172515   1.26 0.0005417331    1.498    0.332
        40 -11.3736    119.8861    156.4406   1.1289932574e+02   2.6377466858e+01    0.3789418    0.2487775 -68.81  0.001626623    1.747    0.428
        41  -9.6738      3.2306    155.6702   1.4238717107e+02   4.2143241898e+01    0.1244504    0.1118573 -17.27 0.0003837772    1.539    0.350
        42 -12.5648    133.9570    145.4283   1.0693936973e+02   2.6171648508e+01     1.335509    0.3385409 -54.99  0.002981606    5.965    0.832
        43 -10.0958     10.0488    153.1914   1.4051856274e+02   4.2195343245e+01     0.186893     0.137618 -55.40  0.001203086    1.345    0.257
        44 -10.3685    174.9993    149.0166   9.8046183641e+01   1.6541596944e+01     0.248124    0.1935784 -87.90 0.0005385953    1.657    0.397
        45 -12.1892    144.6961    145.4426   1.0428183267e+02   2.3912258137e+01    0.3839172    0.3237495  86.99 0.0009167863    1.344    0.256
        46 -10.4891    114.9120    162.1124   1.1531438909e+02   2.5963456025e+01    0.2360398    0.1982266  88.15 0.0004115175    1.260    0.206
        47 -10.5076      6.2561    145.7198   1.4060992963e+02   4.4218643200e+01    0.2681601    0.1854351 -42.65  0.001112517    1.642    0.391
        48 -12.3945    100.7156    139.4184   1.1429765866e+02   3.4053028260e+01    0.3073817    0.2879607  33.12 0.0004212623    1.157    0.135
        49 -12.6988      4.8435    131.9141   1.3933970196e+02   4.7503775214e+01    0.7759823    0.2569252 -70.98  0.003426572    2.387    0.581
        50 -11.8715    105.9233    130.6906   1.1091057231e+02   3.5190186518e+01    0.4367203    0.3304124 -65.42  0.001191291    1.380    0.276
        51 -11.1655    105.8134    125.9338   1.0981963587e+02   3.6330756445e+01    0.2881307    0.2555644 -26.76 0.0007126234    1.221    0.181
        52 -12.1765    117.9756    129.7188   1.0741835581e+02   3.3099762892e+01    0.4123998    0.3799023   0.40  0.001069478    1.230    0.187
        53 -12.1801    135.3979    122.9773   1.0120765529e+02   3.1033119046e+01    0.7799026     0.218716 -50.65  0.002103188    3.981    0.749
        54 -11.4005    125.2417    127.1441   1.0487014518e+02   3.2226288095e+01    0.4030266    0.2603758  78.11  0.001487455    2.643    0.622
        55 -10.6169    112.1594    119.0046   1.0637092558e+02   3.6721158164e+01    0.2471508    0.2214964  45.03 0.0002598207    1.150    0.130
        56 -11.1402    168.3219    113.1935   9.0869422893e+01   2.5716721030e+01    0.4208528    0.2973569 -75.49  0.001200326    1.887    0.470
        57 -11.1104      1.9357    113.0979   1.3763435696e+02   5.1960197178e+01    0.2214403    0.1571769 -51.22  0.001465068    1.229    0.186
        58 -10.7119    205.3273    110.1836   8.2697463350e+01   1.7745422239e+01    0.3525294    0.2137347  47.76  0.001004018    1.762    0.432
        59 -12.4250     60.9211    108.7628   1.1895836528e+02   4.7494905840e+01    0.3650004    0.2735343 -22.64  0.001958031    1.525    0.344
        60  -9.6825    109.6591    107.3347   1.0405778050e+02   3.9823788968e+01    0.1559084    0.1208124  87.60 0.0007051048    1.756    0.430
        61 -11.2696    160.8211    127.4380   9.6136330641e+01   2.4408642475e+01    0.3841817    0.2763041  88.77  0.001595011    1.976    0.494
        62  -9.5368     81.3180    106.3131   1.1209484561e+02   4.5091989582e+01     0.147091    0.1082465 -19.42 0.0005166968    1.646    0.393
        63 -11.3296     66.9490    104.6985   1.1612039131e+02   4.7601344183e+01    0.1923335    0.1850597 -25.07  0.001170895    1.078    0.073
        64  -9.8422    150.2393    101.2164   9.1870336788e+01   3.2378127541e+01    0.2118146    0.1793686 -87.91 0.0004573176    1.341    0.254
        65  -9.7152    150.2388     79.9713   8.6023941280e+01   3.6454962341e+01     0.196858    0.1264545 -40.18 0.0006253987    1.595    0.373
        66  -9.9991     83.2149     76.4225   1.0318894460e+02   5.1010445388e+01    0.1756763    0.1311374  47.34 0.0003277523    1.505    0.335
        67 -10.0094     13.5086     59.9552   1.2326498777e+02   6.2406722426e+01    0.1697551   0.09421826 -52.75 0.0003945496    1.499    0.333
        68 -13.8161    165.8792     51.7554   7.4935474441e+01   3.7276045967e+01     0.964356    0.7165589 -46.78  0.002373814    1.407    0.289
        69 -10.4638      1.4189    248.6667   1.4943482664e+02   2.2317769848e+01    0.1218176   0.07977662 -85.61 0.0008804791    1.280    0.219
        70 -13.1809    183.7623     28.3730   6.5930480216e+01   3.6027654407e+01    0.4844299    0.4424107  75.76  0.001216284    1.113    0.101
        71  -9.9062    112.0038     21.4788   7.6776759452e+01   5.3489412603e+01     0.198153    0.1142255  57.57  0.001022439    1.581    0.368
        72 -14.5560    112.7657    197.0505   1.2211452518e+02   1.8130745708e+01     1.604276    0.6944959 -63.36  0.006043458    2.660    0.624
        73 -11.1733    169.1511    236.5754   1.1624976192e+02  -3.8273867094e-02    0.2194692    0.2134173 -48.74  0.000328518    1.181    0.154
