#   1 NUMBER                 Running object number                                     
#   2 MAG_AUTO               Kron-like elliptical aperture magnitude                    [mag]
#   3 X_IMAGE                Object position along x                                    [pixel]
#   4 Y_IMAGE                Object position along y                                    [pixel]
#   5 X_WORLD                Barycenter position along world x axis                     [deg]
#   6 Y_WORLD                Barycenter position along world y axis                     [deg]
#   7 A_WORLD                Profile RMS along major axis (world units)                 [deg]
#   8 B_WORLD                Profile RMS along minor axis (world units)                 [deg]
#   9 THETA_WORLD            Position angle (CCW/world-x)                               [deg]
#  10 FWHM_WORLD             FWHM assuming a gaussian core                              [deg]
#  11 ELONGATION             A_IMAGE/B_IMAGE                                           
#  12 ELLIPTICITY            1 - B_IMAGE/A_IMAGE                                       
         1 -14.0706    223.2922      4.3044   3.8200957498e+01   2.8395779952e+01     2.239105     1.170478  52.91  0.006855029    2.159    0.537
         2 -14.0487    181.0449     48.4440   5.5391830379e+01   3.3623507508e+01     1.971928     1.302304  27.41 0.0009058571    2.056    0.514
         3 -14.0107    192.5422     38.8085   5.0769983745e+01   3.2000131320e+01     1.291572      1.04007 -43.19   0.00322768    1.232    0.188
         4 -14.5126    200.3911     29.9456   4.7212214621e+01   3.1139116791e+01      1.54213     1.253994  31.66  0.001358869    1.499    0.333
         5 -11.2177     75.4366     13.3837   6.7504087747e+01   6.3088114919e+01    0.4889258    0.2488535  63.83  0.001947495    3.632    0.725
         6 -10.9064    156.3633     58.6697   6.3268311502e+01   3.8405614834e+01    0.3069647    0.2632885 -88.50 0.0006467346    1.308    0.235
         7 -19.4211     13.7264    151.0248   1.2373016865e+02   4.1711260239e+01     18.55175     5.316349 -79.90   0.07202806    3.313    0.698
         8 -12.2704    196.6916    197.4622   8.9163366427e+01   3.3375932398e+00     1.347888    0.9422258  64.81  0.006638928    2.200    0.545
         9 -11.2117    207.5178    193.9212   8.6396423895e+01   1.9477581809e+00    0.2734606    0.1688806 -35.82  0.001174434    1.708    0.414
        10 -10.5774     97.3732    200.8590   1.1047253575e+02   2.0309923169e+01    0.3378702    0.2639557  14.76   0.00189066    1.877    0.467
        11 -11.4122    152.1526    197.0830   9.8216071814e+01   1.1606723108e+01    0.3837527    0.3025353 -55.38  0.002159059    1.440    0.306
        12  -8.9653     66.3647    216.2715   1.1846230509e+02   2.1724722424e+01    0.1023852   0.09593634  -1.56 0.0006999794    1.661    0.398
        13 -13.6189     54.4809    201.6640   1.1948322113e+02   2.6231804923e+01    0.8764272    0.4886159  83.17  0.001669627    1.801    0.445
        14 -10.1256    152.2339    211.1947   1.0045344094e+02   9.0385769029e+00    0.1756193    0.1450043  66.50 0.0003716225    1.330    0.248
        15 -12.3443     27.4618    196.3079   1.2443073353e+02   3.0469145176e+01    0.1986209    0.1516734  76.17 0.0004352012    1.027    0.027
        16  -9.9622     82.0689    195.2659   1.1305323533e+02   2.3807594245e+01    0.2224491    0.2021451  89.77 0.0008683719    1.161    0.139
        17 -11.4835     67.1619    205.0278   1.1723361351e+02   2.3878260350e+01    0.5729951    0.2784998 -47.21  0.002301306    3.214    0.689
        18 -13.6005     63.5564    188.3990   1.1625829708e+02   2.7880730038e+01    0.7705399     0.686633 -40.21  0.005030307    1.557    0.358
        19 -10.5311     95.6799    189.8385   1.0939782410e+02   2.2879206374e+01    0.3456345    0.2563511  32.97  0.001150981    1.508    0.337
        20  -9.0865     72.1872    231.2880   1.1868891230e+02   1.8074542500e+01   0.09274729   0.08179003 -72.09 0.0002422948    1.419    0.295
        21  -9.6807     44.3986    189.6114   1.2045349873e+02   3.0013128237e+01    0.1731596    0.1067187  69.83  0.001002398    1.453    0.312
        22 -10.8042     72.2006    202.6399   1.1595737470e+02   2.3678561762e+01    0.3865111    0.2259358  77.52  0.002038243    1.827    0.453
        23 -13.2606    126.0837    209.2239   1.0555237349e+02   1.3943608005e+01    0.6981888     0.427879 -34.46  0.003350396    2.509    0.601
        24 -11.5657    146.7123    182.9990   9.6968455031e+01   1.5337807799e+01    0.3565021     0.259689  53.98 0.0009398141    1.353    0.261
        25 -11.1541     99.3362    180.8105   1.0730136595e+02   2.4241295121e+01    0.2727378    0.2256099  42.13 0.0005836567    1.236    0.191
        26 -11.6285    141.3384    174.8467   9.6696154527e+01   1.8018153381e+01    0.6127176    0.4037619  81.26  0.002245795    2.467    0.595
        27 -10.4405    204.4266    176.1227   8.3504947773e+01   5.4330772815e+00    0.3275041    0.2522054 -48.11 0.0009921575    1.519    0.342
        28  -9.7479    197.4286    176.8102   8.5035212752e+01   6.6606431745e+00    0.2712207    0.1881166  40.48  0.001378633    1.368    0.269
        29 -10.4694     56.3942    175.1496   1.1636637967e+02   3.1747956250e+01    0.4739811    0.1894328  53.25  0.002044041    2.557    0.609
        30  -9.5880    188.8079    175.1566   8.6452760128e+01   8.6327064961e+00    0.2060121    0.1981169  68.79 0.0006104751    1.217    0.178
        31 -11.0667     46.0301    172.8357   1.1845278156e+02   3.3528407424e+01    0.3658522    0.2739679  45.35  0.001837297    1.386    0.279
        32  -9.5783    185.6753    169.3131   8.5907784029e+01   1.0320015303e+01    0.1413386    0.1173578  83.84 0.0005390867    1.662    0.398
        33 -10.2054     43.6836    210.8883   1.2238318610e+02   2.5664866619e+01    0.3441647    0.1884723 -77.21  0.002045053    1.681    0.405
        34  -9.1981    160.3536    164.6631   9.0426477914e+01   1.6349868745e+01    0.1539624    0.1174904  80.84 0.0007043698    1.797    0.444
        35 -10.5090    230.4736    166.4792   7.6574195132e+01   2.1165458285e+00    0.2471241    0.1191033 -44.89  0.001035361    2.397    0.583
        36 -12.2847     93.7321    153.5070   1.0426598923e+02   3.1366035340e+01     0.663789    0.4950222 -23.02  0.001899226    2.002    0.500
        37 -11.4849    133.9142    145.5403   9.2612606546e+01   2.5816269400e+01     1.292179    0.3291024 -54.88  0.003025298    5.952    0.832
        38  -9.0935    112.6102    150.7629   9.8995191577e+01   2.8730109114e+01     0.206869    0.1378307 -67.71 0.0008741216    1.636    0.389
        39 -10.7576    174.3785    149.1549   8.3976168634e+01   1.6551052657e+01    0.3550566    0.3159272 -56.67  0.001520103    1.222    0.181
        40  -9.3852    108.9862    147.2482   9.9225345129e+01   3.0202761828e+01    0.1990447    0.1803109  63.93  0.000184282    1.078    0.072
        41 -10.5930    143.4984    145.5166   9.0274539542e+01   2.3860178068e+01    0.2826194    0.1461517 -58.76  0.001040021    2.403    0.584
        42  -9.8728     87.5174    144.3812   1.0423982147e+02   3.4528818276e+01    0.3567933    0.2071939  76.49  0.001391744    2.711    0.631
        43 -11.2515    106.3836    139.0010   9.8237125046e+01   3.2603428781e+01    0.5201541    0.4130772 -18.57  0.002543515    1.696    0.410
        44 -12.3246     93.7132    139.1209   1.0161312843e+02   3.4774956085e+01     0.288158    0.2511934 -51.31 0.0003848936    1.173    0.148
        45 -10.9380    105.9258    130.7938   9.6613885102e+01   3.4620860446e+01    0.3589223    0.3123382 -75.99   0.00118216    1.155    0.134
        46 -11.1486    135.8815    127.9603   8.8107302879e+01   2.9350534076e+01    0.7095561    0.2036235 -49.48  0.002017817    3.646    0.726
        47 -10.7354    113.8764    129.9307   9.4291644223e+01   3.3338653521e+01    0.3431892    0.3070304  -9.55  0.000878456    1.327    0.246
        48 -11.5720    119.3897    124.8958   9.1655747517e+01   3.3433216427e+01      1.00637    0.3764861 -38.27     0.002927    3.834    0.739
        49 -10.1298    160.7767    127.7242   8.1994393454e+01   2.3954292483e+01    0.3307784    0.2183825 -52.43  0.001414639    1.620    0.383
        50 -11.1417    101.3531    125.8129   9.6759243100e+01   3.6624192969e+01    0.3014249    0.2370643 -30.67 0.0006894798    1.491    0.329
        51  -9.6085     57.1437    225.2655   1.2097729750e+02   2.1191675949e+01   0.09149418   0.07043923 -74.17 0.0001835693    1.409    0.290
        52 -10.1989    109.4053    119.0234   9.2959092732e+01   3.6736931971e+01    0.2508853    0.2135216  56.78 0.0002446619    1.228    0.186
        53  -9.9642    167.7868    112.4733   7.6476079896e+01   2.5507233389e+01    0.3671398    0.2681657 -84.44  0.001270753    2.022    0.505
        54 -10.4005    134.6992    106.4748   8.2900273083e+01   3.4365870477e+01    0.3869252    0.1472592 -45.14  0.001267512    2.592    0.614
        55 -11.7492    118.4923    110.3689   8.8280108622e+01   3.6941098441e+01    0.6279263    0.4440598  66.85  0.002729424    1.802    0.445
        56 -10.1856    205.4867    110.1779   6.8101402613e+01   1.7104933448e+01    0.3187184     0.218214  42.11 0.0007686931    1.543    0.352
        57 -10.9028     66.8138    104.3741   1.0205563157e+02   4.7219148310e+01     0.331339    0.2790226  19.59  0.001877606    1.388    0.280
        58  -9.7810     64.0179     99.6731   1.0185854805e+02   4.8709937296e+01    0.1860756    0.1819616 -44.64 0.0005395554    1.107    0.096
        59 -11.7149     52.4695     90.5216   1.0348833846e+02   5.2299266650e+01    0.3925764    0.2168186 -54.85  0.001208642    1.537    0.349
        60 -10.4297     36.9206    224.3088   1.2459190921e+02   2.3826421721e+01    0.1361789    0.1192851  55.78 0.0004171181    1.385    0.278
        61  -9.4231     61.6017    219.6608   1.1967830280e+02   2.1693082757e+01    0.3901197    0.1718938  75.54  0.001714712    3.066    0.674
        62  -9.3149    155.8410     81.1715   7.0368756961e+01   3.4573841382e+01     0.215082    0.1873285  12.06  0.000408776    1.291    0.225
        63  -9.9573     65.3983     70.2991   9.3512610243e+01   5.5147785283e+01    0.2351635    0.2128022  49.59  0.001011016    1.319    0.242
        64 -10.1048    250.0000    248.0056   8.8148758868e+01  -1.1689426260e+01    0.1593367   0.05784965 -31.05 0.0005639316    2.948    0.661
        65 -10.0897    169.1210    236.3952   1.0084035413e+02   2.0850517665e+00    0.1817091    0.1767089 -45.56 0.0004210564    1.291    0.226
        66  -9.8547     43.4699    236.6774   1.2424497969e+02   2.0756054637e+01    0.1199122   0.09165496 -85.39 0.0007382882    1.318    0.241
        67 -11.4081     60.9489    233.7536   1.2094618575e+02   1.9116078655e+01    0.1939904    0.1351817  79.46 0.0003610448    1.242    0.195
        68 -10.8713    158.8666     52.6229   6.0813981237e+01   3.8726035623e+01    0.2889018    0.2590022  69.77 0.0004506102    1.119    0.106
        69 -16.0514     70.8177    147.1368   1.0906506823e+02   3.6365542658e+01     11.52991     5.393912  82.17   0.01571171    7.898    0.873
        70 -10.6413    175.2405    212.6179   9.6044028242e+01   4.7262581563e+00    0.1936282    0.1094619  33.33 0.0006861994    1.640    0.390
        71 -10.0579     93.5481    249.7856   1.1643318358e+02   1.1834385793e+01      0.22049    0.1755948  22.92  0.001398401    1.774    0.436
        72 -10.4036    189.9006     15.0084   4.4351994930e+01   3.5555345579e+01    0.2164813    0.1945776 -83.53 0.0007208741    1.027    0.027
        73 -10.4316     54.0303    231.6344   1.2203260553e+02   2.0389877941e+01    0.2228826    0.1365483  87.58  0.001431127    1.510    0.338
        74  -9.3505     49.3890    217.2717   1.2179666557e+02   2.3708775943e+01    0.2706336    0.1762184  23.37  0.001564903    2.380    0.580
