#   1 NUMBER                 Running object number                                     
#   2 MAG_AUTO               Kron-like elliptical aperture magnitude                    [mag]
#   3 X_IMAGE                Object position along x                                    [pixel]
#   4 Y_IMAGE                Object position along y                                    [pixel]
#   5 X_WORLD                Barycenter position along world x axis                     [deg]
#   6 Y_WORLD                Barycenter position along world y axis                     [deg]
#   7 A_WORLD                Profile RMS along major axis (world units)                 [deg]
#   8 B_WORLD                Profile RMS along minor axis (world units)                 [deg]
#   9 THETA_WORLD            Position angle (CCW/world-x)                               [deg]
#  10 FWHM_WORLD             FWHM assuming a gaussian core                              [deg]
#  11 ELONGATION             A_IMAGE/B_IMAGE                                           
#  12 ELLIPTICITY            1 - B_IMAGE/A_IMAGE                                       
         1 -14.5584     68.4169    144.1833   1.1002848478e+02   3.7267752269e+01     5.248087     2.471529  67.92  0.004565246    3.965    0.748
         2 -13.6803    192.8211     39.3597   5.2213068670e+01   3.1918173963e+01     1.294048    0.8489198  47.71  0.001472601    1.610    0.379
         3 -14.3582    201.3011     33.0469   4.9242864909e+01   3.0586930323e+01     2.169981     1.551788  14.10   0.00904163    1.986    0.497
         4 -12.5715    210.0609     24.0949   4.5727658066e+01   2.9494011655e+01     0.533824    0.4010269  44.81  0.001101261    1.525    0.344
         5 -14.1554    215.8084     17.2683   4.3314576793e+01   2.8869991998e+01     1.327986     1.068962  38.90  0.002752434    1.515    0.340
         6 -12.9693      3.8591      7.2341   9.8458564772e+01   7.2996891250e+01     1.319857    0.3578349 -46.44  0.006323172    2.619    0.618
         7 -10.6740     43.1266      3.8962   7.6669148353e+01   6.9362577507e+01    0.1695845    0.1479081 -10.60 0.0004836885    1.284    0.221
         8  -9.0369    107.5720    203.4899   1.0951996347e+02   1.8290976004e+01    0.1300042    0.1106183  64.63 0.0001272518    1.018    0.018
         9 -15.7105     82.8554    245.1986   1.1862983936e+02   1.4359178318e+01      8.18138     2.782716  35.47   0.03159698    3.351    0.702
        10 -16.3081      7.3646    200.5747   1.2896142689e+02   3.1573503099e+01     6.757159     1.249671 -74.08  0.007945364    4.050    0.753
        11  -9.9025    204.4985    199.4491   8.9260138034e+01   1.9346699349e+00    0.1331128    0.1138316  20.13 0.0001256545    1.007    0.007
        12  -9.1640    141.0744    198.0040   1.0175063420e+02   1.3651823892e+01    0.2057281    0.1525696  73.15 0.0004957057    1.613    0.380
        13 -11.5845    193.3587    193.6916   9.0358396145e+01   4.8484583201e+00    0.8296158    0.4699354 -57.44  0.003577604    2.887    0.654
        14  -9.1441    151.9001    193.7816   9.8802800502e+01   1.2485500166e+01     0.183531    0.1514147  67.19 0.0003992155    1.320    0.243
        15  -9.5692     96.8255    190.2526   1.1004892306e+02   2.2684969385e+01    0.2267428    0.1761134 -73.97  0.000636717    1.291    0.225
        16  -9.0685     99.1508    187.1091   1.0911691605e+02   2.2976502089e+01    0.2154354    0.1645515  66.00 0.0008835036    1.223    0.182
        17  -9.5278     73.3828    188.0469   1.1481836453e+02   2.6635396424e+01    0.1767274    0.1396239  88.23 0.0004763899    1.130    0.115
        18 -10.3006    206.3928    181.3465   8.5467411627e+01   4.4525716232e+00    0.3264925    0.2322924 -65.67  0.001552221    2.384    0.581
        19 -12.2053     67.1780    180.3559   1.1526500930e+02   2.9152364640e+01    0.3860932    0.2816653 -40.60  0.001893026    1.937    0.484
        20 -12.0121     71.8320    174.8184   1.1355312581e+02   2.9738762772e+01    0.3172536    0.2399194 -48.35 0.0008590528    1.602    0.376
        21  -9.7488     99.5422    180.8033   1.0813749847e+02   2.4256284576e+01    0.2221603    0.2077933   5.12 0.0005944202    1.395    0.283
        22  -9.4656    209.9597    179.0000   8.4316781158e+01   4.1690411483e+00    0.2308118   0.07350879  43.64  0.000810591    2.999    0.667
        23 -10.4506     39.7709    177.4452   1.2089766114e+02   3.3157941004e+01    0.2585423    0.1476862  66.66 0.0009408657    1.649    0.394
        24 -13.5032     68.4509    161.2003   1.1253562458e+02   3.3287322257e+01    0.5855644    0.4459976 -45.13  0.001362887    1.590    0.371
        25  -9.8886    174.0989    248.5731   1.0262535755e+02  -4.6563918543e-02    0.1888497    0.1644533  82.10 0.0009461736    1.588    0.370
        26  -8.7074    202.4820    171.4887   8.4244010064e+01   6.8416200616e+00    0.1401743    0.1292279  13.83 4.058133e-05    1.031    0.030
        27 -10.6197    137.5163    170.8129   9.7915738575e+01   1.9698829832e+01    0.2296453    0.1986343  20.79 0.0009412699    1.310    0.237
        28 -10.7601    194.5900    167.8405   8.5059201215e+01   9.0232451661e+00    0.3143896    0.2921227  52.87  0.001026404    1.198    0.165
        29 -10.0289    146.0122    168.5023   9.5571126788e+01   1.8547732519e+01    0.2184094    0.1362002  43.81 0.0004795816    1.517    0.341
        30  -9.7575    230.6145    166.3055   7.7875839225e+01   2.3627490749e+00    0.1288638    0.1115274 -84.33 0.0001204731    1.798    0.444
        31  -9.1922    161.1363    165.2162   9.1567473996e+01   1.6225272078e+01    0.1959969    0.1724806 -88.38 0.0005520954    1.332    0.249
        32  -9.3979     37.9902    161.5494   1.1970145025e+02   3.6898412493e+01    0.1688692    0.1180378  38.52 0.0005968067    1.591    0.371
        33  -9.0101     47.6976    160.3096   1.1732042549e+02   3.6102559736e+01    0.1321827   0.08249795  72.68 0.0002252658    1.606    0.377
        34 -11.0464    133.7141    143.7581   9.3435637712e+01   2.6265176048e+01     1.133699    0.2683536 -53.93  0.002666232    5.962    0.832
        35 -11.6569     54.3782    147.9928   1.1414151835e+02   3.8171499582e+01    0.4252629     0.277686 -71.27  0.002229705    1.342    0.255
        36 -10.4664    174.5042    148.1993   8.5022891529e+01   1.6846048531e+01    0.3950799    0.2806129 -50.89  0.001197414    1.519    0.342
        37 -10.7372     38.7672    146.3006   1.1778795030e+02   4.0326888248e+01    0.2807511    0.2082214  65.29 0.0008282614    1.316    0.240
        38 -11.5469     30.3024    144.2170   1.1961970470e+02   4.1658381795e+01    0.4587583    0.2697922  40.93  0.002628318    1.822    0.451
        39 -12.5363     88.5858    142.4827   1.0454616783e+02   3.4701573025e+01     0.445723    0.3349586  14.43  0.000723137    1.869    0.465
        40 -10.3506    100.5292    143.5066   1.0167191426e+02   3.2495742618e+01    0.3034405     0.284025 -82.63 0.0008191396    1.021    0.020
        41  -9.9710    103.5152    139.9730   1.0021601655e+02   3.2803366863e+01    0.3576653     0.237467 -35.29  0.001028509    1.900    0.474
        42  -9.5348     79.3639    139.7526   1.0645210675e+02   3.6762094745e+01    0.2205146    0.1763359  60.34   0.00121858    1.272    0.214
        43  -9.4258     36.8408    140.3646   1.1753388974e+02   4.1913216253e+01    0.1620682    0.1451018  79.45  0.000461604    1.146    0.127
        44 -11.0511    135.6836    124.1600   8.8462660268e+01   3.0209346336e+01    0.4702181    0.1618715 -45.40  0.001502702    2.884    0.653
        45 -14.0875     33.0385    246.7110   1.2710469347e+02   2.0351080790e+01    0.9331477    0.7223517  44.08  0.007437095    1.524    0.344
        46 -10.2316    111.1412    131.6978   9.6510656786e+01   3.3356125499e+01    0.3082391    0.2623835   6.75 0.0007513305    1.484    0.326
        47 -10.1713    106.1582    130.8232   9.7630045072e+01   3.4468633775e+01    0.3352947    0.2908886  88.40  0.001014719    1.203    0.169
        48 -11.0956     98.3735    128.0638   9.9114776143e+01   3.6486186531e+01     0.298281    0.2521822 -30.45 0.0006863133    1.368    0.269
        49 -11.9519     80.8991    164.9428   1.1011393338e+02   3.0662939388e+01    0.4461648    0.3118495  87.27 0.0004066298    1.491    0.330
        50 -16.1040      9.5397    240.9749   1.3053824710e+02   2.3827988373e+01     1.912096     1.419553 -69.31   0.01246923    1.739    0.425
        51 -10.2596    160.7112    127.3428   8.3219181674e+01   2.4096884638e+01    0.2949791    0.1916869 -54.42  0.001005259    1.699    0.411
        52 -10.2060    125.7486    127.4218   9.1760697047e+01   3.1519065859e+01    0.3419177    0.2297138 -78.64  0.001173143    2.163    0.538
        53 -10.7462    117.1315    126.0641   9.3678144100e+01   3.3523652202e+01    0.4136076    0.2284019 -56.67  0.001530074    1.873    0.466
        54 -11.4924     14.2020    120.7838   1.2102402920e+02   4.8466927239e+01    0.3299116    0.1825406  89.86  0.001799536    1.723    0.420
        55  -9.9254    107.7159    120.0200   9.4784773132e+01   3.6698523339e+01    0.2186782     0.208793  51.43 0.0003133222    1.091    0.083
        56 -12.7815     87.0865    158.4449   1.0764104737e+02   3.1215066155e+01     1.148384    0.7186146 -63.31  0.001818261    1.530    0.346
        57  -9.9174     96.7206    200.6923   1.1141410313e+02   2.0560003219e+01    0.2836559    0.2252667 -20.27  0.001182352    2.082    0.520
        58 -11.3766     23.6554    116.6211   1.1791099207e+02   4.8705730496e+01    0.3531366    0.2031186 -70.19  0.001239137    1.390    0.280
        59 -11.1474     22.4150    109.1765   1.1720932858e+02   5.0550403718e+01    0.2871395    0.2375355  74.93  0.001169973    1.272    0.214
        60 -13.4342     41.6636    208.6075   1.2316190383e+02   2.6420795130e+01    0.4330117    0.3768373 -89.88   0.00138024    1.280    0.219
        61  -9.9280    168.1794    112.8304   7.7834353986e+01   2.5384781187e+01    0.3638098    0.2419525 -63.07   0.00116192    1.974    0.494
        62 -10.0225    134.7862    112.5203   8.5760802878e+01   3.2964707239e+01    0.3031126    0.2124345 -45.21  0.001368611    1.402    0.287
        63 -10.1435    205.5031    110.3187   6.9526032412e+01   1.7188758838e+01    0.3130246    0.2523659  34.95 0.0009232591    1.319    0.242
        64  -8.9828    114.6499    110.6684   9.0607597283e+01   3.7523367278e+01    0.1578834    0.1215774  -8.91 0.0007047875    1.773    0.436
        65 -10.3744    134.5062    103.7273   8.3487738910e+01   3.4934076205e+01    0.5885062    0.1519057 -44.04  0.001612096    3.794    0.736
        66 -11.7563     42.0736    104.3641   1.1054948650e+02   4.9912260470e+01    0.4154802    0.2448165  50.63  0.002110134    2.035    0.509
        67 -15.1378     50.3823    198.6755   1.2065773256e+02   2.7399135613e+01     2.475878     1.192757  60.91  0.009667018    1.951    0.487
        68 -12.3462    244.4240     98.7315   6.0176811328e+01   1.0559346721e+01    0.5254218     0.265164 -48.71  0.002215408    2.109    0.526
        69  -8.8308     91.4536    102.5412   9.5135547025e+01   4.3640648473e+01     0.147285    0.1353779 -72.11 0.0008053822    1.102    0.093
        70  -9.8689     32.5869     99.8962   1.1265150166e+02   5.1871470136e+01    0.2451778     0.149955  48.89  0.001327278    1.955    0.489
        71  -9.5890    121.7581     98.6148   8.5452247809e+01   3.8765625595e+01    0.2117779    0.1466727  55.16 0.0004145448    1.596    0.373
        72 -11.3441      2.1001     79.9362   1.1907720857e+02   5.8557743700e+01    0.4424429    0.1139949 -67.90  0.001851053    2.747    0.636
        73  -9.8728     66.2138    103.3904   1.0295236178e+02   4.7289729830e+01    0.2379314    0.1772841  47.49  0.001280871    1.505    0.336
        74  -9.5821    158.1986     80.4229   7.0991626825e+01   3.4122128115e+01     0.211916    0.1532459  66.20 0.0004767542    1.564    0.361
        75  -9.0768    184.2343     77.5607   6.4723679265e+01   2.8177769170e+01    0.2219941    0.1415735  44.16 0.0009451823    1.659    0.397
        76 -11.1823      1.6895     89.1319   1.2057477563e+02   5.6512761530e+01    0.3429323     0.131209 -77.61  0.001595668    2.343    0.573
        77  -9.2082     54.5974     65.7362   9.7067675033e+01   5.7270236016e+01    0.1803268    0.1172517 -58.49 0.0004870759    1.552    0.356
        78 -10.3974     13.4932     59.9654   1.1112275368e+02   6.2313193269e+01    0.2127129    0.1748447 -64.39 0.0004219492    1.167    0.143
        79 -10.1244     76.8299    234.6059   1.1879854967e+02   1.7022393727e+01    0.2597943    0.1491431 -69.08  0.001267456    1.869    0.465
        80 -13.2793     46.4560    219.3256   1.2307908275e+02   2.3763501824e+01    0.9170289    0.7402787 -30.56  0.005527653    2.314    0.568
        81  -9.5483     71.7358    230.1651   1.1934034329e+02   1.8513361235e+01     0.206492    0.1199168  53.12 0.0009788502    1.375    0.273
        82 -10.2495    162.6995    213.9079   9.9832058527e+01   7.0206001041e+00    0.3904919    0.2542209 -72.79  0.001902491    2.602    0.616
        83 -11.1640    147.8531     44.1464   6.1718569819e+01   4.2783236035e+01    0.3226505    0.2726935 -72.11 0.0005927235    1.367    0.268
        84  -9.5396    143.9747     40.9882   6.1476567057e+01   4.4207368362e+01    0.2155832    0.1947623 -70.25            0    1.231    0.187
        85 -11.7633      3.2695     25.0759   1.0579009676e+02   6.9911755975e+01    0.3408401    0.2889041   0.11   0.00233581    1.371    0.270
        86  -9.0257    163.9825    204.9922   9.8168750064e+01   8.2941027563e+00    0.1541203    0.1426811  35.17 0.0004119024    1.060    0.057
        87 -11.6696    146.6269     50.9847   6.4276477952e+01   4.2056935808e+01    0.5916365    0.3842596 -78.46  0.001826004    2.563    0.610
        88 -10.4185    189.8193     15.1018   4.5647370347e+01   3.5634681344e+01     0.217607    0.1768931 -69.46 0.0006502881    1.211    0.174
        89  -8.7897    138.7034     15.2760   5.3515334946e+01   4.8688586041e+01    0.1344743    0.1056509 -70.02  0.000276467    1.530    0.346
