#   1 NUMBER                 Running object number                                     
#   2 MAG_AUTO               Kron-like elliptical aperture magnitude                    [mag]
#   3 X_IMAGE                Object position along x                                    [pixel]
#   4 Y_IMAGE                Object position along y                                    [pixel]
#   5 X_WORLD                Barycenter position along world x axis                     [deg]
#   6 Y_WORLD                Barycenter position along world y axis                     [deg]
#   7 A_WORLD                Profile RMS along major axis (world units)                 [deg]
#   8 B_WORLD                Profile RMS along minor axis (world units)                 [deg]
#   9 THETA_WORLD            Position angle (CCW/world-x)                               [deg]
#  10 FWHM_WORLD             FWHM assuming a gaussian core                              [deg]
#  11 ELONGATION             A_IMAGE/B_IMAGE                                           
#  12 ELLIPTICITY            1 - B_IMAGE/A_IMAGE                                       
         1 -13.1060    220.7915     28.5904   7.7091360476e+00   2.7212284193e+01    0.8028836    0.4816442 -66.15  0.003947076    1.611    0.379
         2 -13.7238    224.6186     24.3827   6.4246928557e+00   2.6882243386e+01    0.8546934    0.6404942 -57.87  0.003446791    1.175    0.149
         3 -11.7542     59.2962      3.4348   3.0337879157e+01   6.6286951310e+01    0.3297282    0.1361096  41.37  0.001639785    1.984    0.496
         4 -11.3982     38.1244      3.0606   3.8753156968e+01   6.9762126990e+01    0.2252908    0.1493403 -28.08  0.001459065    1.624    0.384
         5 -12.4044    248.9498    235.4268   4.6929043598e+01  -1.0874871238e+01    0.5798569    0.1752925 -36.87  0.002383355    3.156    0.683
         6  -9.9339    164.4308    249.0277   6.5428853831e+01  -7.8301150513e-01     0.218519    0.1745001 -12.79  0.000790844    1.393    0.282
         7 -19.4815     11.9240    143.1388   8.7737823300e+01   4.3780011635e+01     18.31028     5.241031 -76.71   0.06568823    3.360    0.702
         8 -10.0835     36.1835    193.5812   8.6832162671e+01   2.9390438824e+01    0.3187613    0.1825244 -69.49  0.001372548    1.579    0.367
         9 -11.5306     33.5574    188.4732   8.6949714390e+01   3.0869798751e+01    0.4971362    0.3636084  66.25  0.002993675    1.252    0.201
        10  -8.6595     69.2540    195.7160   7.9312584558e+01   2.4800919349e+01     0.412053    0.1321389 -61.87  0.001536717    2.918    0.657
        11 -15.8545     67.3498    144.0568   7.2067338656e+01   3.7788572048e+01     3.170661     2.777009  66.69   0.01767727    1.196    0.164
        12 -11.8431    141.7943    183.3140   5.9575414741e+01   1.5691572525e+01    0.3777585    0.2835385  37.23 0.0008751551    1.282    0.220
        13  -8.9655     78.3249    183.7066   7.5477587627e+01   2.6365498464e+01    0.1478738    0.1002181  67.15 0.0002836537    1.619    0.382
        14 -11.9490     53.6527    180.9639   8.1293943797e+01   3.0362729233e+01    0.4279408    0.2826223 -34.08  0.001444243    2.149    0.535
        15 -11.6843    179.6662    169.1943   4.7908977810e+01   1.1446863724e+01    0.8856503    0.6520009   2.19  0.004137047    1.684    0.406
        16 -10.4737    174.6197    180.2199   5.1323006110e+01   1.0157221769e+01    0.3287932     0.246747 -37.40 0.0008399875    1.337    0.252
        17 -10.9968    172.6916    176.5636   5.1008129115e+01   1.1274161672e+01    0.4399829    0.3327546 -56.03  0.001693776    1.515    0.340
        18  -9.9322     58.6923    233.4016   8.5616308922e+01   1.7907924386e+01    0.1314268    0.1090457  41.58 0.0002023536    1.265    0.210
        19 -12.1730    110.8561    167.3128   6.4321456089e+01   2.5063422221e+01    0.6279552    0.4067677 -83.48  0.001021543    2.267    0.559
        20  -9.5212     71.1055    175.7795   7.6172021088e+01   2.9328018602e+01    0.2233252    0.1776019  65.38  0.001208232    1.250    0.200
        21 -11.3722    139.8084    171.5360   5.7757903827e+01   1.8704239890e+01    0.2867298    0.2795907  63.20 0.0006908258    1.060    0.057
        22  -9.9503    231.3109    160.3073   3.5701022568e+01   3.5457369382e+00    0.1402786    0.1004638  -5.30 0.0002202699    1.619    0.382
        23 -11.0273    237.8782    158.8557   3.4249860149e+01   2.6745486505e+00    0.2409112    0.1625015  29.78  0.001264576    1.663    0.399
        24 -11.6048     53.1010    231.3804   8.6582510670e+01   1.9035586040e+01    0.2173816    0.1487391 -66.20 0.0008469684    1.547    0.354
        25 -10.5905     93.0957    156.7426   6.7100895233e+01   3.0698875377e+01     0.478673    0.2802336  87.10  0.001656003    3.214    0.689
        26 -11.6488    133.6589    145.4927   5.3742101351e+01   2.5943519819e+01     1.276091    0.3038608 -53.39  0.002877738    5.791    0.827
        27 -10.8863     47.3658    229.2695   8.7573586808e+01   2.0182819008e+01    0.1563087    0.1112396  77.70  0.000836247    1.241    0.194
        28 -11.4002     37.7128    224.8591   8.9181708979e+01   2.2251413542e+01    0.1881359    0.1482378  78.37 0.0004019415    1.059    0.055
        29 -11.4916    109.0649    145.2636   6.0337447510e+01   3.0752585814e+01    0.3760126    0.3402439 -25.56  0.001524846    1.182    0.154
        30  -9.9297    147.9944    144.4866   4.9848042704e+01   2.3233562505e+01    0.2339946    0.1554775  41.63 0.0003665587    1.513    0.339
        31 -11.3690    158.9020    222.2877   6.2500967147e+01   4.7244348100e+00    0.2584545    0.2020961 -33.39 0.0008663738    1.400    0.286
        32 -12.4584    105.3088    131.3309   5.8272470190e+01   3.4840457464e+01    0.6835524    0.5299134 -56.58  0.003277414    1.286    0.222
        33 -11.0248    135.7807    130.1556   4.9547537269e+01   2.9066751370e+01    0.5314693    0.1276093 -46.12  0.001376756    4.106    0.756
        34 -11.6049     94.0036    131.4704   6.1619601485e+01   3.6822366630e+01    0.3180354    0.2851003 -57.09   0.00036204    1.081    0.075
        35 -10.7086    161.4225    125.9028   4.2089570647e+01   2.4461038668e+01     0.529395    0.1515249 -43.74  0.001511923    3.431    0.709
        36  -8.6325    144.3157    123.3184   4.5625046569e+01   2.8784164724e+01     0.162512    0.1269232  -2.05 0.0003696177    1.653    0.395
        37 -10.4952    101.2897    120.7746   5.6920653567e+01   3.8123959593e+01    0.2812168    0.2423871 -13.65 0.0005055855    1.284    0.221
        38 -10.6877    113.6588    125.7637   5.4535193460e+01   3.4590987778e+01    0.3217789    0.2507936  -9.47 0.0009779605    1.625    0.385
        39 -10.9109     86.1476    118.3241   6.0953685450e+01   4.1360681528e+01    0.5252336    0.2213723 -59.64  0.001801455    2.708    0.631
        40  -9.8642    158.0611    113.8070   3.9795104415e+01   2.7784456202e+01     0.288674    0.2156848 -69.45  0.001268252    1.692    0.409
        41 -10.3999    108.9637    116.2454   5.3501119227e+01   3.7744429705e+01    0.3391207    0.2404103 -26.05 0.0006845414    1.671    0.402
        42 -11.5264    115.6365    108.7303   4.9570308459e+01   3.8139777286e+01    0.5720121    0.3100515  57.91  0.002048478    2.598    0.615
        43 -10.0026    151.0762    105.7063   3.9318804509e+01   3.1064086746e+01    0.2852722    0.2178117 -70.38 0.0009842596    1.639    0.390
        44 -10.5601    133.7691    104.7537   4.3453049124e+01   3.5157148631e+01    0.3803491     0.267904 -63.09 0.0009046232    1.753    0.429
        45 -11.7757    118.8566    103.3443   4.7168728902e+01   3.8670034988e+01    0.3497418    0.3114825 -74.81 0.0009357113    1.287    0.223
        46 -10.7964    120.7059     98.8198   4.5372030522e+01   3.9258212506e+01    0.2778841    0.2133142  30.34 0.0007538085    1.375    0.273
        47 -11.1312     89.8615    249.6950   8.0823089927e+01   1.0440437777e+01    0.1899781      0.16597 -78.42  0.000542252    1.282    0.220
        48 -10.2196     71.4725    223.0462   8.1927023488e+01   1.8374419000e+01    0.1686324    0.1204737 -72.56 0.0003103246    1.426    0.299
        49 -10.5284     27.1498    250.4905   9.2928047148e+01   1.8277150226e+01    0.1111493    0.1023332  20.80 0.0006005888    1.619    0.382
        50 -11.6084     29.4993     87.8281   7.3235081186e+01   5.5780146670e+01    0.2927381    0.2288823   4.83 0.0002484264    1.421    0.296
        51 -11.4009    124.8144     86.8326   4.0739199800e+01   4.0839084848e+01    0.4852145    0.3528348  84.50   0.00130709    2.144    0.533
        52 -10.8902    120.5956     83.2033   4.0816764596e+01   4.2481394618e+01    0.4696909     0.311661  81.48   0.00174514    2.900    0.655
        53 -10.3376     59.6991     85.9415   6.1520676344e+01   5.2889712074e+01    0.2401954    0.2038132  33.79 0.0003843239    1.303    0.232
        54 -12.4890     32.2536     76.7510   6.9503510754e+01   5.8023462069e+01    0.5786538    0.2809665 -58.49  0.001818168    1.899    0.473
        55 -10.9787     88.5304    221.0861   7.7965703336e+01   1.6351772765e+01    0.3976605    0.2766895  42.87   0.00203128    1.291    0.225
        56 -10.7282     85.3136     75.8785   4.9423922283e+01   5.0995044379e+01    0.4826491     0.298354  62.60  0.001907159    2.857    0.650
        57  -9.6109     51.1823    200.9626   8.4136072914e+01   2.5936672005e+01     0.238906   0.09439812 -73.97 0.0008622567    2.584    0.613
        58 -12.5687    178.6184     65.3778   2.2471605887e+01   3.1925870821e+01     0.476677    0.4358787 -69.16 0.0008242459    1.066    0.062
        59  -9.8826    211.0124    198.7507   4.7333170188e+01   2.0418367670e-01    0.2208385    0.1809056 -22.08 0.0004807333    1.137    0.120
        60 -13.6662    195.2032     53.0310   1.6590024445e+01   2.9828786681e+01     1.211898    0.9112959  44.14  0.003979622    1.540    0.351
        61 -12.3183    201.2144     47.4903   1.4376170376e+01   2.9201267561e+01    0.5172368    0.3938281  51.18  0.001440212    1.446    0.309
        62  -9.2501    144.6911     62.0810   2.8277805449e+01   4.0675055185e+01    0.1982089     0.188088 -39.52 0.0004527155    1.102    0.092
        63 -11.3356     52.6028     58.7529   5.5893636765e+01   5.9452950098e+01    0.3504757    0.2926332  43.00  0.002088198    1.505    0.336
        64 -11.0166     55.7727    193.6192   8.2271892476e+01   2.7074015039e+01    0.4197211    0.2133238  58.44  0.001904876    2.106    0.525
        65 -10.0329     58.7970     46.1505   4.8869663936e+01   6.0828440759e+01    0.1845645    0.1693258  -9.25 0.0003592673    1.184    0.155
        66  -9.9041    111.1961     38.1460   2.8551762705e+01   5.1991767493e+01    0.2370902     0.195548  67.06  0.000658119    1.343    0.255
        67 -10.6146     49.8582    248.4837   8.8584724576e+01   1.6013777734e+01     0.126404    0.1009402  46.99 0.0004012914    1.226    0.184
        68 -10.3801     21.7155    246.5185   9.3678665287e+01   1.9631080135e+01    0.1129848   0.09647538  56.79 0.0008515762    1.275    0.216
        69 -10.8768     53.6117    189.1118   8.2272000511e+01   2.8410963211e+01    0.2328478    0.1891999  85.05 0.0004027477    1.108    0.097
        70 -10.9341     60.8637     21.4349   3.7939300418e+01   6.4092279679e+01    0.2414369    0.1952733  41.93 0.0008627441    1.385    0.278
        71 -10.0158     48.4097    193.7843   8.4023437129e+01   2.7941636244e+01    0.1723841    0.1431976 -80.85  0.001053783    1.114    0.102
        72  99.0000     53.4358    241.2951   8.7336468145e+01   1.6979403195e+01     0.310089    0.1532711  49.87  0.001682574    1.671    0.401
