#   1 NUMBER                 Running object number                                     
#   2 MAG_AUTO               Kron-like elliptical aperture magnitude                    [mag]
#   3 X_IMAGE                Object position along x                                    [pixel]
#   4 Y_IMAGE                Object position along y                                    [pixel]
#   5 X_WORLD                Barycenter position along world x axis                     [deg]
#   6 Y_WORLD                Barycenter position along world y axis                     [deg]
#   7 A_WORLD                Profile RMS along major axis (world units)                 [deg]
#   8 B_WORLD                Profile RMS along minor axis (world units)                 [deg]
#   9 THETA_WORLD            Position angle (CCW/world-x)                               [deg]
#  10 FWHM_WORLD             FWHM assuming a gaussian core                              [deg]
#  11 ELONGATION             A_IMAGE/B_IMAGE                                           
#  12 ELLIPTICITY            1 - B_IMAGE/A_IMAGE                                       
         1 -17.3255    110.7302    209.9651   1.2653568631e+02   1.9733782236e+01     2.416168     1.312062  21.33    0.0114123    3.559    0.719
         2 -16.5186    117.4693    237.8453   1.2806239774e+02   1.4836555247e+01     2.280886     1.758527  -9.41   0.01648856    2.297    0.565
         3 -15.2145    167.7038    222.8835   1.1798439447e+02   9.6154451426e+00    0.6953964    0.3737381  40.68  0.003333375    1.431    0.301
         4 -16.3500    169.5755    212.2677   1.1627903388e+02   1.0662278959e+01     1.313551     0.739123  23.98  0.007286394    2.061    0.515
         5 -17.2552    163.4403    189.7405   1.1417004126e+02   1.4725155772e+01     2.089487    0.8714871  39.46  0.009902186    2.044    0.511
         6 -18.6908    127.6636    153.9049   1.1563892733e+02   2.6684419160e+01     3.098995      1.66922  32.21   0.01456833    2.062    0.515
         7 -12.9223    100.1556    231.5604   1.3038857509e+02   1.7960857338e+01    0.2875523    0.1295571  46.41  0.001372551    1.664    0.399
         8 -15.5890    213.3629    225.3248   1.1071021015e+02   2.5045341997e+00     1.065611    0.5232095  33.40  0.006432521    1.566    0.361
         9 -14.4414    150.6478    224.7328   1.2112718304e+02   1.1913030108e+01    0.5066026    0.3695683 -69.07  0.003550519    2.005    0.501
        10 -15.4361    245.7106    241.9911   1.0802902545e+02  -3.5414934584e+00    0.5924039    0.2061221  34.07   0.00332808    2.098    0.523
        11 -15.9713    153.3874    177.9542   1.1427082948e+02   1.8191854094e+01     1.022415    0.8145366 -40.97  0.005115492    1.446    0.308
        12 -16.5322    185.5524    167.5503   1.0625864197e+02   1.4139070712e+01    0.9552664    0.5626364 -42.17  0.004997884    1.970    0.492
        13 -14.1468    137.4901    169.9195   1.1618592932e+02   2.2182654743e+01    0.4705296    0.2635248  53.88  0.002370041    1.870    0.465
        14 -15.8460    172.7284    158.8213   1.0712137002e+02   1.7804465661e+01    0.7879016    0.5357519  25.01  0.004204954    1.528    0.346
        15 -16.2822    169.6469    145.4218   1.0511411767e+02   2.0557471328e+01     1.070682    0.6625887 -64.86  0.004501031    2.991    0.666
        16 -18.4835     69.9838    185.0592   1.3173239731e+02   2.9244507945e+01     5.245539     2.085489  62.21   0.02346859    3.286    0.696
        17 -18.7090     95.3735    167.0608   1.2457363112e+02   2.9235380773e+01     5.351381     2.429799  59.95   0.02323495    2.941    0.660
        18 -18.5445     44.4453    200.0031   1.3766157800e+02   2.9485646078e+01     5.973957     3.027483  64.12   0.03891743    1.716    0.417
        19 -16.6677     79.3585    127.5126   1.2252663480e+02   3.9476391546e+01       1.1502     0.904561 -14.04  0.006580192    1.862    0.463
        20 -15.0834    165.9788    232.7480   1.1947424999e+02   8.6850886583e+00    0.8949814    0.4226955  51.67  0.004998536    2.202    0.546
        21 -16.0046    175.7837    126.5009   9.9740570497e+01   2.2511056485e+01    0.6229138    0.5034784 -89.86   0.00315555    1.856    0.461
        22 -17.3673     88.9181    207.0796   1.3020290218e+02   2.3110560164e+01     1.526203    0.8840976  42.52  0.008509618    1.449    0.310
        23 -16.1105    126.0348    126.1209   1.1077057830e+02   3.2320809285e+01    0.6044546    0.4280439 -43.76   0.00315434    1.457    0.314
        24 -15.2849     57.2224    115.9836   1.2642322493e+02   4.4771450550e+01    0.7581441    0.5089101 -21.18  0.003941536    2.469    0.595
        25 -15.2604    226.0059    134.6313   9.2096006142e+01   1.1142597841e+01    0.4721408    0.2998998 -22.65  0.002452424    1.519    0.342
        26 -14.3878    208.9041    102.3802   8.7362140478e+01   1.9253507946e+01     0.508579     0.206008  37.65  0.001806038    2.808    0.644
        27 -15.5104     49.0717    105.7763   1.2705972105e+02   4.7942232083e+01    0.5726166      0.35292   8.95  0.002937213    2.601    0.615
