#   1 NUMBER                 Running object number                                     
#   2 MAG_AUTO               Kron-like elliptical aperture magnitude                    [mag]
#   3 X_IMAGE                Object position along x                                    [pixel]
#   4 Y_IMAGE                Object position along y                                    [pixel]
#   5 X_WORLD                Barycenter position along world x axis                     [deg]
#   6 Y_WORLD                Barycenter position along world y axis                     [deg]
#   7 A_WORLD                Profile RMS along major axis (world units)                 [deg]
#   8 B_WORLD                Profile RMS along minor axis (world units)                 [deg]
#   9 THETA_WORLD            Position angle (CCW/world-x)                               [deg]
#  10 FWHM_WORLD             FWHM assuming a gaussian core                              [deg]
#  11 ELONGATION             A_IMAGE/B_IMAGE                                           
#  12 ELLIPTICITY            1 - B_IMAGE/A_IMAGE                                       
         1 -15.0062    166.5755     46.8659   7.1076516741e+01   3.7496712710e+01     1.448473     1.136705   0.44  0.004111852    1.358    0.264
         2 -15.3180    184.9097     13.8665   5.7056320335e+01   3.6490119749e+01     2.443653     1.549639  69.25  0.007296311    1.567    0.362
         3 -10.6108     30.4357    246.5020   1.3308384893e+02   2.5372416960e+01   0.08855413   0.06010103  63.72 0.0008067806    1.042    0.040
         4 -13.8275    103.1703    243.7812   1.2208714173e+02   1.7324941008e+01    0.7805517    0.3539911 -61.70  0.005138406    2.820    0.645
         5 -19.8547     65.2835    164.3363   1.2140351580e+02   3.4826264230e+01     13.87632     6.039171 -70.35   0.07325837    2.332    0.571
         6 -12.2359    151.5510    190.5154   1.0799355334e+02   1.7470040802e+01    0.3084408    0.1738064 -59.28  0.001645367    2.509    0.601
         7 -12.5891    153.4544    184.4274   1.0674312901e+02   1.8038965138e+01    0.2962617    0.2656569  22.12  0.001571767    1.208    0.172
         8 -11.6100     36.2907    186.6262   1.2890249335e+02   3.4060659681e+01     0.234058    0.1858983 -38.09  0.001525852    2.155    0.536
         9 -12.7396    165.2134    187.2701   1.0501443428e+02   1.5592179031e+01    0.3773803    0.1825551  47.65  0.000914951    1.764    0.433
        10 -12.2790    169.1771    183.4020   1.0368399047e+02   1.5440426779e+01    0.2585824    0.1996184  16.08   0.00121856    1.469    0.319
        11  -9.0827    127.5084    222.4987   1.1619248795e+02   1.6759784897e+01    0.1100814    0.0827755  52.31 0.0001386679    1.036    0.034
        12 -11.8854    162.9297    181.8264   1.0458274161e+02   1.6768909918e+01    0.2479486    0.1827342 -49.57  0.001532792    1.657    0.397
        13 -13.6034    188.3994    175.5043   9.8865293241e+01   1.3054762962e+01    0.8052579    0.4395275 -50.83  0.003923764    2.702    0.630
        14 -11.5817    149.0759    179.4335   1.0680302659e+02   1.9546157442e+01    0.2023309    0.1823458 -77.16  0.000581576    1.311    0.237
        15 -12.8291    125.0860    171.9495   1.1031919665e+02   2.4805053471e+01    0.2937355    0.2504998  73.16  0.001155723    1.175    0.149
        16 -12.1105    140.4424    163.4205   1.0592533214e+02   2.3612721755e+01    0.3114054    0.2243623  80.86 0.0004236306    1.895    0.472
        17 -14.4961    142.1558    171.9813   1.0697188718e+02   2.1913785167e+01    0.8806309    0.7004809  64.32  0.003099862    1.293    0.227
        18 -11.4761    217.9952    219.4546   1.0091521422e+02   2.9094372044e+00    0.1955511    0.1354248 -48.88  0.001261931    2.439    0.590
        19 -12.0136    194.7982    172.4834   9.7178716666e+01   1.2274595985e+01    0.3171198     0.223175 -48.04  0.001635789    1.879    0.468
        20 -10.8379    207.6980    171.5153   9.4723529258e+01   1.0004293263e+01    0.2659422    0.1859486 -49.65 0.0008635244    2.054    0.513
        21 -11.0427    152.7144    220.0312   1.1168511264e+02   1.3260483813e+01    0.1978947     0.128599  47.98 0.0003348483    1.206    0.171
        22 -12.2526    177.1938    169.8582   9.9924700611e+01   1.5911267619e+01    0.2473807    0.1786141 -52.73    0.0014174    1.794    0.443
        23 -11.5861    155.6784    216.6646   1.1077322521e+02   1.3224727860e+01    0.2326784    0.2166692 -61.52  0.001857964    1.391    0.281
        24 -11.7191     23.7466    217.8276   1.3278850377e+02   3.0204627604e+01    0.1481912    0.1050198  84.66  0.001071393    1.229    0.186
        25 -11.5408     25.5287    165.0175   1.2937405992e+02   3.8971615890e+01     0.196107    0.1727553  11.11  0.001348388    1.766    0.434
        26 -10.9661    134.1648    241.7829   1.1706425431e+02   1.3320901487e+01    0.1398805     0.107823 -29.76 0.0007436976    2.065    0.516
        27 -11.6644    119.6978    212.5387   1.1645433621e+02   1.9301675972e+01    0.1741123    0.1390755  66.19  0.001305778    1.175    0.149
        28 -12.0609    188.3835    154.1790   9.4899452352e+01   1.6027847813e+01    0.6182523    0.3022804  42.79  0.002868227    1.799    0.444
        29 -12.2799    163.8940    152.1614   9.9226736481e+01   2.1112598223e+01    0.3017635    0.2612395  46.15 0.0008292026    1.069    0.065
        30 -11.1024    174.7034    148.9888   9.6481420867e+01   1.9499874526e+01    0.2305779    0.2042101  73.59 0.0005678613    1.357    0.263
        31 -11.1384    113.3047    207.2781   1.1699831591e+02   2.1011897226e+01     0.178257    0.1189474  52.89 0.0007663879    1.201    0.168
        32 -11.0076      1.7851    139.9521   1.3240129301e+02   4.5651215527e+01    0.1488551    0.1138836  88.12 0.0004643915    1.057    0.054
        33 -11.9898      6.8755    138.9056   1.3126092722e+02   4.5483798885e+01    0.3064681    0.2603423 -64.50  0.002567146    1.397    0.284
        34 -11.8069     11.8126    138.3308   1.3016658941e+02   4.5219897066e+01    0.1913168    0.1746523  19.31 0.0009383017    1.561    0.360
        35 -12.7215     11.7121    205.9705   1.3413497392e+02   3.3175199378e+01    0.2735016    0.1573937  40.73  0.002113939    1.703    0.413
        36 -12.5802    160.4990    127.5844   9.4858059715e+01   2.5845667398e+01    0.4160311    0.3234333 -59.42  0.002158707    1.565    0.361
        37  -9.6876     17.3782    200.2195   1.3294987341e+02   3.3595861838e+01   0.07409439   0.07053123  52.03   0.00026175    1.599    0.375
        38 -12.1118      6.6880    120.0562   1.2982792285e+02   4.9226654697e+01    0.1595287    0.1582446 -77.14 0.0005112669    1.391    0.281
        39 -11.0112    231.2986    113.7230   7.8366932090e+01   1.2696845652e+01    0.2595988    0.2110014  20.98   0.00076438    1.121    0.108
        40 -11.2059    168.2094    113.2159   8.9905198805e+01   2.6636389201e+01    0.3610325    0.2889192 -83.75  0.001454908    1.755    0.430
        41 -11.8703    220.0158    198.1886   9.7287534193e+01   4.7420562523e+00    0.1870122    0.1580903   5.13 0.0006875386    1.215    0.177
        42 -10.9630    205.4498    110.1834   8.1923717931e+01   1.8829281413e+01    0.3251302    0.1908793  41.65 0.0009915065    1.613    0.380
        43 -10.3992    134.7531    237.3436   1.1653399461e+02   1.3780927808e+01    0.1801351    0.1487106 -62.02  0.001486563    1.606    0.377
        44 -10.6708    112.9486    195.8052   1.1576978155e+02   2.2824130652e+01    0.3324912    0.2464173 -10.84  0.001944181    2.702    0.630
        45 -11.3786      9.9483    102.0337   1.2728086658e+02   5.2691144879e+01    0.2539254    0.1752195  86.36 0.0009582564    1.263    0.208
        46 -10.7372    152.7990    237.3337   1.1365077768e+02   1.1134773662e+01    0.1681994     0.100493  38.71 0.0006509829    1.341    0.254
        47 -10.2014    133.0102    228.9464   1.1595860347e+02   1.5097880383e+01    0.1170503   0.08905634  49.98            0    1.020    0.019
        48 -12.1845    156.6399    190.0440   1.0699517387e+02   1.6675515465e+01    0.2236629    0.2017689  29.33 0.0003076905    1.154    0.133
        49 -11.0688    125.3293    237.1510   1.1801996624e+02   1.5151650880e+01    0.1183148    0.0989044  70.62 0.0003140885    1.260    0.206
        50 -14.4034    154.7490     60.8787   7.8079585366e+01   3.8397662618e+01     1.301297     1.087976  30.57  0.001012655    1.190    0.160
        51 -11.1879    163.8516    246.8170   1.1293778205e+02   8.4339186850e+00    0.1549239    0.1101704  36.98  0.000516565    1.155    0.134
        52 -13.2142    171.3532     38.7190   6.7477393520e+01   3.7334721651e+01    0.4929272    0.4081823  -0.65 0.0008494062    1.238    0.193
        53 -11.0637     13.5834     59.9275   1.2006340876e+02   6.1304334240e+01    0.1729902    0.1588313  73.62 0.0004060605    1.283    0.221
        54 -10.7080    160.7512    234.8250   1.1209951141e+02   1.0232693012e+01    0.2187032     0.130123  30.79  0.001204277    1.684    0.406
        55 -11.3507    147.8694    184.8111   1.0784055727e+02   1.8936840760e+01    0.2931792    0.1809618  56.64  0.001125437    1.618    0.382
