#   1 NUMBER                 Running object number                                     
#   2 MAG_AUTO               Kron-like elliptical aperture magnitude                    [mag]
#   3 X_IMAGE                Object position along x                                    [pixel]
#   4 Y_IMAGE                Object position along y                                    [pixel]
#   5 X_WORLD                Barycenter position along world x axis                     [deg]
#   6 Y_WORLD                Barycenter position along world y axis                     [deg]
#   7 A_WORLD                Profile RMS along major axis (world units)                 [deg]
#   8 B_WORLD                Profile RMS along minor axis (world units)                 [deg]
#   9 THETA_WORLD            Position angle (CCW/world-x)                               [deg]
#  10 FWHM_WORLD             FWHM assuming a gaussian core                              [deg]
#  11 ELONGATION             A_IMAGE/B_IMAGE                                           
#  12 ELLIPTICITY            1 - B_IMAGE/A_IMAGE                                       
         1 -13.8307    191.8773     43.9173   4.3331906313e+01   3.1777565660e+01     1.230127    0.9944795  26.01  0.004287965    1.642    0.391
         2 -13.4978    217.8196     13.8361   3.3351141346e+01   2.9468766247e+01    0.8470219    0.7321082 -69.23  0.003853894    1.096    0.088
         3 -12.3665     54.6743      5.1288   6.0284975653e+01   6.7052017243e+01    0.4851881    0.1821398  38.55  0.002250786    2.316    0.568
         4 -10.1722     60.3089     20.9994   6.5618353056e+01   6.4336819336e+01    0.1778442    0.1456705   1.56  0.000499855    1.084    0.078
         5 -12.6327    247.0376    246.2218   7.7821172654e+01  -1.1124122854e+01    0.7555056    0.4516504 -10.35  0.004751478    1.515    0.340
         6 -10.4370     66.5331    195.0112   1.0807065637e+02   2.5451428750e+01    0.2589731    0.2226343  70.74 0.0007667069    1.051    0.049
         7  -9.5842     54.3440    240.2742   1.1523202364e+02   1.7301251056e+01    0.1631782    0.1042741  45.58            0    1.327    0.246
         8 -10.6320     38.5003    199.2589   1.1503681114e+02   2.7930059674e+01    0.2000601    0.1387585  70.03  0.001168101    1.313    0.238
         9  -9.3206     51.4261    198.3268   1.1199439657e+02   2.6628556679e+01    0.2412851    0.1535552 -36.86 0.0007943368    2.348    0.574
        10 -10.4779    194.0115    196.8401   7.9017923072e+01   3.9166336692e+00    0.4149447    0.2323761 -56.92  0.001722841    2.829    0.646
        11  -9.4606     93.1906    197.9506   1.0208600229e+02   2.0917179397e+01    0.2056397    0.1716236  75.60 0.0003190422    1.210    0.173
        12  -9.5905     83.4560    194.7768   1.0397997475e+02   2.3111579794e+01    0.3296061    0.1731218  33.68  0.001486691    1.912    0.477
        13 -19.4948     20.6066    145.4750   1.1388662519e+02   4.2612017286e+01      19.8584     5.629345 -74.60   0.06888304    3.435    0.709
        14 -11.7204     57.5715    190.8108   1.0971309062e+02   2.7606133692e+01    0.4187573    0.2756072 -37.27  0.001232541    2.112    0.526
        15 -10.9956    145.5256    183.8762   8.7188429820e+01   1.5108863532e+01    0.2779815    0.2276692  66.29 0.0008555443    1.461    0.316
        16  -9.9765     90.9930    183.0247   1.0040765670e+02   2.4704501051e+01    0.4520317     0.197638 -55.99  0.001818476    2.250    0.556
        17 -10.4961     93.7019    180.3026   9.9294150322e+01   2.4921047413e+01    0.3058774    0.2142948  89.30  0.001447671    1.746    0.427
        18  -9.7973     83.8545    183.1463   1.0222048962e+02   2.5769641788e+01    0.2796805    0.2025159 -77.46  0.001430263    1.442    0.306
        19  -9.4889     80.3048    183.6778   1.0318971904e+02   2.6171794663e+01    0.3130576    0.1587843  53.89  0.001305338    2.188    0.543
        20  -9.7279     86.1604    180.1598   1.0118527264e+02   2.6130417670e+01    0.2170611    0.1923056  78.66 0.0004237336    1.098    0.089
        21  -9.8658    184.5277    181.7096   7.8025541721e+01   8.3811811632e+00    0.4425003    0.2221147 -57.56  0.001589137    3.278    0.695
        22 -12.2148    136.5248    174.1116   8.7461617221e+01   1.8902575801e+01    0.4803519     0.406119 -72.77  0.002474714    1.358    0.264
        23 -10.1628     76.9942    232.1036   1.0986018337e+02   1.5965278982e+01    0.3309979    0.1792083 -48.60  0.001660698    2.363    0.577
        24  -9.5206     47.8159    240.2512   1.1651539355e+02   1.8104107180e+01    0.1272242    0.1105364  62.83 0.0002979399    1.146    0.127
        25 -11.5149    238.4285    174.5046   6.6207016637e+01   4.4282400555e-01    0.2433093    0.2003235  24.00  0.001495179    1.280    0.219
        26  -9.8624    167.1518    225.5486   8.9674422277e+01   3.2917716729e+00    0.2183372    0.1811552 -33.18  0.000539972    1.304    0.233
        27  -9.6518    180.0790    175.0706   7.7622934695e+01   1.0492295462e+01    0.2242461    0.2134644 -14.17 0.0007367613    1.069    0.064
        28 -10.1939    191.5994    167.2054   7.3539188433e+01   9.8721819385e+00    0.3963291    0.2554091 -48.10  0.001661541    1.642    0.391
        29 -10.3158     48.9394    217.8035   1.1443475527e+02   2.2597932396e+01    0.4414175    0.2103547  20.88  0.001881617    3.320    0.699
        30  -9.9593    186.6633    165.7924   7.4268353737e+01   1.1080617097e+01    0.2330097    0.1766569 -21.98 0.0008392391    1.362    0.266
        31 -10.2839     59.6507    217.8642   1.1213702701e+02   2.1247456657e+01    0.1646836    0.1258103  82.78 0.0003835628    1.220    0.181
        32 -10.7907     57.2001    211.2577   1.1201760798e+02   2.2998411792e+01    0.2101776    0.1777237  56.97 0.0007355637    1.092    0.084
        33 -11.1363     89.4370    155.1978   9.6067988253e+01   3.1693985268e+01    0.2853808     0.278041 -45.42 0.0003411182    1.077    0.071
        34 -11.9324    133.6858    145.0987   8.2039960839e+01   2.6057587207e+01     1.337497    0.3461034 -54.56  0.002938829    6.325    0.842
        35 -10.3886    134.4175    135.7387   7.9666047544e+01   2.8057751647e+01    0.2869649    0.2241388 -19.96  0.001104827    1.508    0.337
        36 -11.0292    112.0737    150.3347   8.8901042671e+01   2.8974805784e+01     0.578939    0.3549053  78.07  0.001972901    3.290    0.696
        37 -12.3364     95.3917    148.9364   9.3198470941e+01   3.2256024960e+01     0.672667    0.4987402 -32.81  0.003192268    1.555    0.357
        38  -9.4744    174.9466    148.9537   7.3072782037e+01   1.6793005228e+01    0.2348026    0.1912303 -82.57 0.0007264297    1.672    0.402
        39 -11.8343    106.9389    135.7737   8.7124365249e+01   3.3428067935e+01    0.5141436    0.4602408 -46.07  0.002669761    1.093    0.085
        40 -10.8073    105.6063    130.6120   8.6308800309e+01   3.4916236653e+01    0.3888481    0.3430267 -61.28  0.001148084    1.143    0.125
        41  -9.7297    151.3661    136.7103   7.5650894355e+01   2.4310959071e+01    0.2528312    0.2282123 -74.88 0.0006909963    1.244    0.196
        42 -11.5674     95.2061    135.2696   9.0371946049e+01   3.5647713425e+01    0.3092318     0.304251 -75.29 0.0004792458    1.027    0.026
        43 -10.0488     89.5040    132.4393   9.1419140778e+01   3.7311634384e+01    0.2858408    0.2201907  76.10 0.0008320891    1.628    0.386
        44 -10.5803    116.9741    133.4397   8.3781605397e+01   3.2083010109e+01    0.3620829    0.2628546  87.24  0.001459585    2.042    0.510
        45 -10.5649    114.4388    127.9810   8.3177004517e+01   3.3863981693e+01    0.3078351    0.2760386 -12.89 0.0007208424    1.209    0.173
        46 -10.1582    102.2818    123.4106   8.5548960346e+01   3.7254446077e+01    0.3034568    0.2403632 -21.18  0.000778864    1.464    0.317
        47 -10.9980    135.0000    120.0453   7.5612732443e+01   3.1477763263e+01    0.7663146   0.08878575 -45.35  0.001389448    8.496    0.882
        48  -9.5818    161.1580    128.1985   7.1253559532e+01   2.4055317359e+01    0.2184418     0.190298 -77.12  0.001076505    1.342    0.255
        49  -9.0226    233.7491    119.5632   5.5317777850e+01   1.0618559623e+01    0.1617831    0.1350674  75.23  0.000442223    1.487    0.328
        50  -9.5231    109.8427    117.6133   8.1895756641e+01   3.7185287116e+01    0.2517793    0.2010478 -37.97 0.0004134028    1.249    0.199
        51  -9.8626    164.4547    111.7731   6.6330667282e+01   2.6735496457e+01    0.3517612    0.1878915  51.58  0.001121841    1.967    0.492
        52 -11.6958    118.4281    109.7162   7.7366025687e+01   3.7261895882e+01    0.5466082    0.4169278  74.39  0.002446828    1.766    0.434
        53  -9.8772    205.5982    110.2418   5.7788707868e+01   1.7936360163e+01    0.2507505    0.2412073  33.04  0.000666477    1.129    0.115
        54 -10.2525    134.4262    106.1680   7.2067871987e+01   3.4623361066e+01    0.3812799    0.1414126 -51.11  0.001147222    3.243    0.692
        55  -9.6437     75.6674    209.6360   1.0769170167e+02   2.0887553968e+01    0.1708445    0.1161937 -82.45  0.000550815    1.552    0.356
        56  -9.0648     65.3003    206.1840   1.0965894985e+02   2.3071432605e+01    0.1103078   0.09714422  13.70 0.0002105249    1.440    0.305
        57  -9.8721     55.3909    205.7393   1.1186020140e+02   2.4453866441e+01    0.2316989    0.1524537  81.25  0.001163846    1.531    0.347
        58 -12.7945    176.3250     57.4883   4.9274842839e+01   3.3580940534e+01    0.5800171    0.4821099 -28.57 0.0008499199    1.304    0.233
        59 -12.2425     52.7633    246.5494   1.1603355453e+02   1.6276992057e+01    0.2398396     0.148674 -68.88  0.001357897    1.718    0.418
        60 -12.4548    197.1695     38.1865   4.1198519774e+01   3.1284395677e+01    0.4681177    0.4344991  77.14  0.001373513    1.132    0.117
        61  -8.3777     83.3113    239.2482   1.0927270294e+02   1.3676747120e+01    0.1098352   0.09488884   9.73 0.0002811981    1.512    0.339
        62 -11.2668     62.9032    200.2750   1.0954567281e+02   2.4724276449e+01     0.335564    0.1905657 -56.47  0.001015122    1.827    0.453
        63 -11.3212     45.0870    246.3186   1.1748902456e+02   1.7248894543e+01    0.1823385    0.1357454 -79.08 0.0006600867    1.376    0.273
        64  -9.3767    189.4899     14.5383   3.6184014505e+01   3.5828733152e+01    0.1284599    0.1088379 -85.35 0.0001210565    1.013    0.013
        65 -10.3155     71.3407    240.5595   1.1184968221e+02   1.5055402468e+01    0.1599436     0.118324 -89.05 0.0004634988    1.383    0.277
