#   1 NUMBER                 Running object number                                     
#   2 MAG_AUTO               Kron-like elliptical aperture magnitude                    [mag]
#   3 X_IMAGE                Object position along x                                    [pixel]
#   4 Y_IMAGE                Object position along y                                    [pixel]
#   5 X_WORLD                Barycenter position along world x axis                     [deg]
#   6 Y_WORLD                Barycenter position along world y axis                     [deg]
#   7 A_WORLD                Profile RMS along major axis (world units)                 [deg]
#   8 B_WORLD                Profile RMS along minor axis (world units)                 [deg]
#   9 THETA_WORLD            Position angle (CCW/world-x)                               [deg]
#  10 FWHM_WORLD             FWHM assuming a gaussian core                              [deg]
#  11 ELONGATION             A_IMAGE/B_IMAGE                                           
#  12 ELLIPTICITY            1 - B_IMAGE/A_IMAGE                                       
         1 -15.9279    217.0600    168.1060   4.1595368948e+01   6.6736358092e+00     4.588875     3.092603 -57.47   0.02248764    2.609    0.617
         2 -15.0431    193.3903    100.3124   3.0457788594e+01   2.2396163134e+01     2.195649     1.343854 -59.69  0.009147992    2.276    0.561
         3 -16.6147    200.8234     87.0572   2.5725055335e+01   2.2973705347e+01     3.954362     2.587811 -41.01   0.01914072    1.418    0.295
         4 -16.3696    223.1457     74.7799   1.9292667297e+01   2.0016312997e+01     2.537403     1.566753 -35.02  0.008812606    1.414    0.293
         5 -18.2053    244.5659    120.1047   2.6994547319e+01   9.2001601359e+00     9.905505     1.855298 -37.53   0.03086379    4.253    0.765
         6 -10.6095    136.1457     62.8147   3.1318329550e+01   4.2583234185e+01    0.6649706    0.2903833 -33.67  0.002390524    2.340    0.573
         7  -8.6850    183.3235     15.7351   8.0200960807e+00   3.7020173074e+01    0.3658148    0.2176111 -73.91  0.001593009    1.836    0.455
         8  -8.4130    183.4429      9.9888   6.3178040710e+00   3.7572984191e+01    0.2019742    0.1283852 -27.40 0.0006269898    1.602    0.376
         9  -7.6160    103.3728      9.1740   1.8139009925e+01   5.8230065954e+01    0.1974117    0.1211666 -34.41 0.0009500042    1.734    0.423
        10  -9.8447    185.4330      3.4537   4.2349241843e+00   3.7697194839e+01    0.4374211     0.232295 -88.30  0.001071157    1.936    0.483
        11  -9.0063    142.3975      3.4739   8.9024655343e+00   4.8725114735e+01    0.2440529    0.2231514  78.49 0.0005153648    1.006    0.006
        12  -9.1782    197.1728      2.3170   2.9544781183e+00   3.4932018219e+01    0.2891616    0.1858992  52.94 0.0008921523    1.736    0.424
        13 -10.4366    225.9840    216.6789   4.8809738462e+01  -1.2776145003e+00    0.1990424    0.1588112   9.71 0.0004081209    1.129    0.114
        14  99.0000    237.2017    207.0016   4.5301469044e+01  -1.5808389269e+00    0.5021021    0.3316456 -34.01  0.001971533    1.683    0.406
        15 -10.9819    244.2979    230.7242   4.8021095936e+01  -5.1829224335e+00    0.4606118    0.3198708   4.07 0.0003059441    1.055    0.052
        16 -11.8386    235.5464    227.5807   4.8953012861e+01  -3.7783011944e+00    0.6467454     0.431354  -8.09  0.002269693    1.273    0.215
        17  -9.6486    250.2757    231.8800   4.7250191599e+01  -6.0048953450e+00    0.2426133    0.1417529 -24.23  0.000564703    1.599    0.375
        18 -10.4103    245.6219    205.3344   4.3641701594e+01  -2.4767495783e+00    0.7577373    0.4680526 -29.85  0.003185017    1.586    0.370
        19 -12.9670    245.4215    243.8613   4.9844470960e+01  -6.6758431404e+00     4.577938     1.137049  34.11  0.004476236    3.433    0.709
        20 -13.1727    235.3119    242.8792   5.1327336911e+01  -5.4079898177e+00      2.25027    0.7687013  30.74  0.008390268    2.440    0.590
        21 -10.5164    245.3163    217.9828   4.5815942295e+01  -3.9040774781e+00    0.3673746    0.2998636  46.78  0.002252257    2.163    0.538
        22 -10.4307    248.0026    214.7814   4.4856991960e+01  -3.8730683630e+00      0.32703    0.2574336   6.30 0.0002291166    1.183    0.155
        23  -8.7175    176.5379    250.2443   6.2565821170e+01   1.1581245977e+00    0.2134383     0.121749  32.06 0.0007157599    1.353    0.261
        24  -7.5021     92.0096    250.2521   7.8606908700e+01   1.2388880887e+01    0.1955299   0.08905096  64.54 0.0008792045    3.504    0.715
        25 -10.2196    228.4380    213.5696   4.7878802433e+01  -1.2229739439e+00    0.2760091    0.2207824  -9.41 9.818819e-05    1.197    0.165
        26 -10.3912    162.5662    212.2439   5.9982902444e+01   8.5021824535e+00    0.2611835    0.2313109  49.02 0.0004409479    1.335    0.251
        27  -9.8367    182.6669    239.2182   5.9978794636e+01   1.7369704637e+00    0.2688977    0.1736591   6.05 0.0008887352    1.622    0.384
        28 -14.7559    208.1092    132.6228   3.5642970024e+01   1.3891824277e+01     1.547602    0.8340908 -23.20  0.006719723    2.060    0.514
        29  -8.6049    159.5704    240.3358   6.4471607992e+01   4.7674843581e+00    0.1695013    0.1172986 -48.19 0.0007718269    1.882    0.469
        30 -10.0128    187.7691    237.1430   5.8750337386e+01   1.3103660384e+00    0.2650326    0.1973394 -18.72  0.001302452    1.421    0.296
        31 -15.3261    208.7652    116.7354   3.1822200366e+01   1.6401128856e+01     1.590632     1.216865 -24.12  0.008478403    1.218    0.179
        32  -9.2224    184.9031    232.7656   5.8659344307e+01   2.2735238790e+00    0.3250855    0.1528744 -25.27   0.00158476    2.907    0.656
        33 -15.8015    233.9835    141.5993   3.3255848541e+01   7.8433556823e+00     1.951742    0.9475158  57.67  0.007960393    3.625    0.724
        34 -14.7627    231.0017     79.4029   1.9410775122e+01   1.7715670457e+01    0.9015167    0.4783301 -17.06   0.00383192    2.433    0.589
        35 -16.2709    222.1539    122.8797   3.1020011660e+01   1.2816841334e+01     2.268028    0.8746354 -42.91  0.008819094    2.618    0.618
        36 -16.4776    233.2363     96.5500   2.3214802357e+01   1.4750371248e+01     1.624254     1.160112  30.36  0.008839196    1.684    0.406
        37 -16.7025    240.6392     82.9025   1.9037773092e+01   1.5301951930e+01     1.718119     1.205732 -12.56  0.009361252    1.589    0.371
        38  -7.2431    119.0144    236.0291   7.1928269460e+01   1.1074710551e+01    0.1399505    0.1071168  37.12            0    1.041    0.039
        39 -15.1243    229.4523    114.9962   2.8063594225e+01   1.2677982896e+01    0.6337066    0.5346402 -51.37  0.002602596    1.341    0.254
        40 -15.7274    246.1276     93.2835   2.0760471378e+01   1.2788219267e+01    0.7809194    0.6616399  -6.85  0.004332036    1.228    0.186
        41 -12.3957    194.9503    201.5623   5.1882458105e+01   5.1702573559e+00    0.2479165    0.2092519   4.90 0.0003182948    1.058    0.055
        42  -7.2962    233.4777    202.5094   4.5148360974e+01  -5.2629582144e-01    0.1207615    0.0920676   2.17 -1.177981e-05    1.009    0.009
        43  -8.2982    167.9024    202.0602   5.7304571324e+01   9.3005117123e+00    0.1888607    0.1597687  17.75 0.0003262618    1.017    0.017
        44  -9.3615    156.8859    201.5379   5.9501797554e+01   1.1133995891e+01    0.2141403    0.1952851   5.36  0.001388782    1.102    0.092
        45  -7.7975    181.1544    200.2197   5.4333678217e+01   7.5054593574e+00    0.1952631    0.1293501  49.32  0.001044278    1.832    0.454
        46  -7.1728    185.3511    199.1913   5.3332822251e+01   7.0072273325e+00    0.1266356   0.08199583  17.68 0.0001780128    1.527    0.345
        47  -9.1098    208.4465    197.2507   4.8616880246e+01   3.7523985096e+00    0.3184078    0.1749093  29.02 0.0002942348    1.664    0.399
        48  -9.2607    244.0528    195.1181   4.2105739666e+01  -1.0289768615e+00    0.2613927    0.2051279 -46.14  0.001688162    2.028    0.507
        49  -7.8933    175.1262    195.3449   5.4717205085e+01   9.2360439845e+00    0.2113703    0.1601465 -15.26 0.0006972143    1.381    0.276
        50  -8.8311    183.0434    194.8703   5.3046863727e+01   8.0435143756e+00    0.1870335    0.1577912  15.62 0.0002861601    1.018    0.018
        51  -9.4902    200.5154    192.7023   4.9283885547e+01   5.6216580937e+00    0.3010012    0.2423798  64.67  0.001379983    2.106    0.525
        52 -10.7721    236.6136    190.3417   4.2462529764e+01   5.9801658600e-01    0.4032246    0.2470904  30.56  0.002178485    1.555    0.357
        53  -9.2190    236.2093    185.1287   4.1573230136e+01   1.3399399045e+00    0.2226732    0.1399835 -20.34 0.0003452959    1.409    0.290
        54  -8.7904    250.7433    190.7390   4.0255102797e+01  -1.3787298518e+00    0.1439934   0.08509222 -28.86 0.0004385456    1.529    0.346
        55  -9.2673    158.8589    190.1079   5.7212973879e+01   1.2778519720e+01    0.2165839    0.1839508  21.16 0.0002510426    1.049    0.047
        56  -9.7290    204.0635    188.0475   4.7777647917e+01   5.7601792708e+00      0.29305     0.213335  16.57 0.0006919326    1.240    0.194
        57  -7.9387    200.0123    186.2807   4.8216174109e+01   6.6664654605e+00     0.170553    0.1383451  13.21 0.0001795536    1.063    0.060
        58  -8.0518    194.0827    188.8928   4.9826637087e+01   7.2124570738e+00    0.1708437    0.1619215   4.64            0    1.259    0.206
        59 -14.1425    247.3240    170.7612   3.7064053410e+01   1.6512880331e+00    0.5642563    0.3472212  42.20  0.003210404    1.912    0.477
        60 -11.5763    247.3509    185.9353   3.9915775821e+01  -3.2243061805e-01    0.2245588     0.176148  15.88 0.0002209169    1.213    0.175
        61  -7.4561    187.1435    186.3405   5.0720551544e+01   8.7360586104e+00    0.1626902    0.1122093  41.19            0    1.475    0.322
        62  -9.2761    138.5723    185.6274   6.0923975347e+01   1.6978245124e+01    0.2714315    0.1949439   7.36 0.0008988616    1.734    0.423
        63  -7.6706     89.9442    184.4816   7.2205886037e+01   2.4903495071e+01     0.198756    0.1225558  34.59 0.0004398144    1.520    0.342
        64  -8.0906    181.0942    182.6632   5.1259865359e+01   1.0336669851e+01    0.1792299    0.1457025  21.33 0.0002496516    1.098    0.090
        65  -8.7822    197.6639    177.9528   4.7105836261e+01   8.3396685155e+00    0.2109535    0.1692515  28.68 0.0006462169    1.193    0.162
        66 -11.3751    200.3081    173.1597   4.5676321907e+01   8.6588840883e+00    0.5668623    0.3221492  32.49  0.001620845    1.699    0.411
        67  -8.0674    140.9467    176.4617   5.8823794324e+01   1.8342593051e+01    0.1968585    0.1104288  56.56 0.0006413524    2.425    0.588
        68 -10.2537    149.4071    171.8695   5.6063642391e+01   1.7754294437e+01    0.4205282    0.3051738 -30.39  0.002182413    1.517    0.341
        69  -8.8260    152.8260    173.8849   5.5665332622e+01   1.6766557854e+01    0.3190196    0.2104067 -15.99  0.001473383    2.073    0.518
        70  -9.8412    157.1132    169.5827   5.3903012703e+01   1.6819889687e+01    0.4292034    0.3753028  51.95  0.001225209    1.265    0.209
        71  -7.9004    181.9751    173.9227   4.9437371559e+01   1.1655655287e+01    0.1868294    0.1715283  10.69  0.001141472    1.090    0.082
        72  -9.9563    141.6889    169.4976   5.7399409887e+01   1.9585211236e+01    0.3971659    0.2407831  36.18  0.001880261    1.550    0.355
        73  -8.1546    189.7470    166.9475   4.6504740494e+01   1.1483343934e+01    0.1951516    0.1680544 -40.63  0.001140752    1.315    0.240
        74  -7.9185    134.4979    167.4575   5.8719000660e+01   2.1268935917e+01    0.1419484    0.1321249  34.83 0.0001480945    1.020    0.019
        75 -10.5670    199.7385    163.6751   4.3897824563e+01   1.0282497882e+01     0.474608    0.3561343 -33.00  0.002676619    1.313    0.239
        76  -7.3339    177.6402    163.2317   4.8223199575e+01   1.4284656807e+01    0.1307014    0.1080155  61.61 0.0002883847    1.580    0.367
        77  -9.7013    124.1407    161.7772   6.0195997765e+01   2.4284972089e+01    0.4774333    0.2773486  14.29  0.001790601    2.956    0.662
        78  -9.3821    188.2800    159.6077   4.5305796577e+01   1.2994918124e+01    0.2538746    0.2161431 -55.04 0.0005376242    1.484    0.326
        79  -9.1996    149.7860    161.0429   5.3907183091e+01   1.9802596280e+01    0.2476352    0.2052958 -65.85  0.001143275    1.475    0.322
        80  -9.8042    166.4245    148.4085   4.7525498815e+01   1.9126418919e+01    0.2519863    0.2467436  -3.60 0.0002943978    1.101    0.092
        81  -9.3476    170.7896    147.1047   4.6289158796e+01   1.8530338670e+01    0.3730412    0.3138148 -72.40  0.001242425    1.595    0.373
        82 -11.0469    163.7621    154.2924   4.9367143622e+01   1.8508122943e+01    0.4508661    0.3482169 -25.43 0.0003050542    1.347    0.257
        83 -10.6455    168.4511    153.4251   4.8154867314e+01   1.7785284060e+01    0.2565109     0.232487  12.51 0.0002396575    1.035    0.034
        84  -9.1683    195.7452    156.7939   4.3248198416e+01   1.2128896038e+01    0.3202628    0.2105781  37.03 0.0005207009    1.505    0.336
        85 -10.7900    133.1964    155.0420   5.6673807944e+01   2.4090373408e+01    0.5602463    0.3037909  35.20  0.001694669    1.829    0.453
        86 -11.0231    140.2507    150.9799   5.4130569103e+01   2.3630678726e+01     0.559471    0.4243571  -0.94  0.001501227    1.680    0.405
        87  -8.3527     54.4890    156.2301   7.7758525600e+01   3.6149247373e+01    0.2219083    0.1770333  41.01 0.0004066055    1.250    0.200
        88  -8.6406    181.5933    155.2098   4.5746909030e+01   1.4991358926e+01    0.3305492    0.1795189  39.86 0.0008800544    1.810    0.448
        89  -9.5395    157.1069    152.0000   5.0380709852e+01   2.0218172429e+01    0.3687396    0.2307357  32.49 0.0009426668    1.620    0.383
        90  -8.3386    160.5242    149.9972   4.9181554841e+01   1.9956400953e+01    0.2696791    0.1992808  10.62 0.0008351255    1.602    0.376
        91 -10.1503    111.9594    148.7429   6.0863103315e+01   2.9310483617e+01    0.3839783    0.2934597 -56.84   0.00194475    1.352    0.260
        92  -9.8891    133.1054    147.1340   5.5091548673e+01   2.5796100454e+01    0.4439701    0.2634741 -46.58  0.001429286    1.730    0.422
        93 -10.8720    132.1642    140.3570   5.3886524025e+01   2.7442760358e+01    0.5495241    0.3421965 -47.12  0.001468102    1.636    0.389
        94  -9.4848    151.8560    147.5918   5.0654290240e+01   2.2107312867e+01    0.2816139    0.2171388 -51.53 0.0007838347    1.404    0.288
        95  -8.7617     68.9988    145.5060   7.2208812560e+01   3.6884079727e+01    0.2121877    0.1378583  31.78   0.00103307    1.600    0.375
        96  -8.2100    121.3165    144.6554   5.7589065618e+01   2.8543108836e+01    0.1535451    0.1170129  77.86 0.0007048399    1.718    0.418
        97  -9.8952    138.3003    139.8546   5.2235163880e+01   2.6358538791e+01    0.3414909    0.2432966  68.68  0.001510888    1.940    0.484
        98  -9.0980    172.5265    140.0010   4.4334241283e+01   1.9533718447e+01    0.6120936    0.3860124 -71.23  0.002199358    3.522    0.716
        99  -9.7013    159.9666    142.5325   4.7679125442e+01   2.1532849032e+01    0.4198456     0.358488  49.47  0.002233307    1.243    0.196
       100  -9.6804    166.3014    138.3452   4.5315210335e+01   2.1092703998e+01    0.4680986    0.2883234 -24.85  0.002013576    1.935    0.483
       101  -9.6057    155.1084    136.6183   4.7459864313e+01   2.3686915265e+01     0.308576     0.273719   8.96  0.000668495    1.157    0.135
       102 -10.0863    159.9311    134.0058   4.5745141293e+01   2.3234175899e+01     0.441975    0.2609741 -39.30 0.0008951573    1.694    0.410
       103  -7.8026    142.3241    132.6577   4.9609662269e+01   2.7091334970e+01    0.1544415    0.1226438  87.31 0.0007050839    1.731    0.422
       104 -10.9946    135.4739    129.7386   5.0646467067e+01   2.9100615963e+01    0.5153086    0.3766844 -42.89  0.002125536    1.378    0.274
       105  -9.5470    125.9011    130.3429   5.3272584386e+01   3.0872685698e+01    0.2718053    0.2108827 -59.74  0.001015062    1.388    0.280
       106  -9.2519    116.7789    129.3647   5.5506278793e+01   3.2860715954e+01     0.292825    0.2146065 -44.48   0.00080756    1.384    0.277
       107  -8.6450    165.7097    128.5760   4.3162049363e+01   2.3118049001e+01    0.2680908    0.1799727 -27.92 0.0007083564    1.596    0.374
       108  -9.1183    163.7413    122.9899   4.2243444718e+01   2.4626957079e+01    0.2640544    0.2220187  51.23 0.0004498606    1.262    0.208
       109 -10.5658     64.1188    116.8919   6.8748390364e+01   4.4703219649e+01    0.3731484    0.2845392  67.71  0.001900963    1.451    0.311
       110  -9.7411    169.1721    114.3825   3.8889980756e+01   2.5135614246e+01    0.7460167    0.4565998  59.10  0.002377307    1.999    0.500
       111 -11.8451    140.9343    115.9720   4.5887131263e+01   3.0927941930e+01    0.8644453    0.5737136  57.13  0.002410567    1.736    0.424
       112 -11.8951    145.1073    111.1566   4.3599275138e+01   3.1040047187e+01     1.052581    0.7033763 -68.33  0.003567759    2.199    0.545
       113 -11.9739    149.6920    103.4750   4.0426166172e+01   3.1600938098e+01    0.9709994    0.7862373  60.57  0.004724998    1.359    0.264
       114 -10.6621    165.9595     97.8143   3.5189471097e+01   2.9008652701e+01    0.3697161    0.3289074 -76.72 0.0002653501    1.291    0.226
       115 -12.0536    157.5910    103.9519   3.8714011704e+01   2.9728775221e+01     1.241343    0.6557013 -33.62  0.002949074    1.986    0.496
       116 -10.1699    165.2528    105.1700   3.7334559914e+01   2.7769960377e+01    0.4968779    0.3975587 -64.83 0.0004540706    1.494    0.331
       117  -8.8506     40.5129    118.9786   7.6890976925e+01   4.7020504853e+01    0.2115491    0.1238488 -70.35  0.000410357    1.540    0.351
       118 -10.2277    134.0240    111.9867   4.6624437122e+01   3.3255786878e+01    0.4051336    0.2301704 -33.30 0.0008327136    2.012    0.503
       119  -9.7624     47.3353    115.4353   7.4054733041e+01   4.7181945077e+01    0.2858154      0.17155 -71.50  0.001356821    1.567    0.362
       120 -10.5159     57.5207    120.5024   7.1574833074e+01   4.4661886127e+01    0.5313442    0.2446332 -70.38  0.002107885    2.255    0.556
       121  -9.8043    129.1463    112.2125   4.7970286886e+01   3.4239555975e+01    0.3265476    0.2240414 -56.86    0.0014333    1.602    0.376
       122 -10.9192     54.8354    109.0482   7.0336492480e+01   4.7913892332e+01    0.6166558    0.3045459 -59.62  0.002509584    1.814    0.449
       123  -7.5963    178.0098    108.4607   3.5516976870e+01   2.4318458652e+01    0.2038722    0.1492601  49.22 3.562346e-06    1.432    0.301
       124  -9.1061    173.4027    103.0300   3.5035303428e+01   2.6345630141e+01    0.4044527    0.2719601 -24.69  0.001811522    1.611    0.379
       125  -9.3113    129.9515    102.9795   4.5280755006e+01   3.6076718184e+01     0.248352    0.1974718 -85.52  0.001127592    1.658    0.397
       126  -9.2670    141.8924     99.1517   4.1129463536e+01   3.4236919451e+01    0.2340772    0.2144379 -83.45  0.000380164    1.222    0.182
       127  -9.4547    135.0296     95.6519   4.1877842202e+01   3.6505330892e+01    0.2941454     0.230336 -32.19 0.0006074824    1.307    0.235
       128 -10.0390    147.2561     94.5801   3.8520286793e+01   3.3938696859e+01    0.4214397    0.2647814  32.71  0.001641355    1.888    0.470
       129 -13.1595    151.9182     84.2050   3.4397369414e+01   3.4857701317e+01    0.5605974    0.5300462 -40.99 0.0005817171    1.040    0.039
       130  -9.8117    142.0080     89.2862   3.8255537162e+01   3.6204128011e+01    0.3025464     0.278661 -56.39 0.0002992284    1.121    0.108
       131  -8.3604      3.4092     84.2561   8.5360303976e+01   5.8648949352e+01    0.2174095    0.1799196  64.87 0.0005362161    1.308    0.235
       132  -9.4244    133.2609     83.3985   3.8687470077e+01   3.9407508086e+01    0.3261394    0.2168195 -33.57 0.0009682329    1.547    0.353
       133  -9.3081    158.0302     73.4983   2.9824586788e+01   3.5331628980e+01    0.4255008     0.300453  18.33  0.001454527    1.944    0.486
       134  -8.7510    165.7989     76.8301   2.9227889995e+01   3.2861278866e+01    0.3724476    0.2424178 -53.77  0.001617707    1.712    0.416
       135  -8.1053    120.9831     73.4631   3.8815382775e+01   4.4220224808e+01    0.2179821    0.1407122  75.73 0.0008087531    2.513    0.602
       136  -9.1064    170.2306     69.9282   2.6313522473e+01   3.2956881027e+01    0.4094428    0.2433077 -31.89  0.001413729    1.664    0.399
       137  -8.7449    139.7128     67.9040   3.2154079293e+01   4.0807665478e+01    0.2454793    0.1926185 -19.32  0.000840573    1.403    0.287
       138  -8.2062    155.4680     66.5021   2.8193218609e+01   3.7168588116e+01    0.1516584    0.1482425   0.56 0.0001535807    1.053    0.050
       139  -9.0796    195.1172    229.7230   5.6330098915e+01   1.2612196284e+00    0.2850615    0.1632365 -40.89 0.0006931074    2.118    0.528
       140  -8.7465    180.5110     62.2117   2.2205614636e+01   3.1677861393e+01    0.3615073     0.242799  77.73  0.001627046    1.772    0.436
       141  -9.0167    157.2799     61.9164   2.6374512874e+01   3.7481337711e+01    0.2897108    0.2151452  83.40  0.001023398    1.625    0.385
       142  -8.0639    168.5014     55.8035   2.2341926882e+01   3.5634333496e+01    0.2857539    0.2073751  61.12  0.001069763    1.397    0.284
       143 -15.4103    245.8750    159.5415   3.5089398984e+01   3.3806164979e+00     1.273565     1.012404 -19.64   0.00836676    1.111    0.100
       144  -8.2594    122.5105     45.5370   2.8527218687e+01   4.8821632868e+01    0.1484127    0.1459191  41.50 9.001407e-05    1.016    0.016
       145  -8.3866    177.0426     43.8415   1.7275200197e+01   3.5215185894e+01    0.2454223    0.2018132 -36.82 0.0004411572    1.183    0.155
       146  -7.9346    162.1275     64.8644   2.6335017355e+01   3.5789970340e+01    0.2195802    0.1957111 -69.24 0.0002663007    1.180    0.153
       147  -8.8912    162.9996     40.9739   1.8602470728e+01   3.9174321668e+01    0.2968591    0.2059446 -42.48  0.001014574    1.416    0.294
       148  -7.0526    109.4681     38.5019   2.9209585423e+01   5.3087504187e+01    0.1477081    0.1406864  23.80 0.0005143966    1.012    0.012
       149  -8.5610    167.0314     33.0748   1.5428027628e+01   3.9174126846e+01    0.2196867    0.2024447 -83.08 0.0003153681    1.048    0.046
       150  -9.4862    162.9997     28.5689   1.4576555569e+01   4.0767215955e+01    0.2508774    0.2045684 -32.45 0.0001950749    1.245    0.197
       151  -7.5529    144.4402     20.4900   1.4716951318e+01   4.6529945956e+01    0.1414697    0.1345901  83.94 1.775455e-05    1.016    0.016
       152  -9.9183    177.5450    231.0210   5.9792904357e+01   3.5370764892e+00    0.2146386    0.1795625  24.61 0.0003514543    1.143    0.125
       153  -7.1886    149.5421    224.4814   6.4363453268e+01   8.5359154593e+00    0.1238883    0.1012338  28.27 8.239941e-05    1.005    0.005
       154  -7.5435    229.1770    221.0930   4.8983569633e+01  -2.2257940430e+00    0.1797364    0.1255296  17.77 0.0005358734    1.154    0.134
       155  -7.4115     28.4901    220.0268   8.9113856134e+01   2.5115029622e+01    0.1313274   0.08363345 -51.81 0.0005106843    2.195    0.544
       156  -7.3194    160.3203    219.6871   6.1530844525e+01   7.6823049102e+00     0.118296   0.09076045  55.69 0.0007038072    1.651    0.394
