#   1 NUMBER                 Running object number                                     
#   2 MAG_AUTO               Kron-like elliptical aperture magnitude                    [mag]
#   3 X_IMAGE                Object position along x                                    [pixel]
#   4 Y_IMAGE                Object position along y                                    [pixel]
#   5 X_WORLD                Barycenter position along world x axis                     [deg]
#   6 Y_WORLD                Barycenter position along world y axis                     [deg]
#   7 A_WORLD                Profile RMS along major axis (world units)                 [deg]
#   8 B_WORLD                Profile RMS along minor axis (world units)                 [deg]
#   9 THETA_WORLD            Position angle (CCW/world-x)                               [deg]
#  10 FWHM_WORLD             FWHM assuming a gaussian core                              [deg]
#  11 ELONGATION             A_IMAGE/B_IMAGE                                           
#  12 ELLIPTICITY            1 - B_IMAGE/A_IMAGE                                       
         1 -16.0397    193.9128     40.0354   7.7702038812e+01   3.1272361379e+01     2.673254     1.824029 -41.59   0.01207022    1.436    0.304
         2 -17.4260    188.2632     80.1062   9.0291139997e+01   2.7037202480e+01     5.065373     2.661362 -43.91   0.02098563    2.028    0.507
         3 -15.7441    227.2594     54.0460   7.7300267090e+01   2.1575054669e+01     1.743244     1.043939   6.91  0.007628041    2.356    0.576
         4 -16.1330    212.7257     48.6155   7.7651395460e+01   2.5601856536e+01     2.179166    0.9730643 -19.75  0.008492997    2.424    0.587
         5 -18.8851    224.0766     78.3069   8.4051227234e+01   1.9196215310e+01     8.908228     6.822093  21.82   0.04847416    1.406    0.289
         6 -11.2028     41.6568     20.8304   1.1288664345e+02   6.8598301275e+01    0.4165166    0.2881562 -74.31  0.001035798    2.487    0.598
         7 -11.1943    248.3214     16.4150   6.5534706495e+01   2.1006586360e+01    0.3346949    0.2266971 -25.62   0.00145784    1.329    0.247
         8 -11.4104     94.7985     12.0747   8.6947836778e+01   6.0059560458e+01    0.3471161    0.1987793 -20.00  0.001136909    1.814    0.449
         9  -9.8912    169.8350     12.3450   7.2096304821e+01   4.0685525225e+01    0.4281899    0.2030243  28.60   0.00134713    3.208    0.688
        10 -10.6775    122.5430     15.6385   8.1504527025e+01   5.2842628096e+01    0.4831699    0.2847311 -53.30  0.002034544    2.153    0.536
        11 -11.1080    139.8961     13.6009   7.7199292972e+01   4.8549149465e+01    0.4025339    0.3601184 -56.45  0.001150144    1.193    0.162
        12 -10.2141    156.8676     12.5418   7.3998460778e+01   4.4133053893e+01    0.2358871    0.1987611 -24.58  0.000351965    1.212    0.175
        13 -11.2287    232.4175      6.9687   6.4289233651e+01   2.5449570573e+01    0.2452338    0.1936899 -50.28 0.0003746619    1.153    0.132
        14 -13.2149    238.2331     10.5116   6.4783444455e+01   2.3795577104e+01    0.3629431    0.2946377  32.81  0.001262056    1.458    0.314
        15 -10.5654    233.0457     10.7620   6.5236615884e+01   2.4951438402e+01    0.1758691    0.1670763  51.02 0.0003140831    1.179    0.152
        16  -9.8452    182.1613     11.9244   7.0414362208e+01   3.7462643419e+01    0.2117754    0.1773162 -53.83  0.000392273    1.193    0.162
        17 -10.1956     43.5070     11.9834   1.0745427186e+02   6.9952318617e+01    0.1816044   0.09812783 -22.06 0.0008065091    2.321    0.569
        18  -9.7193    109.6417      9.6256   8.1826685485e+01   5.6785455584e+01    0.2906064    0.1870871 -62.51  0.001268422    2.196    0.545
        19 -10.3345    220.8638      8.6750   6.5638609166e+01   2.8005456409e+01    0.4694041    0.2227687  71.85  0.002125012    2.147    0.534
        20 -12.9261    201.6509      6.7516   6.6762666472e+01   3.2920627074e+01    0.4125496    0.2708227  58.40 0.0006075506    1.540    0.351
        21 -10.7783    142.8796      8.5202   7.4688800791e+01   4.8282857102e+01    0.3558329     0.292839  45.48  0.001392314    1.180    0.153
        22 -10.1534    141.4847      4.0105   7.3141039269e+01   4.9087751564e+01    0.3047649    0.1616412 -37.09  0.001309268    1.922    0.480
        23 -10.6343    131.6580      5.9426   7.5592413714e+01   5.1515652014e+01    0.5575801    0.2760969  28.73  0.002101864    2.636    0.621
        24  -9.1986    117.2689      7.6951   7.9203342770e+01   5.5075666088e+01    0.1411991    0.1081099 -56.59 0.0002450011    1.533    0.348
        25  -9.9298    178.1669      5.2664   6.8695547045e+01   3.9149053879e+01      0.24535    0.1883192   0.78 0.0008161661    1.464    0.317
        26  -9.7510    179.9615      1.5206   6.7270371834e+01   3.9007951621e+01    0.1911448    0.1801598  84.87 0.0004961332    1.027    0.026
        27 -12.0579    213.8527      4.6408   6.5088166894e+01   3.0074738629e+01    0.2238121    0.2209995 -47.37 0.0003131098    1.083    0.077
        28  -9.7338    188.9374      4.1412   6.7191669141e+01   3.6422899367e+01    0.2201642    0.1775649 -62.08  0.001201987    1.234    0.190
        29 -10.0268    171.0787      4.0948   6.9117509870e+01   4.1139548926e+01    0.2015782    0.1916407 -81.03 0.0003526493    1.029    0.028
        30  -9.7133    155.3082      3.6368   7.0959057495e+01   4.5411033542e+01     0.306105    0.1777365 -71.25 0.0009058641    2.175    0.540
        31 -10.0614    152.2121      2.2201   7.0858849881e+01   4.6370369344e+01    0.2221478    0.2145123  85.44 0.0007054724    1.032    0.031
        32 -10.2968     51.1818      2.8829   9.8323147481e+01   7.0180003940e+01    0.1840157    0.1628428 -25.18 0.0003630547    1.175    0.149
        33  -9.7508     26.4798      3.5023   1.1253635605e+02   7.3670517298e+01    0.1249547    0.1017012 -24.55  2.50409e-05    1.014    0.014
        34  -9.2815    242.2603      2.6982   6.2522462233e+01   2.3610079792e+01    0.1314108   0.07867508 -49.97 0.0003204801    1.513    0.339
        35  -8.9500    174.2873      1.2380   6.7784882885e+01   4.0536461717e+01    0.1382689   0.09913184  43.71 0.0006806019    1.457    0.313
        36  -9.4743     58.0231      1.5209   9.4351293812e+01   6.9144229709e+01    0.1904912    0.1245603  44.10 0.0006741362    1.559    0.358
        37 -10.4276    244.9082    223.8605   1.0994039296e+02  -1.4483221720e+00    0.1672322    0.1030157  15.80 0.0005101394    1.254    0.202
        38 -10.8159    228.4920    250.5022   1.1609114060e+02  -1.6562859721e+00    0.2051335   0.07199638  36.73 0.0009301162    2.082    0.520
        39 -10.6533    205.0219    249.9648   1.1966317833e+02   1.3685340875e+00    0.1568092    0.1167908  19.01 0.0004118922    1.124    0.111
        40 -10.5362    182.3806    249.6820   1.2327438955e+02   4.3667009008e+00    0.2041767    0.1467906  35.14 0.0007765684    1.143    0.125
        41 -11.1451    165.1421    249.1270   1.2606267977e+02   6.7220096156e+00    0.3196978    0.1998868  51.11  0.001778941    1.737    0.424
        42  -9.3288    147.9675    251.0000   1.2913906559e+02   8.7958628552e+00    0.1846884     0.043499  38.34 0.0003087908    3.008    0.668
        43  -9.9985    124.6913    250.1263   1.3301136183e+02   1.1950016888e+01    0.1873428    0.1025893  44.56 0.0009377966    1.348    0.258
        44  -9.9533    165.0565    223.8320   1.2315025942e+02   9.6848071313e+00    0.1758821    0.1263489  44.64  0.001165831    1.287    0.223
        45 -10.1141     65.1423    222.1902   1.4146887243e+02   2.3362484885e+01    0.2429433    0.1271168 -79.97  0.001245456    2.232    0.552
        46 -11.1295     93.9527    222.3387   1.3609094949e+02   1.9800744896e+01    0.2713955    0.1516956  43.77  0.001154323    1.347    0.258
        47 -11.1655     89.1610    220.4840   1.3683512824e+02   2.0702683042e+01    0.3131929    0.1274566 -50.98  0.001631981    3.447    0.710
        48 -10.3058    234.0898    220.1170   1.1105058804e+02   3.1760952347e-01    0.3166902    0.1062037  35.19  0.001633666    2.343    0.573
        49 -11.2481     60.3130    215.7182   1.4194364163e+02   2.4969781107e+01    0.3218579    0.2448598  70.14  0.002487693    1.183    0.154
        50 -10.2803    153.9036    217.3606   1.2436060747e+02   1.2144512195e+01    0.1958051    0.1637454  -9.51  0.001434489    1.446    0.309
        51  -9.7933    141.0969    217.9321   1.2679575694e+02   1.3939130195e+01    0.1649116    0.1290143  49.45 0.0004196075    1.212    0.175
        52 -11.0658    123.7232    216.1759   1.2986170216e+02   1.6686020354e+01    0.2776938    0.2063065  27.42  0.001018933    1.330    0.248
        53  -9.7423    235.0603    215.0502   1.1014045978e+02   6.6693746646e-01     0.144942    0.1186404  37.40 0.0005142041    1.578    0.366
        54 -10.1018    225.6683    214.3479   1.1152294702e+02   2.0311158801e+00     0.162442    0.1291852  21.73 0.0003728418    1.188    0.158
        55  -9.9505    186.4118    215.1828   1.1823710964e+02   7.6070997861e+00    0.1953856     0.105895  39.55 0.0006973408    1.488    0.328
        56  -9.6152      2.8234    213.8449   1.5246406189e+02   3.0953381034e+01    0.1435772   0.07621305  55.43  0.001059253    1.311    0.237
        57  -9.3210    197.2839    213.6773   1.1613940576e+02   6.1790314659e+00   0.09933075   0.08371153  51.19 0.0002506993    1.595    0.373
        58 -11.2862     89.8801    211.1391   1.3588282267e+02   2.2096269266e+01    0.2295243    0.1727038  37.91  0.000345212    1.211    0.174
        59 -10.5267     86.8323    208.1582   1.3621202112e+02   2.2981608547e+01    0.1725571    0.1415434  64.20 0.0002695967    1.132    0.117
        60  -9.6798     15.3366    212.3228   1.5016608269e+02   3.0132136310e+01   0.08302837   0.07595462 -46.90 0.0007050752    1.714    0.416
        61  -9.3171    143.3022    211.3225   1.2558727200e+02   1.4542967807e+01    0.1120104   0.08192951  12.61 0.0007028598    1.633    0.387
        62 -10.3941    159.4077    208.7249   1.2223121907e+02   1.2483954782e+01    0.4622229    0.1835146  26.39  0.001738209    4.063    0.754
        63 -10.3652    153.2919    207.0547   1.2315552532e+02   1.3643319173e+01    0.2727463    0.1620671  52.45  0.001565966    1.794    0.442
        64 -10.8453    237.5797    206.7110   1.0845723470e+02   1.1286531766e+00    0.2275137     0.158172  38.84 0.0008197075    1.527    0.345
        65  -9.8563    123.9980    205.9528   1.2865721053e+02   1.8187388913e+01    0.1696726    0.1324182  44.51  0.001165459    1.040    0.038
        66 -10.3004    244.3554    203.3927   1.0687711322e+02   5.1377403202e-01    0.2379861    0.1468367   5.34  0.001576147    1.462    0.316
        67 -10.7356    191.4986    201.9651   1.1541943884e+02   8.4372189787e+00    0.2101595     0.187368  81.93 0.0008052084    1.844    0.458
        68  -9.9372     99.8268    204.6156   1.3329342423e+02   2.1831076368e+01    0.1718101   0.08180853  46.37 0.0007285646    1.696    0.410
        69  -9.5728     80.2066    204.1971   1.3717585006e+02   2.4498082889e+01    0.1544627    0.1032676  58.04  0.000319053    1.286    0.222
        70  -9.6354     39.0779    204.2796   1.4532289156e+02   2.9233196311e+01    0.1493448    0.1052924  54.22 0.0004694854    1.079    0.073
        71  -9.7315     25.8225    204.3795   1.4788536805e+02   3.0530241129e+01    0.1240742   0.08814704  31.99 0.0002265452    1.529    0.346
        72 -11.8981     68.1695    199.0973   1.3917055993e+02   2.6879272120e+01    0.3291475    0.2280007 -68.75  0.001258307    1.629    0.386
        73  -9.7835    250.6747    200.2810   1.0540907192e+02  -5.5265883460e-02    0.1362162   0.08375878  -9.63 0.0003916507    1.495    0.331
        74 -10.7404    156.1974    195.0646   1.2094875484e+02   1.4907197932e+01    0.3286126    0.2602381  19.03  0.002167969    1.251    0.201
        75  -9.8541    152.5873    192.2990   1.2125380061e+02   1.5890225759e+01    0.2094525    0.1344225  30.53 0.0006844653    1.406    0.289
        76  -9.5762    134.7162    198.9455   1.2568660635e+02   1.7668832166e+01    0.1558561    0.1396877  40.51 0.0004139643    1.104    0.095
        77 -11.1390    214.7037    197.2780   1.1066951853e+02   5.4448120189e+00      0.30695    0.2411625  50.46  0.001958924    1.717    0.417
        78 -11.1366    149.3436    196.1574   1.2243599545e+02   1.5827309127e+01    0.2322183    0.2170383  83.31  0.001067723    1.342    0.255
        79 -10.1942    143.9728    196.4862   1.2353403971e+02   1.6617988416e+01    0.2030969    0.1841892 -45.92 0.0007971961    1.353    0.261
        80  -9.8788    141.3013    193.6498   1.2367495343e+02   1.7469541701e+01    0.1604406    0.1222644 -56.79 0.0006856629    1.645    0.392
        81 -10.4092    165.9702    195.8130   1.1918485189e+02   1.3248847708e+01    0.2103342    0.1732883  41.63 0.0009665597    1.166    0.142
        82 -10.3995    117.8244    195.1794   1.2860766847e+02   2.0813609956e+01    0.2263891    0.1957882  -5.20 0.0006515002    1.502    0.334
        83 -11.4209    117.4318    189.0809   1.2793170930e+02   2.1889113076e+01    0.4018835    0.2530837 -74.52  0.001541373    2.210    0.547
        84 -10.7045    100.0251    196.5067   1.3240302480e+02   2.3159532986e+01    0.1680368    0.1308912  49.13  0.000361492    1.043    0.041
        85  -9.3290     23.6277    196.1794   1.4793079864e+02   3.2194188199e+01    0.1291977   0.08534537 -75.12 0.0004332582    1.603    0.376
        86  -9.7614    249.4213    194.7134   1.0468038361e+02   6.5432332223e-01     0.219272    0.1081345  34.97  0.001305095    1.717    0.417
        87 -10.8237    231.1759    194.0509   1.0742683829e+02   3.3395424398e+00    0.2685515    0.1952436 -17.66  0.001511717    1.395    0.283
        88 -10.6712    106.7466    194.0564   1.3074663552e+02   2.2621798388e+01    0.1989541    0.1722509 -71.45 0.0006437877    1.348    0.258
        89 -10.2240    106.5118    190.5385   1.3038630968e+02   2.3257158208e+01    0.2148071    0.1712445  41.73  0.000744202    1.090    0.083
        90 -10.4707    217.5421    193.8887   1.0964125532e+02   5.3986010248e+00    0.1783805    0.1280222  27.21 0.0003547939    1.125    0.111
        91 -11.2498    197.9665    187.7216   1.1201179283e+02   9.2016398900e+00    0.3900305    0.1899801  49.75  0.001889915    2.411    0.585
        92 -11.4683    202.3717    192.9423   1.1208727550e+02   7.8534336005e+00    0.3611496    0.3153218  -3.79  0.002607296    1.229    0.186
        93 -11.4721    207.7572    190.9104   1.1081789222e+02   7.2557759522e+00    0.3490534    0.2550325  -2.56 0.0007626529    1.354    0.261
        94  -9.2933    129.7571    192.3621   1.2582289137e+02   1.9467241416e+01    0.1149348   0.08659109  69.76 0.0006931805    1.601    0.376
        95 -10.8076     90.2893    191.4831   1.3388849086e+02   2.5376307149e+01    0.2738522    0.1751199  14.99 0.0008571545    2.460    0.594
        96 -10.0133     48.2866    192.1818   1.4272033079e+02   3.0423394034e+01    0.1587337    0.1349379 -69.66   0.00119941    1.420    0.296
        97 -10.5703    241.8464    189.7823   1.0501711567e+02   2.2270397780e+00    0.2599998    0.1090777  36.20  0.001383778    2.029    0.507
        98  -9.3823    124.4285    190.1751   1.2662521769e+02   2.0642631431e+01    0.1468665     0.115722 -84.05 0.0006406831    1.613    0.380
        99  -9.9387    248.0292    189.0284   1.0393312292e+02   1.4143949447e+00    0.1744749    0.1316487  12.60 0.0005104663    1.036    0.034
       100 -11.1658    231.0637    187.6495   1.0636720423e+02   4.0467100178e+00    0.2716718    0.1834338 -19.77  0.000951252    1.476    0.323
       101 -10.6014    226.0363    188.7979   1.0738190593e+02   4.6798443373e+00    0.1663128    0.1408415  26.09  0.000679259    1.274    0.215
       102 -10.2346     56.1798    189.2161   1.4085815464e+02   3.0084091293e+01    0.2057606   0.09426942  61.71  0.001073104    2.178    0.541
       103  -9.7824     23.3736    189.0046   1.4763511601e+02   3.3530401440e+01    0.1506251    0.1083592  75.65 0.0006800457    1.152    0.132
       104 -12.2855    214.9804    186.2909   1.0880493869e+02   6.6741003386e+00    0.4512115    0.2994154   1.91  0.002375637    1.547    0.354
       105 -10.3344     81.8253    187.7959   1.3529826259e+02   2.7173960897e+01    0.1920948    0.1625696  53.33 0.0005785263    1.059    0.056
       106 -10.6708    110.5686    184.4277   1.2878661603e+02   2.3720963562e+01    0.2561056    0.2196595  68.76  0.001015057    1.184    0.155
       107 -10.4536     76.2512    185.9794   1.3630928664e+02   2.8234488096e+01      0.16412    0.1388924  63.12 0.0007277448    1.055    0.052
       108  -9.6772    178.9324    185.4485   1.1512992203e+02   1.2601180854e+01    0.1862744    0.1032471  38.46 0.0005867498    1.515    0.340
       109 -10.4182    184.5075    183.9966   1.1384920228e+02   1.1883233491e+01    0.3405018    0.1442959  48.22  0.001519985    2.510    0.602
       110 -11.1482    198.4456    182.5810   1.1106427913e+02   9.7824311518e+00    0.2162059    0.1733554  18.15 0.0001300549    1.045    0.043
       111 -10.2316     83.1012    182.2628   1.3445075609e+02   2.8021140800e+01     0.187319    0.1586307  80.37 0.0006018809    1.171    0.146
       112  -9.7785     16.9818    181.7209   1.4859499567e+02   3.5473664792e+01    0.1469968    0.1065834  58.19 0.0003245828    1.086    0.079
       113 -10.6562    143.9556    189.7497   1.2259963416e+02   1.7655973765e+01    0.2145769    0.1878117 -70.20  0.001452506    1.451    0.311
       114 -16.5142    217.8754    124.7884   9.6226444270e+01   1.4129253388e+01     6.951346     1.526563  41.99   0.02081732    4.759    0.790
       115 -10.6520    193.1479    247.7466   1.2129675139e+02   3.1348495205e+00    0.2358751    0.1300937  47.43   0.00151899    1.984    0.496
       116 -11.3919    132.1773    247.0182   1.3144525691e+02   1.1357993386e+01    0.2586514    0.1606744  42.68 0.0003491587    1.183    0.154
       117  -9.4058    131.4793    242.4501   1.3113341108e+02   1.2022673921e+01    0.1589341   0.08149628  31.48 0.0005960703    1.688    0.408
       118 -11.7045    215.8121    244.5015   1.1728124529e+02   4.7360978895e-01    0.3895421    0.1977405  43.38  0.001696134    1.943    0.485
       119 -15.8661    242.3287     94.3699   8.5450715782e+01   1.3375904648e+01     1.071708    0.9073918  14.10  0.004176297    1.150    0.130
       120 -15.4237    248.0332     74.4544   7.9947006088e+01   1.4688477918e+01    0.7954857    0.5018821 -19.97  0.004238556    1.443    0.307
       121 -16.2468    211.5806     61.3641   8.1341275185e+01   2.4241601901e+01     1.541366     1.055251  76.22  0.005317469    1.798    0.444
       122 -15.1173    241.1573     65.0975   7.8468917979e+01   1.7219181560e+01    0.6268615    0.5585083 -75.46   0.00249431    1.332    0.249
       123 -15.6053    239.7959     55.8758   7.6302611558e+01   1.8604605260e+01    0.8375779    0.6981879  65.48  0.004038225    1.356    0.263
       124 -11.4254    225.6171    242.0143   1.1543087385e+02  -5.6573767580e-01    0.2815548    0.1624223  11.62   0.00150462    1.625    0.385
       125  -9.6569     26.1846    177.6287   1.4644298228e+02   3.5423599402e+01    0.1282967   0.09875028  26.00 0.0009115481    1.570    0.363
       126 -15.5486    202.8419     83.9013   8.8789112643e+01   2.3121479596e+01    0.7519105    0.6838915 -30.20   0.00284427    1.097    0.088
       127 -10.5390    136.9951    175.9970   1.2200716652e+02   2.1013983561e+01    0.1872855    0.1637803  39.67  0.001214993    1.020    0.020
       128 -10.5834    201.8637    179.1330   1.0986016190e+02   9.6669257239e+00     0.180361    0.1589739  36.25 0.0008986303    1.283    0.221
       129 -10.4027    170.1865    173.9388   1.1490347917e+02   1.5736867068e+01    0.2304066     0.152567 -64.23  0.001147604    2.618    0.618
       130  -9.4159    247.5608    173.4628   1.0126257183e+02   3.0961603962e+00    0.1844844     0.100328  38.58 0.0005351729    1.710    0.415
       131  -9.6748    250.6718    172.1971   1.0055833423e+02   2.7646174644e+00    0.1483121   0.09005406 -11.08            0    1.521    0.343
       132 -10.5841    141.0487    172.3611   1.2058863765e+02   2.0953114836e+01    0.2453571     0.235034  25.50 0.0008375861    1.116    0.104
       133 -10.5983     62.3649    173.0887   1.3812033105e+02   3.2430525524e+01    0.2077766    0.1405049  48.63 0.0004051427    1.256    0.204
       134 -10.0595    150.7054    171.5771   1.1844243460e+02   1.9447875805e+01    0.2604415    0.1855788  82.81 0.0008525248    2.435    0.589
       135 -11.8181     81.1124    170.7754   1.3362424513e+02   3.0474489750e+01    0.4270746    0.2484255  28.95  0.001434585    1.879    0.468
       136  -9.7481     25.7649    172.3926   1.4622879714e+02   3.6485248146e+01    0.1386905    0.1017639  25.60  0.000952094    1.625    0.385
       137  -9.9811    140.9504    179.4725   1.2170704175e+02   1.9786195526e+01    0.1914796    0.1079055  40.12 0.0003212571    1.506    0.336
       138  -9.5882    173.5018    171.4749   1.1382989275e+02   1.5535745620e+01    0.1293687    0.1100531  28.10 -4.294768e-05    1.012    0.012
       139  -9.8084    129.4794    171.4790   1.2292370899e+02   2.3026660633e+01    0.1287149    0.1119751  40.04 9.255549e-05    1.026    0.025
       140 -10.2641    226.4915    167.8153   1.0357854970e+02   7.0337440255e+00    0.1974776    0.1889362  22.39 0.0006579345    1.425    0.298
       141 -10.6533     56.2886    165.4565   1.3878552448e+02   3.4676435614e+01    0.3378822     0.168512 -87.59  0.001698658    2.309    0.567
       142 -12.4525    204.6916    177.0083   1.0898570814e+02   9.4739963997e+00    0.5007042    0.3300708  59.03  0.002642514    2.385    0.581
       143  -9.5908    102.5127    166.4946   1.2819655550e+02   2.8220004336e+01    0.1269157    0.1117613  51.39 0.0004147555    1.024    0.024
       144  -9.7656     96.0050    166.2401   1.2965276324e+02   2.9244297081e+01    0.1748427    0.1450438  49.82 0.0003517982    1.057    0.054
       145 -11.0112    119.7941    163.8474   1.2389041865e+02   2.5989951153e+01    0.2929382    0.2300725 -18.37  0.001414035    1.735    0.424
       146 -10.0944    127.7577    163.3353   1.2202944093e+02   2.4765063725e+01    0.2966672     0.131949  49.51  0.001274334    2.256    0.557
       147  -9.9651     90.0518    163.0649   1.3061450477e+02   3.0735061880e+01    0.1845612    0.1646703  60.87 0.0003573722    1.032    0.031
       148 -10.9029     67.9656    163.0242   1.3580121803e+02   3.3744350368e+01    0.3002767    0.1501098  30.09  0.001497083    2.137    0.532
       149 -10.7489    157.4674    161.5244   1.1531613646e+02   1.9921210519e+01    0.2549841    0.1956484  56.24 0.0009532306    1.434    0.303
       150 -10.7494    154.1626    161.0796   1.1592883133e+02   2.0583262875e+01    0.2092004    0.1943459 -48.19 0.0004873245    1.246    0.197
       151 -10.6301    242.8820    166.0026   1.0060904584e+02   4.6272242372e+00     0.332698    0.1533246  40.16  0.001743788    2.010    0.502
       152 -10.3177    243.6250    161.1084   9.9568631444e+01   5.0600626437e+00    0.2536457    0.1567568  44.79 0.0006432812    1.756    0.430
       153 -12.1440    146.1050    159.4320   1.1735403652e+02   2.2293055675e+01    0.4138678    0.2724436  41.79  0.001532789    1.351    0.260
       154 -10.4387    127.2095    158.2243   1.2131890256e+02   2.5793410247e+01    0.3147995    0.1430671  37.53   0.00138171    2.046    0.511
       155 -11.0715    117.1471    156.7267   1.2337317224e+02   2.7763772530e+01    0.2268063    0.1850723 -82.29  0.001271107    1.420    0.296
       156 -10.5386    113.0509    157.4638   1.2443918964e+02   2.8294355079e+01    0.2039033    0.1172595  40.45 0.0004952194    1.563    0.360
       157 -10.9222    129.0688    179.3132   1.2417018342e+02   2.1738794098e+01    0.1841621    0.1382666  42.52 0.0004525055    1.133    0.118
       158 -10.5253     16.1822    155.9684   1.4742997719e+02   4.0645362902e+01    0.2433505    0.1278442 -73.65  0.001234212    1.758    0.431
       159 -10.9825    138.9778    155.0899   1.1814712912e+02   2.4321219315e+01    0.2111557    0.1988462  27.61  0.001328469    1.067    0.063
       160 -11.2727    134.6331    154.8092   1.1906650103e+02   2.5137896679e+01    0.2544622    0.1917275 -70.61  0.001194574    1.694    0.410
       161 -11.2371     77.1339    154.7821   1.3262860171e+02   3.4225364649e+01    0.2694052    0.1734733 -70.35 0.0009599878    1.609    0.378
       162 -11.4488     77.1201    149.0091   1.3187841687e+02   3.5430431820e+01     0.436749    0.1640951 -60.07  0.001145868    2.655    0.623
       163 -10.9315    121.9213    153.2919   1.2170321968e+02   2.7618069619e+01    0.1861549    0.1598856  40.96 0.0002943821    1.069    0.065
       164 -10.9130     43.4886    152.0344   1.4058425026e+02   3.8890367432e+01    0.2041526     0.159234  44.40 0.0003051952    1.244    0.196
       165 -10.2990     38.8710    152.1422   1.4172609929e+02   3.9348940519e+01    0.1985815    0.1299194  62.46  0.001059182    1.351    0.260
       166 -10.1221     33.9513    150.4743   1.4279058243e+02   4.0193761613e+01     0.172157    0.1354545  85.79  0.000321189    1.108    0.097
       167 -10.2276    249.6698    154.1338   9.7300173267e+01   4.8865830534e+00    0.1752681    0.1485587  24.38 0.0004397129    1.255    0.203
       168  -9.5035     62.0455    150.4882   1.3582649896e+02   3.7086238285e+01    0.1781147    0.1113203  39.66 0.0004856593    1.501    0.334
       169 -10.7344     14.9914    149.7180   1.4734340764e+02   4.2044026322e+01    0.1565829    0.1238569  69.90 0.0004721516    1.034    0.033
       170  -9.6495    120.4631    149.4773   1.2139338817e+02   2.8598603792e+01    0.1340731    0.1218651  49.42  2.00267e-05    1.007    0.007
       171  -9.9396     36.0074    146.2357   1.4191836734e+02   4.0896977611e+01    0.2663966    0.1173971  74.88  0.001196919    2.713    0.631
       172  -9.2483     11.2901    146.3415   1.4803817151e+02   4.3047095273e+01    0.1064542   0.07670056 -55.81 0.0005052438    1.648    0.393
       173 -11.1340    234.9026    177.5077   1.0397640876e+02   4.5815560185e+00    0.2956514    0.2073004  33.89  0.001461519    1.316    0.240
       174 -10.8703    121.9345    137.4242   1.1885946276e+02   3.0703695374e+01    0.2291859     0.196634 -40.68 0.0003726422    1.277    0.217
       175 -10.5230     32.4828    136.0197   1.4190024735e+02   4.3464487361e+01    0.1810643    0.1709096 -16.81 0.0005977908    1.404    0.288
       176 -10.6217    110.0409    135.2171   1.2138363233e+02   3.3230646118e+01    0.2004096    0.1844699   0.83 0.0005862094    1.265    0.209
       177  -9.9319     58.6282    138.7237   1.3528990391e+02   4.0042348521e+01    0.1807209    0.1424144 -59.46  0.001110156    1.347    0.257
       178 -12.0451    233.4552    171.0209   1.0303382231e+02   5.5409180029e+00    0.2576897    0.2283625   8.87 0.0003474375    1.247    0.198
       179 -10.0639     71.6764    134.3174   1.3122759470e+02   3.9335099398e+01     0.138369   0.09012828  67.67 0.0002644253    1.669    0.401
       180 -10.7252    106.9946    132.5234   1.2165644717e+02   3.4307727804e+01    0.2097528      0.12929  39.58 0.0004661937    1.554    0.357
       181 -12.0556    120.7960    127.2795   1.1713804178e+02   3.2946426321e+01    0.3734181    0.2632817 -63.78  0.001872036    1.633    0.388
       182 -10.4266     95.5656    127.7287   1.2375035102e+02   3.7220899619e+01    0.2867685    0.1878243  62.96  0.001398371    1.755    0.430
       183 -10.7687     73.4086    128.1271   1.2981738404e+02   4.0466305371e+01    0.2286613    0.1806219  44.10 0.0003632489    1.239    0.193
       184 -10.8921     41.9270    126.2526   1.3831287342e+02   4.4710546974e+01     0.215076     0.161422 -72.69 0.0002247352    1.234    0.189
       185 -10.7933    147.6875    177.3586   1.1999191051e+02   1.9016582870e+01    0.3919361    0.1969799  51.16  0.001850649    2.103    0.524
       186 -12.4660    122.9282    119.2172   1.1489055848e+02   3.4188197817e+01    0.4384952    0.3515957 -18.68 0.0004020682    1.542    0.351
       187  -9.8420     78.2159    120.3629   1.2718409260e+02   4.1516415388e+01    0.1932466    0.1135046  47.52 0.0005166868    1.679    0.404
       188  -9.9359     28.9932    119.7194   1.4125500770e+02   4.7445530427e+01    0.1711999    0.1490088  80.35  0.001167585    1.049    0.047
       189 -10.6440     45.3746    120.9703   1.3668565343e+02   4.5547478132e+01    0.2572032    0.1711733  34.11  0.000609034    1.577    0.366
       190 -11.8589    103.7871    116.8785   1.1941282081e+02   3.8175247118e+01     0.553788    0.1988037 -52.82   0.00202058    2.834    0.647
       191 -12.0805     97.6282    117.5221   1.2122653416e+02   3.9092244448e+01    0.5557465    0.2386316  43.14   0.00225211    2.253    0.556
       192 -11.8318     52.5904    113.6472   1.3354288776e+02   4.6423013421e+01    0.3519109      0.21699  49.28 0.0001664549    1.622    0.383
       193  -9.5497     40.5263    114.4565   1.3726104420e+02   4.7554315489e+01    0.1250849    0.1101991 -86.02 8.391288e-05    1.041    0.039
       194 -10.1717     11.0855    114.4683   1.4593351090e+02   5.0054510162e+01    0.1498576    0.1156503  26.40 0.0005969678    1.526    0.345
       195 -10.5624     38.5369    110.7486   1.3737282076e+02   4.8614244227e+01    0.2219689    0.1811184 -40.14 0.0007955619    1.458    0.314
       196  -9.2889     63.4735    109.4886   1.2958547656e+02   4.6038080115e+01    0.1327654    0.1211147 -88.39 -2.43727e-05    1.001    0.001
       197 -10.7092     98.4477    106.7896   1.1871179107e+02   4.1297479341e+01    0.3040256    0.2554281 -42.68 0.0008658551    1.251    0.200
       198 -10.7418     29.0213    106.8729   1.3980176921e+02   5.0406013166e+01    0.3354248    0.1956514  70.35   0.00178205    1.804    0.446
       199  -8.9558     75.3117    107.3150   1.2560549317e+02   4.4896107033e+01    0.1349153    0.1054524 -27.11 0.0006455753    1.637    0.389
       200  -9.8992     53.3820    104.9426   1.3191443185e+02   4.8353120124e+01     0.399189     0.129889 -47.68  0.001194305    3.684    0.729
       201 -12.2959    114.7985     99.8569   1.1249393344e+02   3.9764789854e+01    0.5223147    0.3235183 -29.01  0.001670169    2.142    0.533
       202 -10.0097     26.4769     99.4811   1.3969053384e+02   5.2351812927e+01    0.2018876    0.1216406  27.14  0.001122889    1.871    0.465
       203  -9.5216     56.4829     99.5276   1.2998024050e+02   4.9244059734e+01    0.1322456    0.1204029 -78.64 4.606266e-05    1.015    0.015
       204  -9.9776     12.8346     97.6111   1.4388088485e+02   5.3811044604e+01    0.1580683   0.09899236  42.87 0.0005443022    1.656    0.396
       205 -10.9517    111.1621     94.9789   1.1226020679e+02   4.1499348072e+01     0.298228    0.2695211  89.09  0.001630043    1.203    0.169
       206 -10.2253     86.6039     94.4215   1.1936146349e+02   4.6059613692e+01    0.4354211    0.1921919  50.19  0.001430967    2.642    0.621
       207  -9.9169     77.9428     91.9981   1.2150665954e+02   4.7999544987e+01    0.1996271    0.1881777 -57.46            0    1.051    0.049
       208 -11.1884    107.5864     89.3863   1.1180416251e+02   4.3377164427e+01    0.3169198    0.2456481 -43.67  0.001287483    1.291    0.225
       209 -10.6933    104.6888     86.0213   1.1173488265e+02   4.4651939316e+01    0.3122196    0.2240299 -56.83  0.000632075    1.454    0.312
       210 -11.8171    118.5328     86.5539   1.0793893860e+02   4.1768996126e+01    0.3653075    0.3030382 -38.86 0.0005075558    1.216    0.178
       211 -11.0225    114.3635     84.0977   1.0840725107e+02   4.3130246817e+01    0.3012943    0.2727597  22.88 0.0007627163    1.168    0.144
       212 -10.1176     82.9749     88.2054   1.1898426528e+02   4.8055369304e+01    0.2742555    0.1986554  74.22  0.001088921    1.780    0.438
       213  -9.3417     60.6977     89.2834   1.2656069260e+02   5.1102861280e+01     0.134524   0.09963138  73.02 0.0002178093    1.554    0.356
       214 -10.4998     98.3773     87.5630   1.1403369983e+02   4.5511802216e+01    0.3450748    0.2374822 -71.66 0.0009102765    1.850    0.459
       215  -9.8482     14.3392     88.2189   1.4235224760e+02   5.5906897865e+01    0.1746849    0.0964671 -86.45 0.0004688392    1.641    0.391
       216 -10.2201     37.2491     86.5639   1.3412270439e+02   5.4429982464e+01    0.1634195    0.1267868   0.33 0.0009496593    1.672    0.402
       217 -11.0942     93.2451     84.3758   1.1475105152e+02   4.7140354912e+01    0.2555523    0.2461991 -38.37 0.0002978785    1.052    0.049
       218 -10.5640     58.6513     83.6980   1.2603793311e+02   5.2673790093e+01    0.2530083    0.2145511 -57.89 0.0007756156    1.096    0.087
       219  -9.4553    108.8824     81.8207   1.0932706933e+02   4.4711131354e+01    0.2000614    0.1743282  78.63 0.0009449546    1.308    0.236
       220 -10.6481     99.1867     80.0410   1.1171210662e+02   4.6978734477e+01    0.2673337    0.2162313  34.94 0.0003770918    1.296    0.228
       221 -10.1076     95.1168     78.1521   1.1243183450e+02   4.8147548099e+01    0.2613761    0.1946887  55.26  0.001125895    1.468    0.319
       222  -9.6482     86.6198     80.2225   1.1572296196e+02   4.9221369970e+01    0.2094338    0.1270864 -42.38 0.0009468518    1.673    0.402
       223 -12.2819    122.6587     76.5340   1.0388768874e+02   4.2896812347e+01    0.4812396    0.3740458 -88.80  0.002252992    1.757    0.431
       224 -10.3160     80.0240     74.7994   1.1639767536e+02   5.1539816231e+01    0.2479111    0.1951235 -55.13 0.0006132748    1.220    0.180
       225 -11.0949    104.4966     71.4193   1.0752054486e+02   4.7741817717e+01    0.4094769    0.2464913 -54.91  0.001163368    1.840    0.456
       226 -11.5172     98.7164     68.0215   1.0823417803e+02   4.9592396024e+01     0.481633    0.3009307  57.50   0.00135488    1.924    0.480
       227 -10.0168      8.0045     72.1780   1.4266644048e+02   6.0059247722e+01    0.2069777    0.1086499 -38.15  0.001082794    2.192    0.544
       228 -11.0844    114.1092     77.6997   1.0661492065e+02   4.4488274801e+01    0.3842029    0.2372385 -64.20  0.001426202    2.280    0.561
       229 -10.6641     77.4246    178.2782   1.3527513035e+02   2.9523936669e+01    0.2235018     0.113654  52.58  0.001179531    1.779    0.438
       230 -10.0971     55.9455     70.0713   1.2373111555e+02   5.6185952772e+01    0.2037595     0.187957 -59.34 0.0004194232    1.014    0.014
       231 -11.1733    109.8941     68.6399   1.0503340056e+02   4.7190269041e+01    0.3071534    0.1962354 -59.34  0.001070918    1.931    0.482
       232 -11.0219    109.9966     64.2817   1.0358507653e+02   4.8027298099e+01    0.2885914    0.2230864 -31.59 0.0004424377    1.320    0.243
       233  -9.2305     45.5659     67.5145   1.2707454298e+02   5.8041529110e+01    0.1328434    0.1173009 -60.91 0.0001821738    1.008    0.008
       234 -10.6586     69.1611     65.0880   1.1740973345e+02   5.5434599795e+01    0.2157273    0.1773873 -31.00 0.0005532613    1.272    0.214
       235 -10.6405     11.3901     63.9592   1.4015436614e+02   6.1797833593e+01    0.3047919    0.1438649  30.64  0.001219246    2.357    0.576
       236 -12.5617    125.5487     61.3955   9.8276381161e+01   4.5112094622e+01    0.5701388    0.3545379 -45.94  0.001070037    1.667    0.400
       237 -12.5038    113.3071     59.6931   1.0107581638e+02   4.8189740791e+01    0.5940227    0.4586185  74.86  0.002554825    1.657    0.396
       238 -12.1657    102.7299     59.5372   1.0417785802e+02   5.0484729123e+01    0.4762853    0.3029871 -45.78 5.893431e-05    1.562    0.360
       239 -10.6678     82.2735     61.0071   1.1141610273e+02   5.4139615946e+01     0.253107    0.2006511   6.39 0.0004297541    1.555    0.357
       240  -9.5845     93.3300     59.3013   1.0709376512e+02   5.2427565180e+01    0.1481711    0.1147374  -0.91 0.0007032824    1.647    0.393
       241  -9.1812     39.2696     59.6799   1.2765684420e+02   6.0543678371e+01    0.1266931   0.09657805  82.07 0.0003106424    1.563    0.360
       242  -9.7729     33.3237     59.6697   1.3014755576e+02   6.1138384560e+01    0.1302819   0.09381681  73.49 0.0007050021    1.700    0.412
       243  -9.7896      3.9640     52.6670   1.4153234068e+02   6.4820783584e+01    0.1590625    0.1351918 -74.06 0.0003835779    1.061    0.057
       244 -10.7882    108.1414     50.8913   9.9466669850e+01   5.0959083543e+01    0.4178349     0.291624  24.70  0.001407379    1.742    0.426
       245  -9.8790     29.0196     50.4892   1.2973469686e+02   6.3651100317e+01    0.2983963    0.1054672 -48.95    0.0012501    2.415    0.586
       246 -12.0248    122.8620     48.8640   9.4604402198e+01   4.7943379233e+01    0.7389338    0.3062807  35.75  0.002241345    3.713    0.731
       247  -9.3331     58.4680     49.5334   1.1660198187e+02   6.0428565490e+01    0.1384776    0.1220469 -33.87 0.0002122115    1.074    0.069
       248 -10.1747     67.5460     46.5211   1.1185760074e+02   5.9668013421e+01    0.2260223     0.129636  50.35 0.0007259626    2.123    0.529
       249 -10.3778     56.9799     46.2519   1.1608078540e+02   6.1343537203e+01    0.3167497    0.1179971  35.02  0.001196985    2.943    0.660
       250 -11.0536    117.9173     43.2347   9.3829893466e+01   5.0054940664e+01    0.4859169    0.2390536 -40.22  0.001927675    2.029    0.507
       251  -9.6803     20.2232     52.0025   1.3408735261e+02   6.4013991064e+01    0.1688395   0.08785491 -66.27  0.000281854    1.612    0.380
       252 -10.1775     33.1619     44.4090   1.2611434256e+02   6.4638947541e+01    0.2215267    0.1499843 -50.14 0.0006053961    1.262    0.208
       253  -9.5569     98.6088     44.2123   9.9871770492e+01   5.4236958741e+01    0.2009253    0.1367312 -26.49 0.0004047844    1.550    0.355
       254 -10.6583     27.7850     43.2272   1.2831719297e+02   6.5409480237e+01    0.2109326    0.1857358 -36.83 0.0002770546    1.115    0.103
       255 -11.7799    136.0308     41.9519   8.8828501092e+01   4.5839479693e+01    0.5322879    0.3749686  73.53  0.002418135    1.685    0.407
       256 -10.5718     85.8178     42.7672   1.0357775675e+02   5.7122937970e+01    0.2423407    0.1542113   2.39 0.0009443639    2.755    0.637
       257 -11.9697    126.2544     40.6945   9.0702872626e+01   4.8457139959e+01    0.5512878    0.2595321  40.07  0.001184718    2.418    0.586
       258 -11.4259      5.9927     40.4259   1.3833626973e+02   6.7544598680e+01    0.2101105    0.1842331 -72.48 0.0002897039    1.108    0.098
       259 -10.3375      1.5674     40.4884   1.4055341742e+02   6.7729683203e+01    0.2318872     0.147038 -59.24 0.0005874443    1.248    0.199
       260 -10.0341    146.7031     39.3351   8.5551006250e+01   4.3515527543e+01     0.269712     0.213817 -62.47 0.0005057407    1.457    0.314
       261 -10.8097    146.4989     36.4751   8.4566342145e+01   4.3972279663e+01     0.327006     0.295992 -64.86  0.001573547    1.196    0.164
       262 -11.1365     66.9867     36.4470   1.0814873127e+02   6.1770209888e+01    0.3301403    0.2332907  22.33 0.0009716207    1.628    0.386
       263 -11.3326    123.3220     34.3300   8.8980366836e+01   5.0148644277e+01    0.4261594    0.2803254 -17.41  0.001910371    1.688    0.408
       264 -11.4435    133.0000     30.0382   8.5029524695e+01   4.8331485677e+01    0.6517696    0.1939827 -42.03  0.001938696    3.736    0.732
       265 -11.7987    129.9600     29.9932   8.5695459208e+01   4.9111079290e+01    0.5872688    0.2753986 -32.30  0.001439519    2.085    0.520
       266 -10.4592    118.7050     36.1567   9.0877674457e+01   5.0998065621e+01    0.2938411    0.2001342 -47.06 0.0009891546    1.599    0.375
       267  -9.9014    117.6367     31.7311   8.9385394608e+01   5.1925946508e+01    0.2880859    0.1434803 -25.53  0.001006609    2.142    0.533
       268 -11.1106     54.9690     34.9876   1.1267869338e+02   6.3963126006e+01    0.2054221    0.1704259  89.93  0.001140598    1.692    0.409
       269  -9.4437     23.4549     34.9877   1.2799139213e+02   6.7619108012e+01    0.1836077    0.1052672 -58.42 0.0003124968    1.464    0.317
       270 -11.2353    176.0780     33.6154   7.8317528803e+01   3.6639778152e+01    0.3824525    0.2445546  54.66 0.0006459167    1.537    0.349
       271 -10.9555     81.1757     32.3271   1.0090960480e+02   5.9928172911e+01    0.3906819    0.3313614 -43.17  0.001116322    1.208    0.172
       272  -9.8444    111.8788     31.8446   9.0964278037e+01   5.3293064660e+01    0.2284881      0.19843  11.99 0.0006075639    1.186    0.157
       273 -10.4007    145.4714     31.0874   8.2808441027e+01   4.4971930395e+01    0.2481971    0.2118322  86.90 0.0005713546    1.294    0.227
       274  -9.9052    141.4850     29.9022   8.3171083142e+01   4.6165115975e+01    0.2639524    0.2189683  27.15 0.0007115026    1.264    0.209
       275 -11.8680    137.5797     26.2456   8.2582647368e+01   4.7656699794e+01     0.639433    0.3840313 -29.33  0.001796453    1.660    0.398
       276 -10.6106    140.1979     35.9967   8.5711599205e+01   4.5659777394e+01    0.2447103    0.2002313  21.37   0.00121974    1.322    0.244
       277  -9.6225    110.5287     27.5236   8.9526711825e+01   5.4256636197e+01    0.1461184    0.1402076  10.74 0.0001152187    1.012    0.012
       278  -9.6560     43.5131     27.0252   1.1473439650e+02   6.7148046805e+01    0.1971627    0.1153832 -46.60  0.000372401    1.515    0.340
       279 -11.0483     99.3046     25.6401   9.1920926816e+01   5.7154117163e+01    0.2990066    0.2361783  -1.89 0.0004004528    1.360    0.264
       280 -10.8090    152.4846     24.9828   7.9252302433e+01   4.3906337323e+01    0.3864267    0.1537674 -21.59  0.001183082    2.742    0.635
       281 -11.1445    148.4731     22.8748   7.9196056779e+01   4.5220727817e+01    0.4801561     0.288247  36.97    0.0013168    1.844    0.458
       282 -10.5779     32.9641    242.9540   1.4823649432e+02   2.3600359802e+01    0.1896883    0.1473436 -63.31  0.001638038    1.848    0.459
       283 -10.9225    236.0664     18.2146   6.6944203025e+01   2.3540952795e+01    0.2363267    0.1666091 -31.04  0.001325161    1.266    0.210
       284 -10.1343    142.7894    243.0023   1.2922314122e+02   1.0436481757e+01    0.2035192    0.1181809  38.93  0.001388057    1.245    0.197
       285 -10.2010    112.3954     17.2538   8.4590678778e+01   5.5195698193e+01    0.3031498    0.2627234  -1.28  0.001647859    1.162    0.139
       286 -10.1449     66.1104    242.6297   1.4257673538e+02   2.0138765493e+01    0.1569141    0.1076098  63.80  0.000474706    1.263    0.208
       287 -10.5728     19.2978     17.8797   1.2416508804e+02   7.1624763102e+01    0.1882544    0.1669181  29.36 0.0006402723    1.361    0.265
       288 -10.1000    166.6534     16.0976   7.3828079292e+01   4.1146475348e+01    0.2469342    0.2087098 -48.93 0.0008171868    1.206    0.171
       289 -10.4007     13.3075    242.2301   1.5145605108e+02   2.5556286069e+01    0.1826642   0.07150572 -88.97  0.001200882    2.583    0.613
       290  -9.5206      2.2163    243.6260   1.5327521309e+02   2.6313608076e+01    0.1111683   0.07231491  33.18 0.0002622921    1.613    0.380
       291  -9.6914     59.6424     16.7606   1.0218866540e+02   6.6568631462e+01    0.1795783    0.1166555 -42.26 0.0002579602    1.528    0.346
       292  -9.2620    243.4051     16.4407   6.5908798301e+01   2.2076223697e+01    0.1274599     0.111709 -38.67 0.0001317323    1.013    0.013
       293  -9.8233    209.0588     15.4563   6.8607475262e+01   3.0227595747e+01    0.2152317    0.1724102 -25.90 0.0007060859    1.212    0.175
       294  -9.6704     56.7483    241.9650   1.4415482190e+02   2.1276329109e+01    0.1317715   0.09754112  58.98 0.0003961429    1.101    0.092
       295  -9.9083     87.7630     17.9889   9.2012134224e+01   6.0846810088e+01    0.1935845    0.1146493 -28.88 0.0008901846    1.652    0.395
       296  -9.3813     93.1973    241.5758   1.3777696922e+02   1.7079737364e+01    0.1344557    0.0801813  33.12 0.0002959446    1.494    0.331
       297  -9.5416    130.1928     12.8236   7.8722141650e+01   5.1186480488e+01    0.2053659    0.1577756  36.98 0.0003935168    1.301    0.231
       298 -11.7558    127.1969    237.8684   1.3144568850e+02   1.3187221486e+01    0.3347522    0.2329275  40.64  0.002476196    1.054    0.051
       299 -10.2951    235.6062    237.2981   1.1326305565e+02  -1.4280707071e+00    0.2273813      0.19529  68.95  0.001346973    2.897    0.655
       300 -10.0840    237.0657    233.9295   1.1257493396e+02  -1.3221624954e+00    0.1588517    0.1135962  19.76 0.0008098291    1.078    0.073
       301 -10.8697     57.1267    235.8968   1.4375775512e+02   2.2139311701e+01    0.2876655    0.1122397  52.93  0.001377384    1.968    0.492
       302  -9.1532     56.4926     15.5109   1.0296037965e+02   6.7313620141e+01     0.133285    0.1187288 -15.99 -5.343681e-06    1.032    0.031
       303  -9.7832     22.6576    236.9606   1.4974532941e+02   2.5495638521e+01     0.130558   0.09305479  63.84 0.0005643852    1.108    0.097
       304 -10.4021    167.3799    232.8390   1.2383821778e+02   8.2652942790e+00    0.2170366    0.1779689  -6.42   0.00144885    1.438    0.305
       305 -10.9882    211.2078    234.1569   1.1666197096e+02   2.0560989805e+00    0.1807335    0.1206342   3.72 0.0006896725    1.488    0.328
       306 -12.4720    154.0037    231.4131   1.2601456621e+02   1.0320402691e+01    0.2225785    0.1731746  37.12 0.0003511725    1.069    0.064
       307 -10.5837    149.8103    227.2987   1.2629073129e+02   1.1434613477e+01    0.2088976    0.1696179  28.63  0.001092825    1.124    0.111
       308 -10.5134    145.1906    231.6008   1.2760013585e+02   1.1533160817e+01    0.2093294    0.1505574  66.60  0.001427205    1.882    0.469
       309 -10.0180     32.3087    233.5820   1.4797327148e+02   2.5086764772e+01     0.191605   0.06235204  39.45  0.001128589    2.104    0.525
       310  -9.7310    220.4671    232.4646   1.1495377366e+02   9.7783510316e-01    0.1092145   0.07526943  20.88 0.0008081912    1.050    0.047
       311 -10.7750     95.4132    176.1953   1.3105358002e+02   2.7438522272e+01    0.2194027     0.178215  50.14 0.0002674954    1.049    0.047
       312 -10.5573    193.2556    232.0819   1.1933504616e+02   4.7262350003e+00    0.2201094    0.1222626  21.68  0.001369486    1.701    0.412
       313 -10.7730    175.0285    231.6396   1.2237153381e+02   7.3282331343e+00    0.2654525   0.07954317  38.91   0.00125007    2.498    0.600
       314  -9.6787    113.9698    231.0216   1.3317092871e+02   1.5890758730e+01    0.1596928    0.1170776  18.82 0.0006121169    1.646    0.392
       315  -9.0626     33.3170    177.2894   1.4488676217e+02   3.4802216682e+01   0.09559932   0.08502606 -42.45  0.000221002    1.594    0.373
       316 -10.0264     69.0448    230.8704   1.4132851478e+02   2.1553234694e+01    0.1591104    0.1157205  54.16  0.001237518    1.040    0.039
       317  -9.1790     16.4019    229.4925   1.5055899013e+02   2.7232860214e+01   0.09609423   0.06806761  59.43 0.0008019797    1.044    0.042
       318 -10.1599    204.8181    226.7633   1.1670608631e+02   3.6759868698e+00    0.1365071    0.1098212  34.43  0.000374157    1.317    0.241
       319 -10.8721    127.0647    226.7368   1.3035837755e+02   1.4707944277e+01    0.1734571    0.1543841  49.92  0.001380121    1.193    0.162
       320 -10.9912    238.5711    224.4539   1.1099343091e+02  -6.7674179314e-01    0.3189032    0.1387469  31.35  0.001915668    1.772    0.436
       321 -10.1340    225.1640    224.8216   1.1313955848e+02   1.0742956982e+00    0.2362919    0.1083541  20.13  0.001032794    2.340    0.573
       322 -11.8245    180.7433    224.0908   1.2042682827e+02   7.3873736355e+00    0.3250774    0.2706627 -44.23 0.0005965454    1.685    0.407
       323  -9.5603     70.9339    224.9895   1.4058671564e+02   2.2241106192e+01     0.130325   0.09326597  49.32  0.000595854    1.045    0.043
