#   1 NUMBER                 Running object number                                     
#   2 MAG_AUTO               Kron-like elliptical aperture magnitude                    [mag]
#   3 X_IMAGE                Object position along x                                    [pixel]
#   4 Y_IMAGE                Object position along y                                    [pixel]
#   5 X_WORLD                Barycenter position along world x axis                     [deg]
#   6 Y_WORLD                Barycenter position along world y axis                     [deg]
#   7 A_WORLD                Profile RMS along major axis (world units)                 [deg]
#   8 B_WORLD                Profile RMS along minor axis (world units)                 [deg]
#   9 THETA_WORLD            Position angle (CCW/world-x)                               [deg]
#  10 FWHM_WORLD             FWHM assuming a gaussian core                              [deg]
#  11 ELONGATION             A_IMAGE/B_IMAGE                                           
#  12 ELLIPTICITY            1 - B_IMAGE/A_IMAGE                                       
         1 -12.5911    169.5528     49.8834   6.0072266325e+01   3.6300914113e+01     1.249012     1.067235   3.87  0.004232551    1.305    0.234
         2 -12.6872    188.4584     18.9367   4.7243494568e+01   3.5373397778e+01     1.117592    0.7413378 -33.76  0.004011628    1.452    0.311
         3  -9.7215    120.1575      9.1652   5.4390031058e+01   5.4198939471e+01     0.411215    0.3365938  11.38   0.00152758    1.238    0.192
         4 -11.1340    177.6401      9.4653   4.5527239592e+01   3.9208157100e+01    0.3691646    0.3092296   0.98  0.001427564    1.349    0.259
         5  -9.5567    216.2023      9.3802   4.1596463043e+01   2.9317396800e+01    0.1950418    0.1207035 -86.53 0.0009514088    1.685    0.407
         6  -9.6258    169.9608      9.0899   4.6341971460e+01   4.1272926705e+01    0.2107527    0.2029841 -75.88 0.0005073014    1.023    0.023
         7  -8.2910    136.7919      7.7998   5.0729892613e+01   5.0112360069e+01    0.1867559    0.1596275 -61.75 0.0002682807    1.289    0.224
         8 -12.0140    182.9457     22.1691   4.8955286140e+01   3.6454951703e+01    0.8635057    0.4368316 -38.18  0.003294679    1.870    0.465
         9  -9.1799    168.5750    236.1890   1.0225698852e+02   4.2897935342e+00    0.2793848    0.1309192  43.06  0.000459075    1.711    0.416
        10 -18.8366     59.0857    220.7224   1.2048647772e+02   2.2533787610e+01     4.437629      3.56169  89.97   0.02104633    1.250    0.200
        11  -9.8721    131.1871    195.1713   1.0371532998e+02   1.6676982236e+01    0.4270996      0.23783  30.43  0.001869558    2.070    0.517
        12 -10.2073    158.5809    228.7545   1.0306991847e+02   6.8465075447e+00    0.3202808    0.1740324  37.54   0.00110462    1.520    0.342
        13  -9.6962    152.9621    186.0229   9.7880463498e+01   1.4547658464e+01    0.2974712    0.2112716  35.76  0.001293078    1.318    0.241
        14 -10.8069    150.0215    179.4086   9.7370739370e+01   1.6256387088e+01    0.4689392    0.2464858 -42.51 0.0008994712    2.145    0.534
        15 -11.5674    125.0407    172.4388   1.0152309208e+02   2.2042210346e+01    0.7555165    0.5030581 -80.34  0.002115502    2.010    0.502
        16 -12.4061    138.2116    170.9757   9.8413119919e+01   1.9982491786e+01     1.306554     0.593307  40.62   0.00556299    2.084    0.520
        17 -10.0393    143.9881    185.9914   9.9706500044e+01   1.6138639916e+01    0.4315824    0.2689044 -77.31  0.001656683    2.755    0.637
        18 -10.6663    164.7885    227.2882   1.0176057958e+02   6.0794234100e+00    0.6129712    0.2627503  54.88  0.001133867    3.415    0.707
        19  -9.8134    221.5931    191.8595   8.5962438820e+01   1.6566467615e+00    0.2490176    0.1915497  38.68 0.0003235825    1.316    0.240
        20  -9.8756    222.8557    187.1859   8.4883400260e+01   2.0680038515e+00    0.2433272     0.190342  27.93 0.0003328278    1.149    0.130
        21 -10.0377    166.4682    219.8712   1.0043915724e+02   6.8613874886e+00    0.4595539    0.2335543 -56.60  0.002145881    3.006    0.667
        22  -9.8469    203.8457    190.2535   8.8817438329e+01   4.8717215505e+00    0.2464503    0.1568292  -0.83 0.0008549965    2.043    0.510
        23 -10.2362    165.6091    184.4088   9.5064651702e+01   1.2561782932e+01    0.3325096    0.3064325 -73.31  0.000901719    1.296    0.228
        24  -8.5219    195.7452    184.6349   8.9286707077e+01   7.1138713293e+00    0.1929807    0.1551559 -56.92  0.000594639    1.690    0.408
        25  -9.6454    185.4100    184.1399   9.1148930106e+01   9.0367955657e+00    0.2998568    0.2094857 -59.62  0.001109294    2.072    0.517
        26 -10.0989    223.1084    182.3510   8.3929732306e+01   2.6786597401e+00    0.2162223    0.1741179 -24.10 0.0003032753    1.270    0.213
        27  -8.8339    185.0365    169.5022   8.8466912032e+01   1.1481541739e+01    0.2905404    0.1950625 -54.13  0.001032284    1.907    0.476
        28 -10.0678    191.0117    178.9236   8.9119071230e+01   8.8459877970e+00    0.2324911    0.2119639  17.77 0.0003370566    1.045    0.043
        29 -10.3801    186.3550    174.9999   8.9271183442e+01   1.0329118015e+01    0.3854508    0.3135903  47.11  0.001078544    1.255    0.203
        30  -9.2609     17.8432    178.8707   1.2549118191e+02   3.5248162109e+01    0.2468764    0.1865765 -51.07 0.0008414014    1.845    0.458
        31  -9.2946    249.1013    177.5130   7.8661787803e+01  -9.7277607300e-01    0.1893156    0.1453978 -11.67 0.0005904543    1.138    0.121
        32 -10.9525    141.9296    180.3147   9.9207685566e+01   1.7541315733e+01    0.4653194    0.3979701   0.28  0.001079889    1.446    0.308
        33  -9.7333    180.5141    177.0815   9.0800369594e+01   1.1067677985e+01    0.3350188    0.1325965 -41.87  0.001361722    2.729    0.634
        34  -9.9483    159.4693    172.9495   9.4272214607e+01   1.5693235570e+01     0.397956    0.2649523 -88.39  0.001664339    3.021    0.669
        35 -10.8766    148.4620    191.5586   9.9682392395e+01   1.4370900555e+01    0.4284735    0.3106833 -64.54  0.001250999    1.708    0.414
        36  -8.4727    193.0533    170.5149   8.7114635644e+01   9.8092376530e+00    0.2027144    0.1250308  42.44 0.0006079462    1.531    0.347
        37 -10.2062    162.0590    219.0693   1.0113580838e+02   7.6874211627e+00    0.2349466    0.2064012 -48.97 0.0006643306    1.397    0.284
        38  -8.9204    188.0734    163.7514   8.6728171024e+01   1.1865757581e+01    0.2865634    0.1947738 -53.56  0.001068085    1.858    0.462
        39  -9.3895    146.8241    156.6873   9.3889515778e+01   2.1173305072e+01    0.3315649    0.1620618  46.74  0.001199404    1.977    0.494
        40 -10.8318    147.4215    225.2713   1.0464874794e+02   9.0993126726e+00    0.2835456    0.2487825 -85.14  0.001659007    1.410    0.291
        41  -9.4004      5.2351    156.4541   1.2672241453e+02   4.1127562691e+01    0.2904205    0.1773231 -37.57  0.001666062    2.780    0.640
        42 -11.1037    141.5090    222.4260   1.0537822000e+02   1.0458433049e+01    0.3890231    0.2723409 -84.32  0.001409674    2.124    0.529
        43  -8.4676    211.1765    162.4892   8.2109937055e+01   7.6849995918e+00    0.1858871    0.1636226   0.73 0.0004474971    1.031    0.030
        44  -9.9699    153.8615    152.1113   9.1425795893e+01   2.0699780122e+01    0.4084733    0.2609035  75.46  0.001086231    2.790    0.642
        45 -10.3645    144.8046    152.0171   9.3408932377e+01   2.2497100820e+01    0.3471681    0.2997666  14.17  0.001441807    1.326    0.246
        46 -11.2889    142.3357    145.7433   9.2680239372e+01   2.4258671486e+01    0.6202535    0.4419184  88.72  0.001743877    2.078    0.519
        47 -10.0097    138.0538    142.0568   9.2891011242e+01   2.5869620803e+01    0.3159542    0.2497502 -71.56 0.0006732733    1.445    0.308
        48  -9.4124    177.9043    224.8597   9.9077984062e+01   4.3451442878e+00    0.2766319    0.1530581 -45.99  0.001376882    2.279    0.561
        49 -10.2623      9.4246    146.5477   1.2509484513e+02   4.2987399062e+01    0.3281124    0.2455568 -59.89  0.001555211    1.490    0.329
        50 -10.6091      5.6444    139.1962   1.2543581243e+02   4.4934392932e+01    0.5428913    0.2353772  88.66  0.002084252    2.005    0.501
        51  -9.6557    176.8556    219.4632   9.8492126514e+01   5.2487548860e+00    0.2196031    0.1776471  59.76  0.001396658    1.486    0.327
        52  -9.0259     13.6744    138.0053   1.2339254904e+02   4.4584286842e+01    0.1665978    0.1228228 -85.14 0.0003757912    1.061    0.057
        53 -11.7069    183.6497    211.9789   9.6137062390e+01   5.1894923298e+00     1.038133    0.4254794 -49.75  0.004546277    3.551    0.718
        54 -11.0057    135.7922    127.8342   9.0273685987e+01   2.9345620714e+01     0.689687    0.2020602 -48.85  0.002085248    3.489    0.713
        55 -11.1048    134.2909    120.8030   8.8970370967e+01   3.1170246549e+01     0.506457    0.3540304 -28.63  0.001920779    1.726    0.420
        56 -10.6170    181.2917    193.9834   9.3659369780e+01   8.2325367112e+00    0.2490805    0.2173853 -14.13  0.001144259    1.221    0.181
        57 -11.2270     26.3197    125.8070   1.1891228919e+02   4.6350688056e+01    0.5448313    0.2444889 -79.77  0.002282375    1.977    0.494
        58  -9.6699    152.6249    219.8306   1.0298185158e+02   9.0896796930e+00    0.1789585    0.1558835 -70.65 0.0007133285    1.439    0.305
        59 -11.1354     28.5801    141.8763   1.2008882893e+02   4.2376999039e+01    0.4625306     0.327818 -68.69  0.002160104    1.282    0.220
        60  -9.6185    108.2616    123.0355   9.6111773393e+01   3.5777646006e+01    0.2902457     0.236695 -31.35 0.0005913975    1.433    0.302
        61 -10.4009     29.2889    119.2748   1.1729403828e+02   4.7634766632e+01    0.2380552    0.2356768  34.44 0.0008429699    1.319    0.242
        62  -8.2904    235.3383    215.0830   8.7688641622e+01  -3.3176500068e+00    0.1523608    0.1212925   4.30 0.0002354905    1.103    0.093
        63  -9.0528    175.9395    231.5551   1.0035280193e+02   3.7644153644e+00    0.2634074    0.1395598 -21.52  0.001259859    3.430    0.708
        64  -9.1318    113.8891    117.6543   9.3397379480e+01   3.5948721399e+01     0.205871    0.1895492  61.13 0.0005550428    1.107    0.096
        65  -8.9790    176.2034    209.6935   9.7151679893e+01   6.7444078933e+00    0.1775655    0.1681212 -56.99 0.0007700375    1.333    0.250
        66 -10.9929     44.2199    114.9552   1.1241738929e+02   4.7174447066e+01    0.4219913    0.2462575  66.38  0.002067341    2.033    0.508
        67  -9.5008    167.8733    113.4768   7.9344465445e+01   2.5352309514e+01    0.4336821     0.307948 -76.95  0.001589834    2.158    0.537
        68  -9.8591      6.9075    111.8117   1.2269707664e+02   5.1176985837e+01    0.2565368    0.1493167 -63.50 0.0006234905    1.443    0.307
        69  -8.7916    156.0042    112.1085   8.1622548604e+01   2.8298473160e+01    0.2217673    0.2160283 -32.13 0.0003079303    1.008    0.007
        70 -10.0477    130.1024    110.8242   8.7517405245e+01   3.4211497494e+01    0.3402926    0.2149621 -40.97 0.0009831879    1.588    0.370
        71 -10.3857    118.3171    109.5923   9.0249774272e+01   3.6900202334e+01    0.3317902    0.2468574 -44.75 0.0008117846    1.313    0.238
        72 -11.4022    193.1895    195.2811   9.1655674868e+01   5.9784412024e+00    0.7403248    0.5456327 -70.80  0.003918818    2.476    0.596
        73  -9.4856    212.2779    107.9884   6.9289271734e+01   1.6308953757e+01    0.2336386    0.2054347  34.03 0.0002885263    1.185    0.156
        74  -9.1505     18.8963    109.1983   1.1896419265e+02   5.0929808501e+01     0.214855    0.1470901 -63.74 0.0006499681    1.251    0.201
        75  -9.1780    151.1589    234.6941   1.0514363542e+02   7.1581823694e+00    0.2520814    0.1725164  71.08  0.001520818    2.064    0.516
        76  -9.1584     55.5240     94.1437   1.0501331567e+02   5.0893895216e+01    0.2180446    0.1913395  37.64  0.000648013    1.319    0.242
        77  -7.7218     24.3217     94.3087   1.1515683782e+02   5.4064073752e+01    0.1297753    0.0805252 -45.87 0.0004409287    1.645    0.392
        78 -10.5262    161.9148    196.9199   9.7868469205e+01   1.1135499922e+01      0.32334    0.2999555 -47.56  0.002148905    1.247    0.198
        79  -8.3027    100.7205     89.9139   8.9848952013e+01   4.4764690851e+01    0.2074124    0.1808869 -54.97 0.0003402783    1.085    0.078
        80  -9.2405     21.1267     88.2238   1.1519910332e+02   5.5775397232e+01    0.2665414     0.181887   8.01  0.001442109    2.016    0.504
        81  -8.3764    158.0971     85.8395   7.3779828615e+01   3.3002028610e+01    0.2127791    0.1833677  15.95 0.0004092373    1.304    0.233
        82  -9.9436    158.1200    193.4941   9.8065512771e+01   1.2359296920e+01    0.3301396    0.2259307 -69.71 0.0005275764    2.158    0.537
        83 -12.2467    157.3941     64.2918   6.7189059561e+01   3.7095167786e+01      1.58808    0.9150817  44.02   0.00421394    1.850    0.459
        84  -8.9310    166.1028    248.6029   1.0421876419e+02   3.0778435803e+00    0.1713645    0.1495077 -12.38 0.0005662248    1.419    0.295
        85 -10.1115    115.6591     68.6269   7.8865331943e+01   4.6236137956e+01    0.2654514    0.2506984 -20.84 0.0002954901    1.040    0.038
        86  -8.7322    211.7655     59.9994   5.6376131963e+01   2.4052929715e+01    0.3352309    0.1925744 -22.06  0.001420834    1.836    0.455
        87  -9.2924    233.6059    197.1383   8.4875778942e+01  -9.5000019795e-01    0.2442943    0.2080724 -59.13  0.001117458    2.015    0.504
        88 -11.0573    174.6012     41.8006   5.6549658877e+01   3.6156164435e+01    0.4701539    0.4218685 -20.16 0.0008681383    1.135    0.119
        89  -7.8536    150.2362    249.6752   1.0704209914e+02   5.2724558240e+00   0.09970091   0.07405425  62.80 0.0004028004    1.520    0.342
        90  -9.1444    127.7542    248.5237   1.1076773083e+02   8.6947235525e+00    0.1987165    0.1535552  55.40 0.0007535089    1.139    0.122
        91  -8.5226    154.2775    248.5025   1.0622107545e+02   4.8314280287e+00    0.3547816     0.118325  41.17  0.001732984    2.274    0.560
        92  -8.7099    117.0201    245.7427   1.1234324785e+02   1.0628018980e+01    0.1491092    0.1118322  49.78 0.0003881956    1.010    0.010
        93  -8.7802    140.4666    242.6947   1.0795504120e+02   7.6510573609e+00    0.2114058    0.1114958 -49.03  0.001262698    2.443    0.591
        94  -9.7657    134.9707    240.0984   1.0863278543e+02   8.8328469435e+00    0.3359777    0.2635413 -35.63   0.00168053    1.753    0.430
