#   1 NUMBER                 Running object number                                     
#   2 MAG_AUTO               Kron-like elliptical aperture magnitude                    [mag]
#   3 X_IMAGE                Object position along x                                    [pixel]
#   4 Y_IMAGE                Object position along y                                    [pixel]
#   5 X_WORLD                Barycenter position along world x axis                     [deg]
#   6 Y_WORLD                Barycenter position along world y axis                     [deg]
#   7 A_WORLD                Profile RMS along major axis (world units)                 [deg]
#   8 B_WORLD                Profile RMS along minor axis (world units)                 [deg]
#   9 THETA_WORLD            Position angle (CCW/world-x)                               [deg]
#  10 FWHM_WORLD             FWHM assuming a gaussian core                              [deg]
#  11 ELONGATION             A_IMAGE/B_IMAGE                                           
#  12 ELLIPTICITY            1 - B_IMAGE/A_IMAGE                                       
         1 -12.5433    119.7800     37.6925   4.0859829639e+01   4.9335409879e+01    0.9045184     0.518341 -53.72  0.003007489    2.057    0.514
         2 -11.6832    105.9538     20.9604   3.8125196903e+01   5.4495734089e+01    0.5020471    0.3330278 -87.01  0.001983715    1.829    0.453
         3 -11.9351     26.5625     28.0090   6.9440418036e+01   6.9421239932e+01    0.4593246    0.3390101 -29.88  0.001647789    1.345    0.256
         4 -11.9153     35.7044     17.6661   5.9551968027e+01   6.9482893438e+01    0.6126692    0.2798527 -21.80  0.002050555    2.859    0.650
         5 -12.4382     20.3558     21.7507   7.0004963764e+01   7.1208077332e+01    0.5138464    0.3059445 -28.47  0.001829224    1.652    0.395
         6 -10.6747    121.1697     11.9067   3.2402533164e+01   5.1804902617e+01    0.4134809    0.1491402  67.41  0.001058851    2.318    0.569
         7 -10.6525    127.1185     11.8151   3.1478858067e+01   5.0418293096e+01    0.2811627    0.2025766 -69.06  0.001290768    1.440    0.306
         8 -12.0759    135.7671     22.3914   3.3362625012e+01   4.7343475463e+01    0.8115374    0.3450361  57.21  0.003733221    2.077    0.518
         9 -11.4415    134.6634     14.8745   3.1319365932e+01   4.8363494673e+01    0.5891851    0.2352126  63.40  0.002713052    2.072    0.517
        10 -11.6790     67.7841     18.2530   4.6910202416e+01   6.3314715902e+01    0.4717248    0.3820305  57.22  0.002162989    1.204    0.169
        11 -12.8279    164.2870     18.5594   2.8688571704e+01   4.1173861533e+01    0.4598522    0.2648871  48.41  0.002446434    2.111    0.526
        12 -11.0510     13.1309      9.4348   6.8001876827e+01   7.3883974958e+01    0.3757186     0.313039 -62.27  0.002424092    2.257    0.557
        13 -12.3257     15.9436     14.3686   6.8910063257e+01   7.2848764070e+01    0.5824482    0.3458481 -10.24  0.003006364    1.847    0.458
        14 -11.9076     22.6488     11.1745   6.3107056425e+01   7.2346516339e+01    0.4243882     0.270886  12.40  0.001651511    1.517    0.341
        15 -12.3452    227.6837     15.3673   2.2812910832e+01   2.8432471508e+01    0.4032182    0.2134815 -74.36  0.001829401    1.672    0.402
        16 -11.2102     85.8201     14.0813   4.0097669126e+01   5.9792709963e+01    0.3702866     0.270036 -17.65  0.001587753    1.622    0.384
        17 -12.2304    104.8982     13.1076   3.5607321255e+01   5.5503869808e+01    0.4141791    0.3340232 -26.37  0.001659194    1.458    0.314
        18 -12.0349     48.0240     12.9721   5.1635698835e+01   6.7830773367e+01    0.6324902    0.2621558  47.92  0.002995846    2.038    0.509
        19 -10.9218      5.0750     10.8229   7.4306355330e+01   7.4634797218e+01    0.3735026      0.22898 -24.80  0.001733665    1.491    0.329
        20  -9.9157      1.2373      8.1865   7.5670322549e+01   7.5414838369e+01    0.2766273   0.07212157 -41.49   0.00116596    3.525    0.716
        21 -11.5840    211.9869      9.1845   2.2596889667e+01   3.2083946898e+01    0.4414071    0.2943715  -9.81  0.002592331    2.823    0.646
        22 -11.7802    192.2381      8.4576   2.3807825166e+01   3.6147447907e+01      0.45419    0.3060719  -2.61  0.002575032    2.836    0.647
        23 -11.3955    169.6309      9.1121   2.5824255936e+01   4.0936491562e+01    0.3708014    0.1762871  58.97  0.001047572    2.091    0.522
        24 -10.6191    145.3301      9.6736   2.8483492963e+01   4.6376655868e+01    0.2130383    0.1806062  61.39 0.0004273363    1.239    0.193
        25 -11.2541    163.5177      6.5619   2.5766320574e+01   4.2535682439e+01    0.3212011    0.2199254 -17.53  0.001822073    1.997    0.499
        26 -10.1763     87.7327      7.6784   3.7152258074e+01   5.9927435447e+01    0.4553042    0.1718851  52.95  0.001836265    2.090    0.522
        27 -10.4626    232.7866      7.4019   2.1041473927e+01   2.8348044093e+01    0.1775008    0.1353676 -64.09  0.001381149    1.099    0.090
        28 -12.0926    234.4732      3.3719   2.0224174173e+01   2.8459430754e+01    0.4045201     0.177682 -69.72  0.002398413    1.967    0.492
        29 -11.6632    183.8141      5.5717   2.3808423509e+01   3.8204009123e+01    0.3769024    0.1872956 -59.41  0.001758753    1.810    0.448
        30 -11.5241    177.1195      5.9552   2.4427689942e+01   3.9603003929e+01     0.341792    0.1551504  79.92 0.0005868509    1.949    0.487
        31 -11.2110    157.8747      2.7679   2.5344278511e+01   4.4142787442e+01    0.2760868    0.2699083  -6.20  0.002070029    1.376    0.273
        32 -11.2149    122.1819      5.2850   3.0177435565e+01   5.2143119976e+01     0.211109    0.2009315 -34.06 0.0009012786    1.271    0.213
        33  -9.9705     62.2210      7.0881   4.3692180966e+01   6.5561938033e+01    0.1954447    0.1427442  30.87  0.001125389    1.281    0.219
        34 -10.8827    247.1484      5.8824   2.0051169940e+01   2.5972603417e+01    0.1713224    0.0995338 -63.90 0.0008878896    1.256    0.204
        35 -12.3562    134.5741      2.9017   2.7850433734e+01   4.9455911643e+01    0.8277071    0.2644402  75.35  0.003363072    2.847    0.649
        36 -10.2370     41.3950      4.1932   4.9891132312e+01   6.9954548400e+01    0.2836662    0.1683449  17.90  0.001573645    1.858    0.462
        37 -10.8783    218.5102      3.7611   2.1143847530e+01   3.1378008185e+01    0.2236526    0.1673928 -85.97 0.0007367989    1.178    0.151
        38 -10.9554    223.9042      2.6339   2.0633933348e+01   3.0472994528e+01     0.200516    0.1489599 -57.69 0.0007029741    1.153    0.133
        39 -11.5779    206.5464      3.0108   2.1700730882e+01   3.3779966611e+01    0.3964088    0.2023124 -89.72  0.002378356    1.733    0.423
        40 -10.7998     74.6736      3.5910   3.8603208422e+01   6.3176204562e+01    0.5034797    0.1764789  60.75  0.002213484    2.299    0.565
        41  -9.8080     21.8774      3.5865   5.9213442107e+01   7.3358308925e+01    0.1999947    0.1467866 -42.81  0.001274889    1.960    0.490
        42 -10.5530    116.5022      2.4905   3.0110330981e+01   5.3693473356e+01    0.2170944    0.1570679  53.68  0.001347787    1.306    0.234
        43 -11.1373      2.6196      1.9328   7.0962879951e+01   7.6138745548e+01    0.3030611    0.1613927  14.24  0.001440479    1.768    0.435
        44 -10.9011    105.6106      2.5569   3.1827669450e+01   5.6223285483e+01    0.3134889    0.2133358 -58.28  0.001849214    1.688    0.407
        45 -10.2210    152.4411      1.4322   2.5520426428e+01   4.5483829291e+01     0.229926   0.09929033  76.21 0.0005643522    1.963    0.491
        46  -9.8714     82.1790      1.2466   3.5847673853e+01   6.1685705643e+01    0.1683649   0.09161957  69.37 0.0003384086    1.660    0.397
        47  -9.1318     33.3481      1.3159   5.1906947273e+01   7.1685843154e+01     0.128549   0.07305313  24.43 0.0007047672    1.725    0.420
        48  -9.8141     12.8106      1.6936   6.3630542805e+01   7.4896382612e+01    0.2322349    0.0830413  31.73  0.001076474    2.544    0.607
        49 -11.7370     22.4089    136.2101   1.0046986188e+02   4.5049318293e+01    0.6626758    0.3813874  38.74  0.003060936    1.829    0.453
        50 -11.7274    248.5817    249.4671   6.3287661000e+01  -9.3463998629e+00    0.2539216    0.2513473  17.44  0.002054044    2.155    0.536
        51 -11.4642     29.8766    133.1773   9.7390864866e+01   4.5180487697e+01    0.4419431    0.3038123 -27.12  0.000809434    1.662    0.398
        52 -10.0633     73.4243    133.2977   8.2254039205e+01   3.9561389814e+01    0.3076105    0.1404731 -53.04   0.00113273    2.071    0.517
        53  -9.1867     47.3190    134.6806   9.1482251225e+01   4.2857824009e+01    0.1562378    0.1121446  65.35 0.0004942982    1.663    0.399
        54  -9.6317     39.3102    133.4265   9.4082319237e+01   4.4130151408e+01    0.1923294    0.1384681  36.45 0.0009306141    1.452    0.311
        55  -9.6405     93.0153    129.7866   7.5128025438e+01   3.7146776300e+01    0.2324738    0.1820452 -84.71   0.00104964    1.606    0.377
        56 -11.2202     10.2971    127.8350   1.0363995311e+02   4.8242225664e+01     0.506491    0.2420143 -51.80  0.001945464    1.863    0.463
        57 -11.5457     12.5068    136.3019   1.0391865935e+02   4.5817123152e+01    0.5748039    0.3120001 -46.71  0.002638215    1.795    0.443
        58  -9.2440     22.7211    126.7109   9.8970900302e+01   4.7578632054e+01    0.1465898   0.09710751 -40.07 0.0001684314    1.522    0.343
        59 -10.0791      2.1504    125.9208   1.0632979942e+02   4.9263685619e+01    0.2124035     0.172244  78.19 0.0007266039    1.263    0.208
        60 -12.3432    103.9053    122.4306   7.0020794179e+01   3.6914171677e+01    0.3554265    0.3326451  12.15 0.0004264504    1.107    0.097
        61  -9.3249     84.7962    123.3752   7.6237690763e+01   4.0205746632e+01    0.2157312     0.149222  19.19 0.0004064686    1.684    0.406
        62 -10.3346     49.6819    123.0332   8.8392214568e+01   4.5663379730e+01    0.3060008    0.2021371  -3.99  0.001318694    1.968    0.492
        63 -10.1010     56.1953    121.8806   8.5780447809e+01   4.5096871618e+01    0.2192431     0.204189  75.90  0.000382364    1.166    0.142
        64 -10.8809     43.9585    116.6776   8.9211517502e+01   4.8045437797e+01    0.3193481    0.2388567 -64.53 0.0007476493    1.308    0.236
        65 -10.6811      7.3314    114.8912   1.0300773561e+02   5.1867134074e+01    0.3455203    0.2363003 -59.40 0.0007402445    1.259    0.206
        66 -12.3691      2.4107    111.9232   1.0450072579e+02   5.2932018166e+01    0.4762621    0.2681804 -70.34 0.0007132431    1.546    0.353
        67 -11.3374      4.4219    104.8664   1.0270434226e+02   5.4650731011e+01    0.4379064    0.3294193   5.02  0.002464326    1.476    0.323
        68  -9.9466     79.0823    114.7031   7.6021561099e+01   4.3351784335e+01    0.2639639    0.2175389 -65.12  0.001045402    1.296    0.228
        69  -9.4414     67.5020    114.9640   8.0128603597e+01   4.5200089856e+01    0.2133217    0.1382188 -86.86 0.0008086506    2.483    0.597
        70 -10.3453     34.4768    103.8356   9.0201977706e+01   5.2448867730e+01    0.4261636    0.2226947 -11.35  0.001562502    2.995    0.666
        71 -12.2647     17.6112    100.6858   9.6544020944e+01   5.4831852586e+01    0.4664273      0.39837  33.89  0.001055011    1.305    0.234
        72 -11.8600     25.5668    107.2499   9.4522186700e+01   5.2463437582e+01    0.7937651    0.4747622 -39.66   0.00371265    1.636    0.389
        73 -11.1142     28.0443    113.1344   9.4652683731e+01   5.0698239321e+01    0.3137391    0.2647397  25.82 0.0006460253    1.272    0.214
        74 -10.0722    249.3312    112.3304   3.9360902662e+01   1.1418108546e+01     0.113843   0.08561878 -16.81 0.0007051913    1.719    0.418
        75  -9.6912     93.4382    112.2369   7.0655411717e+01   4.1342079499e+01     0.219817    0.1510075 -62.96 0.0007534739    1.662    0.398
        76 -10.1596     48.7537    112.1775   8.6415570629e+01   4.8610527197e+01     0.256606    0.2007732  40.17 0.0009592198    1.361    0.265
        77  -9.8605     66.7139    110.7194   7.9374007811e+01   4.6387540696e+01    0.3546864    0.1302617  34.44  0.001198268    2.700    0.630
        78  -9.6842    102.0141    109.2214   6.7193366823e+01   4.0377871226e+01    0.2078161    0.1271237  40.18 0.0004590821    1.644    0.392
        79 -11.3912     79.9377    108.1596   7.4050388871e+01   4.4794122401e+01    0.5308586    0.3118611  28.13 0.0006495563    1.859    0.462
        80  -9.4282    143.4665    105.9935   5.5323593629e+01   3.2390924196e+01    0.2092806    0.1259314 -65.70 0.0007923231    2.350    0.574
        81 -11.5014     21.6700    114.3530   9.7364117065e+01   5.0953495199e+01    0.4880679    0.2807539  -9.24  0.001434614    2.210    0.548
        82 -10.8718     51.7426     99.4434   8.2202932570e+01   5.1407387220e+01    0.6851435    0.2018945 -45.69  0.002120024    3.352    0.702
        83 -11.6976     27.6583     85.5392   8.8860763971e+01   5.7692709684e+01    0.7951202    0.5143266  11.17  0.002234463    1.650    0.394
        84 -12.1968      9.3475     97.3488   9.9432167853e+01   5.6275229456e+01    0.5797593    0.4374481  -2.28   0.00324286    1.428    0.300
        85 -11.2201     29.7062     97.5749   9.0801216458e+01   5.4530861332e+01    0.7367998    0.2937872 -41.26   0.00274275    2.566    0.610
        86 -11.3503     35.0900     92.1435   8.7234207935e+01   5.5299279011e+01    0.6818974    0.3420995 -66.54   0.00278709    2.240    0.553
        87 -11.5163     44.3759     85.1627   8.1412072591e+01   5.5822615815e+01    0.5323919    0.3629719  13.29  0.002122333    1.581    0.367
        88 -10.3925     37.2786     85.9139   8.4687543689e+01   5.6542643207e+01    0.2999835    0.2028376  24.59 0.0008153453    1.510    0.338
        89 -11.6097     22.5190     94.4813   9.3199579679e+01   5.5988232306e+01    0.3662497    0.2941519 -14.52  0.001282376    1.266    0.210
        90 -12.0482     18.0406     90.5991   9.4332907961e+01   5.7334311609e+01    0.5782304    0.3349226 -69.14  0.001826604    1.745    0.427
        91 -11.4821     68.5774     95.8195   7.4757263045e+01   4.9678371493e+01    0.4180894     0.312307   4.53 0.0007796343    1.593    0.372
        92 -10.5287     83.0048     93.0908   6.8825370528e+01   4.7718585913e+01    0.2675713    0.2116557  41.70  0.000351126    1.266    0.210
        93 -11.2156     78.5077     92.5745   7.0236414937e+01   4.8671322837e+01     0.676698    0.4417164 -51.86  0.003064989    1.579    0.367
        94 -12.0430    125.6753     94.9536   5.6682126311e+01   3.8487254632e+01    0.2759644    0.2653489  48.19 0.0002406024    1.051    0.049
        95 -10.0866    121.8185     93.6087   5.7301345478e+01   3.9600696315e+01    0.3027472    0.1887606 -41.34 0.0009885351    1.624    0.384
        96 -10.7141     42.9562     94.5774   8.4525226916e+01   5.3764935577e+01    0.3441761     0.292994 -49.81  0.001199406    1.127    0.113
        97 -11.2397     89.6591     90.0327   6.5697017072e+01   4.7097626192e+01    0.5296953    0.3275487 -35.42  0.002288452    1.767    0.434
        98 -10.6229     49.2259     91.3106   8.1076603867e+01   5.3719088865e+01    0.3221669    0.2439703  30.11  0.001642581    1.345    0.257
        99 -10.9705     98.5510     91.0055   6.3158493189e+01   4.5093763933e+01    0.2769965    0.2167293  42.07  0.001360228    1.262    0.208
       100 -11.8743      6.9909     88.7878   9.8905064632e+01   5.8569194276e+01    0.6059349    0.3904814   7.38  0.002415036    1.682    0.406
       101  -9.6706    104.2084     87.7469   6.0494759703e+01   4.4586596120e+01    0.2138927    0.1805268  -5.80  0.001069432    1.396    0.284
       102 -10.7398    143.2326     84.6860   4.9754931821e+01   3.6560007203e+01    0.2355043    0.2292715 -41.22 0.0003038016    1.094    0.086
       103 -10.8069     80.1381     83.9104   6.7069553742e+01   5.0251427137e+01    0.3631617    0.3274716 -17.39  0.001653421    1.129    0.114
       104 -10.9106     76.1159     78.3341   6.6749371818e+01   5.2175834246e+01    0.5291554    0.3356947 -51.36  0.002416926    1.702    0.413
       105 -10.3977     72.5951     77.8260   6.7869593810e+01   5.2935933230e+01    0.2909887     0.265622 -58.54  0.001604101    1.223    0.182
       106 -10.6287    113.0776     82.7967   5.6517198870e+01   4.3652223670e+01     0.345683    0.2972722 -82.43   0.00128074    1.332    0.249
       107 -10.1765     66.8448     81.9541   7.1329209251e+01   5.3089653827e+01    0.3725581    0.2819664  19.14  0.001856372    1.391    0.281
       108 -11.1821     58.2937     77.7867   7.3396603903e+01   5.5420659130e+01    0.4207481     0.296544 -59.62  0.002040851    1.653    0.395
       109 -11.3558     53.4956     76.4692   7.4958588779e+01   5.6463087650e+01    0.4854367    0.3947592 -50.67  0.002616735    1.285    0.222
       110 -12.8904    247.0988     75.8988   3.2747969631e+01   1.7256538029e+01     0.507182    0.2842075 -59.88  0.003006155    1.644    0.392
       111 -10.5555     14.4147     67.4919   9.0512705060e+01   6.3099710893e+01    0.4534279    0.2040274  12.06  0.001978142    2.425    0.588
       112 -11.1389     95.2184     76.5960   5.9804192453e+01   4.8699148321e+01    0.4094467    0.2603938  45.99 0.0009926893    1.525    0.344
       113 -11.8474     13.5956     74.5414   9.2734960348e+01   6.1548039286e+01    0.5978935    0.4017335 -60.46  0.003223249    1.417    0.294
       114 -10.9969     79.2936     67.9701   6.2217907372e+01   5.3601582615e+01     0.502289      0.34025  65.58  0.002248589    2.080    0.519
       115 -11.7644     84.5495     73.5962   6.2285613733e+01   5.1477558047e+01    0.7761127    0.3429362  40.80  0.002991845    2.218    0.549
       116 -10.2409     92.0571     71.9845   5.9317142903e+01   5.0240626995e+01    0.2173318    0.2089209  36.97 0.0003999877    1.020    0.020
       117  -9.8554    103.6132     74.7231   5.6708300913e+01   4.7255098425e+01    0.2656083    0.1794411  66.79   0.00118512    1.831    0.454
       118 -11.1449      1.9285     71.7616   9.7865532649e+01   6.2961298134e+01      0.40736    0.1729827 -60.11  0.001672383    1.952    0.488
       119 -11.1656    187.1607     70.9972   3.8597960080e+01   2.9234667383e+01    0.4717258    0.2599342 -39.90  0.002336851    1.702    0.413
       120 -10.5174     24.3572     73.4813   8.7232671585e+01   6.0844615848e+01    0.2772063    0.2217635   0.60 0.0008963362    1.231    0.187
       121 -11.6787     40.1209     70.3968   7.8893255517e+01   5.9696104220e+01    0.4659972    0.3592732 -68.19  0.001509255    1.640    0.390
       122 -11.5948     34.9785     71.5746   8.1636323342e+01   6.0095529528e+01    0.5568186    0.2476825  28.46  0.002352899    2.232    0.552
       123 -11.1769    122.9520     69.0627   4.9892113639e+01   4.3930063970e+01     0.403306    0.2752726  47.11  0.001327793    1.446    0.309
       124  -9.0080     46.7069     70.2999   7.5902462864e+01   5.8799054178e+01    0.1312057    0.1126617  68.43 0.0006986817    1.567    0.362
       125 -10.8387    219.9814     66.9304   3.3690168198e+01   2.3317822985e+01    0.4019985     0.177535  69.98  0.001930867    2.669    0.625
       126 -12.6818      6.6506     62.0465   9.3097119176e+01   6.4893767166e+01     0.777978    0.4416309  -9.48  0.003947005    1.860    0.462
       127 -10.9832     91.9526     62.7224   5.6284835364e+01   5.1933545826e+01    0.4085426    0.2401938  58.27  0.001316264    1.895    0.472
       128 -10.6037     59.1775     63.2592   6.8193908057e+01   5.8235051103e+01     0.303015    0.2686545 -75.81 0.0008375117    1.482    0.325
       129 -11.4778     40.7461     57.1009   7.4102039096e+01   6.2337667103e+01    0.4361016    0.2211079  41.73  0.001737176    2.174    0.540
       130 -11.2942     43.4823     62.4305   7.4712885343e+01   6.0889603395e+01    0.3157392    0.2334485 -40.60 0.0005357162    1.325    0.245
       131 -10.5343     50.8129     61.5789   7.1135022976e+01   5.9945591361e+01    0.3807783    0.2150861  42.56  0.001725005    1.867    0.465
       132 -11.1934     46.1992     59.1738   7.2327648710e+01   6.1130596705e+01    0.2889748    0.2547076 -49.72 0.0008804947    1.301    0.231
       133  -9.2261    156.6187     63.7368   4.1534291800e+01   3.7063079766e+01    0.1360655     0.103861  34.86  0.000698174    1.681    0.405
       134 -12.2034     74.7289     52.9281   5.8505818755e+01   5.7171272664e+01    0.9864715    0.3738735 -49.00  0.003411071    3.644    0.726
       135 -11.8256    235.4826     60.6289   3.0907133788e+01   2.1390310366e+01    0.3133391    0.2235749  77.65  0.002108845    1.518    0.341
       136 -10.4599    116.1899     48.5791   4.5117937998e+01   4.8708488459e+01    0.3285882    0.1919146  53.03  0.001098001    1.572    0.364
       137 -11.7086    117.4318     43.8957   4.3339219413e+01   4.9071984907e+01     0.481242    0.4246705  78.16  0.001647584    1.093    0.085
       138  -9.1932    113.3295    249.3347   8.9979073153e+01   6.1586085147e+00    0.1331476   0.09288368  -9.77 0.0007052045    1.726    0.421
       139 -11.9468     25.1847     57.5140   8.1951920087e+01   6.4227506842e+01    0.7592903    0.6448103  29.20  0.004300693    1.304    0.233
       140 -10.2943     34.3601     52.1199   7.5375989887e+01   6.4181306571e+01    0.4516252    0.2525849   5.14  0.001968517    2.426    0.588
       141 -10.2249     87.6796     56.6660   5.5533898043e+01   5.3870887778e+01    0.3678279    0.1334165 -36.72  0.001321573    3.025    0.669
       142 -10.0526     91.6451     57.1354   5.4471579773e+01   5.2942173932e+01    0.2437659    0.1883695  62.02 0.0006410928    1.376    0.273
       143  -9.9538     51.0563     56.6207   6.9236287230e+01   6.0852274591e+01    0.2058689    0.1637192  21.98  0.001147415    1.181    0.153
       144 -11.4939    117.2221     55.1082   4.6955648545e+01   4.7504396344e+01     1.302018    0.6954536 -72.57  0.003892937    5.182    0.807
       145  -9.8278    106.3221     58.6528   5.0815644941e+01   4.9444248589e+01    0.1465127    0.1108178 -80.08 0.0007049491    1.739    0.425
       146 -10.0320    157.8754     54.6733   3.8923222584e+01   3.8135428971e+01    0.3897156    0.2058096 -75.98    0.0014889    3.147    0.682
       147  -9.6050     67.2787     54.9944   6.1999910331e+01   5.8277585752e+01    0.1919484    0.1749828 -15.02  0.001034023    1.110    0.099
       148 -10.0288      7.6165     54.5287   9.0464974076e+01   6.6462346432e+01    0.2296186    0.1510618 -59.66  0.001278478    1.539    0.350
       149 -11.5299     60.7070     48.2121   6.1985424408e+01   6.0654829008e+01    0.7547054    0.3243556 -35.35  0.003103671    2.557    0.609
       150 -10.3922    247.6580     53.6818   2.8564977759e+01   2.0227723559e+01   0.09536825    0.0879437  -3.15 0.0004930748    1.716    0.417
       151 -11.6661     45.6176     48.1777   6.8457934532e+01   6.3256527060e+01    0.5363397    0.3725098 -29.75  0.002912052    1.453    0.312
       152 -11.9743     42.5953     44.0003   6.8194635240e+01   6.4456767478e+01    0.6396521    0.2747267  36.73            0    2.193    0.544
       153 -10.5652    240.3902     50.7914   2.8605370312e+01   2.1854963029e+01    0.1535714   0.09538332 -35.02  0.000799458    1.663    0.399
       154 -10.3082     51.8043     48.2965   6.5736345575e+01   6.2218705072e+01    0.2498349     0.209835  -6.22  0.000742695    1.152    0.132
       155  -9.8968      1.9779     49.0160   9.2044538791e+01   6.8007857155e+01    0.1981602      0.16085 -27.58 0.0008684462    1.007    0.007
       156 -10.0126    146.2749     47.2247   3.8802600187e+01   4.1860738186e+01    0.2269601    0.1653338 -33.80   0.00106237    1.504    0.335
       157 -11.4860     20.7562     46.1302   8.0301327814e+01   6.6978103653e+01    0.3055114    0.2307378 -33.36 0.0006602157    1.205    0.170
       158 -10.2256     13.1036     47.2777   8.5029322365e+01   6.7513138086e+01    0.3083594    0.1358912 -40.54  0.001440504    2.021    0.505
       159  -9.7695     82.7204     47.0001   5.3628839746e+01   5.6455144252e+01    0.1908887    0.1760335  12.74  0.001137591    1.098    0.089
       160 -10.0528    138.6598     44.2380   3.9267680338e+01   4.4044180658e+01    0.2994159    0.1713759  35.83  0.001306051    2.528    0.604
       161  -9.8965    133.8337     45.6696   4.0566898452e+01   4.4982827130e+01    0.2873195    0.1473146  63.10 0.0006177979    1.824    0.452
       162  -9.7010    200.6597     45.3293   3.1124493687e+01   3.0114488202e+01    0.1349178   0.07688708 -66.55 0.0007051618    1.740    0.425
       163 -10.6126    155.8581     42.3523   3.5954889133e+01   4.0295200541e+01    0.2286379    0.2144464 -18.74 0.0008458684    1.321    0.243
       164 -10.1965    108.7669     41.9856   4.4678397403e+01   5.1347028670e+01    0.2942314    0.2470776 -35.30  0.001085983    1.308    0.235
       165 -10.0642    110.4594     38.4778   4.3114695284e+01   5.1416066516e+01    0.2274283    0.1977437  31.14  0.000560415    1.255    0.203
       166 -10.7325     26.6793     42.7237   7.5742447385e+01   6.6924112444e+01    0.2369607    0.1987676 -11.63 0.0008032605    1.038    0.037
       167 -10.7796     22.4451     37.0850   7.5779125708e+01   6.8449391172e+01    0.5090311    0.2747459  45.45  0.002392223    2.654    0.623
       168 -10.2894     92.6683     41.7862   4.8745684877e+01   5.5039872818e+01    0.3223747    0.1890098  54.85  0.001559329    1.563    0.360
       169  -9.8335     17.3717     41.6733   8.0525149332e+01   6.8184607247e+01    0.2682087    0.1472735 -20.27  0.001305457    2.021    0.505
       170 -11.3935      4.3414     36.2896   8.6357132077e+01   7.0387858694e+01    0.4593755    0.3108666 -22.92  0.002801638    1.269    0.212
       171 -10.4777     12.0502     29.8080   7.8869758517e+01   7.0874735880e+01    0.3234659    0.1769514 -25.06  0.001416543    1.830    0.453
       172 -10.4103      7.5314     30.4713   8.2026209610e+01   7.1193959640e+01    0.3368969    0.1609591   6.28  0.001479556    2.343    0.573
       173 -11.3216    231.7403     39.0873   2.7058187632e+01   2.4901768369e+01     0.281036    0.1302286 -49.09  0.001389727    1.680    0.405
       174 -11.1603     79.6755     32.8559   4.9193062941e+01   5.9078145842e+01    0.5510166    0.2966039  30.05  0.002422744    2.351    0.575
       175 -11.3266     60.9662     36.3012   5.7071363436e+01   6.2444193285e+01    0.3659372     0.291053 -10.49  0.001162743    1.333    0.250
       176 -10.0745     67.2986     32.6364   5.3194203416e+01   6.1698288315e+01    0.4611361    0.3343462  57.16   0.00256617    1.448    0.309
       177 -11.7390     57.4610     30.5731   5.6001509880e+01   6.3911983811e+01    0.4039998    0.3310251  -0.52 0.0009978169    1.245    0.197
       178 -11.3853     48.4011     30.6135   5.9796573255e+01   6.5576047157e+01    0.7574613    0.2913226  35.58  0.003093703    2.592    0.614
       179 -10.0534    176.7363     35.8304   3.1555029331e+01   3.6419024187e+01    0.2397983    0.1400432 -56.13 0.0009359608    1.612    0.380
       180  -9.5884     94.0639     35.7419   4.6175401289e+01   5.5531337606e+01    0.1729477    0.1070163  57.65 0.0004850448    1.472    0.321
       181 -12.4643    160.0459     29.7009   3.2039908070e+01   4.0899552564e+01    0.4053009    0.3664211 -49.91 0.0004286834    1.218    0.179
       182 -12.1310    164.2909     27.6885   3.0999510231e+01   4.0168663915e+01    0.2622663    0.2329315 -73.69  0.000406026    1.096    0.087
       183 -10.2073    239.9464     32.7192   2.5260997332e+01   2.4211946406e+01    0.2010998    0.1595882  58.39  0.001435087    1.740    0.425
       184  -9.2741    229.3244    248.3006   6.6300365271e+01  -7.4052682781e+00    0.1180923   0.06665755  -9.86 0.0004745923    1.633    0.388
       185 -11.3574    107.7358     30.8374   4.1142616144e+01   5.2991974455e+01    0.4779961    0.2829279  20.33  0.002073045    2.838    0.648
       186 -11.8571    113.5980     25.3340   3.8076742446e+01   5.2244032380e+01    0.6695453    0.2369515  53.16  0.002010987    2.419    0.587
       187  -9.3010    218.6557    248.6774   6.8221405187e+01  -6.3955122432e+00    0.1237814   0.06940006  -9.37 0.0007050226    1.733    0.423
       188 -11.1405     32.4647     30.2972   6.7315111684e+01   6.8223196720e+01    0.5439911    0.2054836 -48.51  0.002131228    3.709    0.730
       189 -10.1661     38.5414     22.4319   6.0527463139e+01   6.8393589513e+01    0.2385028    0.1762729  21.57 0.0007100506    1.182    0.154
       190  -9.8792    174.9879    246.4881   7.6221146057e+01  -1.1894356702e+00    0.1898329    0.1063222  25.13 0.0009262499    1.592    0.372
       191 -10.2611     79.6834     39.0009   5.1579177757e+01   5.8259357467e+01    0.4017425    0.2653834  82.67  0.001772434    2.662    0.624
       192 -10.9429    189.1116     28.1038   2.8435946447e+01   3.4672136298e+01    0.2886749    0.2557279 -11.79  0.001532497    1.601    0.375
       193 -12.0895    126.0555     28.4027   3.6749957181e+01   4.8970442091e+01     0.481379    0.3510705  89.64  0.002714364    1.403    0.287
       194 -10.1252    197.4834     29.1336   2.7882114155e+01   3.2795654908e+01    0.2597729    0.1370185  62.86  0.001435795    1.938    0.484
       195  -9.3322     89.5619     29.4800   4.5058289307e+01   5.7316249097e+01     0.131395     0.118503  59.52 0.0001853462    1.070    0.066
       196 -10.1172    230.5192     26.4884   2.4736653675e+01   2.6650466143e+01    0.1132794   0.08444794 -64.96 0.0008102675    1.002    0.002
       197 -11.4330    183.6226     25.2506   2.8315279181e+01   3.6176074402e+01    0.4211248    0.2013301  56.90  0.002142172    2.242    0.554
       198 -12.0633    126.4784    241.7725   8.6023670837e+01   5.8552053156e+00    0.3782758    0.3352708  74.09  0.002155087    1.490    0.329
       199 -11.7557    143.9878     24.9012   3.2889305211e+01   4.5149636573e+01    0.3571479    0.1927149  64.37  0.001713344    1.632    0.387
       200  -9.8202     89.8195    250.3958   9.5464002633e+01   8.9777985227e+00    0.1879285    0.1119711  18.19 0.0009488626    1.727    0.421
       201 -11.4834     67.8897    240.8169   9.9583851581e+01   1.3670547771e+01    0.3695998    0.2301727   7.70  0.001497046    2.094    0.522
       202 -11.2089     73.9289    238.4899   9.7923899833e+01   1.3413272015e+01     0.562008     0.218442  43.26  0.002358594    2.307    0.567
       203  -9.8936    234.7559    239.9648   6.4086402946e+01  -6.7800885534e+00    0.1458471    0.0768049 -33.80 0.0006215439    1.586    0.369
       204 -10.1329    127.3393     16.3173   3.2819603322e+01   4.9940660071e+01    0.2692825    0.1756392  53.60 0.0008463474    1.459    0.315
       205 -10.0451     59.6784     23.8822   5.2203962047e+01   6.4333936615e+01    0.1679759    0.1536833  -4.47 0.0004743125    1.175    0.149
       206 -10.5258     90.8613     22.0514   4.1921699965e+01   5.7857227579e+01    0.2904302    0.2328997 -13.48    0.0016395    1.464    0.317
       207  -9.8885     13.9219     23.1204   7.4633199634e+01   7.1783773312e+01    0.1872553    0.1449925  -5.63 0.0006029801    1.062    0.059
       208 -11.3510    246.0075     19.9777   2.2574544088e+01   2.4639268155e+01    0.1733556    0.1200725 -61.93 0.0006504529    1.035    0.034
       209  -9.6217    223.7450     22.5194   2.4438678400e+01   2.8369605992e+01    0.1521285   0.08717687 -81.83 0.0007679525    1.604    0.377
       210 -11.2533    179.4466     20.3371   2.7575209563e+01   3.7628194217e+01    0.4362817    0.2219643  46.00   0.00209493    2.881    0.653
       211  -9.8610      5.9418     21.7460   7.9224521742e+01   7.2842763056e+01    0.1711737    0.1314976  -1.46  0.001116714    1.073    0.068
       212 -11.4400    146.6946    237.8115   8.0936450623e+01   3.8991091303e+00    0.4626821    0.3159873  42.62  0.002548347    1.629    0.386
       213  -9.5214    216.5028     20.5344   2.4554340734e+01   2.9977777717e+01    0.1141395   0.08814931 -69.27 0.0001193898    1.023    0.023
       214  -9.7086    167.5341    238.5035   7.6557064797e+01   1.0655299024e+00    0.1289746    0.1064664   1.20 1.564548e-05    1.003    0.003
       215 -10.0062     74.6765     19.6057   4.5349179361e+01   6.1703427193e+01    0.1921806    0.1488788   4.91 0.0003459894    1.475    0.322
       216 -10.2147     46.9038     19.2636   5.5174713685e+01   6.7327354015e+01    0.2380958    0.1803156  26.13  0.001472783    1.146    0.128
       217  -9.1082      1.4736     20.5167   8.1752081507e+01   7.3450894303e+01    0.1217057    0.0924176 -13.10 0.0003911409    1.037    0.036
       218 -11.1790    246.9571    230.8825   6.0655151671e+01  -6.6960109743e+00    0.2426035    0.1298175  17.65   0.00150408    1.924    0.480
       219 -10.3508    233.4068    227.2139   6.2277991792e+01  -4.8169914271e+00    0.1557492   0.09523315 -42.26 0.0009496408    1.713    0.416
       220  -9.7114     75.4853    224.5017   9.6033152631e+01   1.6263766858e+01    0.1367386    0.1233703  42.07 0.0001908485    1.007    0.007
       221 -10.5109    131.1578    240.8195   8.4834109975e+01   5.4110848555e+00    0.2166586    0.1649793   3.78  0.001074751    1.289    0.224
       222  -9.9002     49.6769    222.6755   1.0226111587e+02   1.9865687737e+01    0.1315451    0.1006858 -28.50 0.0007047668    1.685    0.406
       223  -9.8998     89.4986     16.5177   4.0150305858e+01   5.8728683168e+01    0.2473015    0.1689252  31.55  0.001381756    1.594    0.373
       224 -10.5581    148.7658     15.7215   2.9724994672e+01   4.5002975857e+01    0.3062294    0.1618134  48.42  0.001462164    2.163    0.538
       225 -10.1147    117.3042     16.5884   3.4530965765e+01   5.2272958845e+01    0.2436725    0.1127207  71.67 0.0007428788    2.015    0.504
       226 -10.5696    186.8500     14.9918   2.5679027566e+01   3.6609244089e+01    0.1970598    0.1464979 -89.04 0.0004544616    1.140    0.123
       227 -10.0648    164.6942    211.9884   7.2894197690e+01   6.2583760680e+00    0.2274037     0.180923  19.20 0.0005837012    1.185    0.156
       228 -10.2947    152.6040    206.9430   7.4715429995e+01   9.0078860715e+00    0.2745467     0.216916 -68.11  0.001420006    1.724    0.420
       229  -9.2440     61.4805    206.4950   9.7556489638e+01   2.2268155659e+01    0.1400393    0.1296451  54.96 0.0008103487    1.005    0.005
       230 -10.3100    139.2129    198.8001   7.6426029431e+01   1.2738050020e+01    0.2330112    0.1565041  70.48  0.000949765    2.790    0.642
       231  -9.5827    233.7715    196.9670   5.7116673425e+01  -2.1484360770e-01    0.1660323   0.08155275 -38.12 0.0007798156    1.660    0.397
       232 -11.9810      5.0311    185.7559   1.1076733509e+02   3.3330829113e+01    0.5099584    0.3882914 -83.82  0.002599307    1.178    0.151
       233  -9.6147     86.0914    185.5101   8.7987915874e+01   2.4084316455e+01    0.2298988    0.1445382  29.56  0.001024204    1.566    0.362
       234  -9.2849    175.7459    179.9943   6.4705073692e+01   1.0868006581e+01    0.1863198     0.111788 -42.89 0.0008830708    1.552    0.356
       235  -9.8944     65.6237     10.3943   4.4126978355e+01   6.4549395985e+01    0.2361864    0.1094939  60.76  0.001111308    2.047    0.511
       236  -9.1785    113.6161    175.7145   7.8742660778e+01   2.2146489057e+01     0.159975    0.1166659 -10.07 0.0007010836    1.739    0.425
       237 -12.4584     10.0021    166.2535   1.0783411816e+02   3.7998347091e+01    0.6393737    0.2950594 -53.92  0.002751767    2.101    0.524
       238 -10.0660     18.6999    164.8765   1.0509772675e+02   3.7651507032e+01    0.2349538    0.1980985  -8.43  0.001323279    1.407    0.289
       239 -10.1318    204.9525    163.2594   5.5764765994e+01   9.5030280872e+00    0.2355108    0.1677811 -38.83  0.000628169    1.210    0.174
       240  -9.9147     28.3703    160.7924   1.0167108550e+02   3.7858900960e+01    0.2005594    0.1794451  60.98  0.001134915    1.117    0.105
       241 -10.7388      9.4331    155.7247   1.0703264804e+02   4.0835354788e+01     0.260985    0.1247694 -80.12  0.001118562    1.953    0.488
       242 -10.2782    104.4766    154.6765   7.7158127560e+01   2.8877518511e+01     0.324442    0.2679888 -27.60  0.001577457    1.302    0.232
       243 -12.5419     22.8588    149.0455   1.0200423344e+02   4.1540011761e+01    0.6736892    0.3260543 -36.00  0.001487248    2.603    0.616
       244 -10.5974      3.4104    152.9118   1.0864502295e+02   4.2005949025e+01    0.3045747    0.1747916  52.39  0.001469772    1.819    0.450
       245 -10.0511    141.4361    152.3111   6.6805274211e+01   2.2717430198e+01    0.2907629     0.191507  43.32 0.0008609092    1.588    0.370
       246 -10.6100     30.4640    152.0089   9.9898850695e+01   4.0024742895e+01    0.2752325    0.2057415 -13.01  0.001376871    1.619    0.383
       247 -10.3183     65.6799    149.6500   8.8035964173e+01   3.6403688322e+01    0.4591863     0.206498   9.05  0.001166317    5.526    0.819
       248 -11.0829     46.8321    147.3125   9.3813396303e+01   3.9509318284e+01    0.6539841    0.3662606 -36.96  0.002666682    2.110    0.526
       249 -11.1305     16.2271    147.9261   1.0404258692e+02   4.2402954756e+01    0.3046969    0.2534849  52.81 0.0005434713    1.248    0.199
       250 -10.4679      3.1802    147.6465   1.0823428452e+02   4.3420656788e+01    0.2329803    0.1701002 -88.40 0.0007977208    1.256    0.204
       251  -9.7347     74.0369    146.0059   8.4659246831e+01   3.6134697284e+01    0.2461468    0.1798975 -27.11  0.000490692    1.608    0.378
       252 -11.2477     33.1127    144.4550   9.7971804229e+01   4.1806102010e+01    0.2974772    0.2750229  77.23 0.0006858904    1.094    0.086
       253 -11.0637      5.8164    142.1958   1.0684017200e+02   4.4702778434e+01    0.3182439    0.2423217  81.01  0.000575527    1.289    0.224
       254 -11.3104      1.9299    140.7570   1.0797882092e+02   4.5333002584e+01    0.4457445    0.2142831 -76.41  0.001364177    1.831    0.454
       255 -10.3756     40.3800    138.0260   9.4482550470e+01   4.2769820441e+01    0.3191528     0.214937  52.76  0.001479092    1.657    0.397
       256  -9.6101    217.4470    138.5552   4.8760375693e+01   1.2007807568e+01    0.1313138    0.1094298 -38.53 0.0001260075    1.003    0.003
       257  -9.8620     79.2693    138.0316   8.1347049451e+01   3.7397143425e+01    0.2254806     0.201892 -57.91 0.0007174851    1.102    0.093
       258 -10.1241     32.3075    137.5670   9.7216365082e+01   4.3753584944e+01    0.5058268    0.1705384  29.91  0.001805459    2.847    0.649
