#   1 NUMBER                 Running object number                                     
#   2 MAG_AUTO               Kron-like elliptical aperture magnitude                    [mag]
#   3 X_IMAGE                Object position along x                                    [pixel]
#   4 Y_IMAGE                Object position along y                                    [pixel]
#   5 X_WORLD                Barycenter position along world x axis                     [deg]
#   6 Y_WORLD                Barycenter position along world y axis                     [deg]
#   7 A_WORLD                Profile RMS along major axis (world units)                 [deg]
#   8 B_WORLD                Profile RMS along minor axis (world units)                 [deg]
#   9 THETA_WORLD            Position angle (CCW/world-x)                               [deg]
#  10 FWHM_WORLD             FWHM assuming a gaussian core                              [deg]
#  11 ELONGATION             A_IMAGE/B_IMAGE                                           
#  12 ELLIPTICITY            1 - B_IMAGE/A_IMAGE                                       
         1 -12.3743     60.4967     45.4161   1.0556609567e+02   6.0798450706e+01     1.005435    0.4563426 -41.62  0.004603283    2.062    0.515
         2 -11.2185    105.9404     20.1515   8.0612549863e+01   5.5740422905e+01    0.5072368    0.2831369 -31.40  0.001245272    1.903    0.475
         3 -11.7065     26.1248     27.5379   1.1344850256e+02   6.8134514203e+01    0.4950196    0.3964884  33.15  0.003101777    1.561    0.359
         4 -11.0356     22.7468     11.1629   1.0799126361e+02   7.1077980010e+01     1.247231    0.5865455  -0.67  0.005063541    4.264    0.765
         5 -11.1201     14.2682      9.4200   1.1168353200e+02   7.2156705558e+01    0.3408203    0.2487797  19.19  0.002380979    1.461    0.315
         6 -11.5502     16.7609     13.5572   1.1224659953e+02   7.1295981797e+01    0.5738999    0.2720187 -25.68  0.002371427    2.122    0.529
         7 -11.2846    178.1028     21.4428   6.7342917166e+01   3.7508715249e+01     0.509622    0.3198982  31.88  0.001887072    2.099    0.524
         8 -10.5266    153.1458     25.7091   7.2539784919e+01   4.3522421525e+01    0.5395097    0.3349845   2.44   0.00235673    2.353    0.575
         9 -10.2585     87.3531      7.5501   8.0395428305e+01   6.1115428014e+01    0.6036474    0.3239032  51.47  0.003072105    1.654    0.395
        10 -11.4978     90.8040     19.9627   8.4721960208e+01   5.9065348785e+01     0.546116    0.4104795 -21.47  0.002579452    1.369    0.270
        11 -11.6777     86.1194     14.1834   8.3656143153e+01   6.0690476846e+01    0.5671651    0.3305029  -7.47  0.002092235    2.012    0.503
        12  -9.7178     32.1518     12.2071   1.0377052318e+02   6.9871251529e+01    0.2361224     0.171132  47.19 0.0009545084    2.086    0.521
        13 -11.1273     47.1373     18.6030   9.9925104671e+01   6.6996005728e+01     0.347424    0.3023965  -3.03  0.001898918    1.129    0.114
        14 -12.1182     49.1739     12.9717   9.6395611040e+01   6.7457483656e+01    0.5695021    0.3265341  43.48  0.002505912    1.896    0.473
        15 -11.2027     42.7221     14.0327   9.9718354186e+01   6.8248797005e+01    0.3791375    0.2284443  28.29  0.001443275    1.602    0.376
        16 -11.8889     35.7981     18.4260   1.0495233841e+02   6.8525253599e+01    0.5819163    0.2679373 -30.20  0.002966137    2.074    0.518
        17 -12.1188     69.1011     17.8144   9.0876466042e+01   6.3551984926e+01    0.6762328    0.3953095  53.24  0.003491326    1.991    0.498
        18 -12.1174    133.1403     15.1306   7.2647115124e+01   4.9756362544e+01      1.01283    0.3058434  60.48  0.003630832    2.725    0.633
        19 -11.7999    125.7485     11.2373   7.2697653688e+01   5.1966923096e+01    0.7391511    0.3980744  78.78  0.002999865    2.331    0.571
        20 -11.1654    165.3928     17.0918   6.7858119534e+01   4.1286355907e+01    0.3786774    0.2493186  41.01  0.000687011    1.646    0.393
        21 -12.1136    244.2041     14.6469   5.8694623866e+01   2.2008250520e+01    0.3587753    0.2905878  41.10  0.001780225    1.659    0.397
        22 -12.2789    245.6930      6.5345   5.6816166867e+01   2.2562611085e+01    0.9926618    0.4575654 -82.09  0.004614495    2.363    0.577
        23 -11.3336    239.9886      7.7716   5.7504160950e+01   2.3714476240e+01    0.2788463    0.1772324 -52.93 0.0002686611    1.377    0.274
        24 -12.4686    238.3485     15.4096   5.9336879964e+01   2.3252431501e+01    0.4258429    0.3330957 -28.05  0.001681303    1.457    0.313
        25 -11.7218    234.1335     16.4933   5.9938675647e+01   2.4104168682e+01     0.335325    0.2417075  46.35  0.001169331    1.744    0.427
        26 -11.3305     19.8917     22.9658   1.1466072017e+02   6.9490904928e+01    0.5309883     0.275132 -40.69  0.002400937    1.580    0.367
        27 -12.2370    104.9206     12.9072   7.7979699523e+01   5.6742917754e+01      0.48191    0.3885138  -9.49  0.001873143    1.314    0.239
        28 -11.3886    192.2176      7.8964   6.1836877460e+01   3.5287875845e+01    0.4730959    0.3164636   1.67  0.001876925    2.188    0.543
        29 -10.0396    193.9620      1.4346   5.9941892951e+01   3.5463867254e+01    0.1981612    0.1150712  76.02 0.0003866595    1.507    0.336
        30  -9.8929    157.5444     10.5252   6.6981846072e+01   4.3979172060e+01    0.3629731   0.08531613 -33.80  0.001210677    3.846    0.740
        31 -11.6982    211.4294      9.7660   6.0381891655e+01   3.0280219124e+01    0.4794273    0.3533602  20.24  0.001753718    1.989    0.497
        32 -10.6054    169.0906      9.9691   6.5191418999e+01   4.1041325599e+01    0.3604057    0.2069751  47.24  0.001714432    1.771    0.435
        33 -10.9119     66.1121     10.5314   8.8588139397e+01   6.4952173806e+01    0.2954918    0.2130792  45.49  0.001000596    1.409    0.290
        34 -10.5792     62.8657      6.4687   8.7817861021e+01   6.5977197386e+01    0.3209839    0.1968671  -2.49  0.001157181    1.743    0.426
        35  -9.7375      4.1424     10.5520   1.1784863880e+02   7.2777680375e+01    0.2807282    0.1025573 -27.80   0.00129687    3.108    0.678
        36  -9.7555    157.9442      2.6872   6.4473809605e+01   4.4585767755e+01    0.3264897      0.15639  53.23  0.001475975    1.857    0.461
        37 -10.7402    162.7629      5.9832   6.4836935158e+01   4.3052382032e+01    0.5217156    0.2078741 -22.93  0.002124311    2.854    0.650
        38 -10.0775    162.6904      1.3124   6.3425387595e+01   4.3481360580e+01    0.3104892    0.1875366 -70.56 0.0008264594    1.919    0.479
        39 -10.2781    151.0716      7.7382   6.7065230879e+01   4.5907314679e+01    0.3596943    0.2079607  67.72 0.0009928378    1.515    0.340
        40 -10.0076      1.2644      7.3479   1.1810548933e+02   7.3484657352e+01    0.1584253   0.07585493 -47.89 0.0001678084    1.762    0.432
        41  -9.3027    184.7036      7.3277   6.2512303741e+01   3.7264317641e+01    0.1425077     0.091487 -65.24 0.0003338079    1.631    0.387
        42 -11.0781     77.3038      4.8946   8.2191192840e+01   6.3422035629e+01    0.4876387    0.2746262 -19.84   0.00260296    1.835    0.455
        43 -10.9028     71.6673      3.6115   8.3390117447e+01   6.4643971202e+01    0.3867016    0.2646928   7.28  0.002281252    1.446    0.309
        44 -10.7379    199.7735      6.0208   6.0562489215e+01   3.3561313974e+01    0.3878016    0.1684009  75.06  0.001683717    2.085    0.520
        45 -10.5490     42.6894      3.2072   9.4302362244e+01   6.9616647302e+01    0.4391851    0.2369712   6.10  0.002221351    2.377    0.579
        46 -11.0041    218.5955      3.3421   5.8184629945e+01   2.9189196415e+01    0.3099057    0.2598042  78.23 0.0007920904    1.151    0.131
        47 -11.7663    223.4837      1.9843   5.7467904137e+01   2.8154758350e+01    0.7082047    0.2970027 -85.91  0.002915167    2.749    0.636
        48 -10.4896    173.5084      4.3595   6.2982745672e+01   4.0424254408e+01    0.4879097    0.1758197  71.81  0.001888062    2.462    0.594
        49 -10.6352    141.7678      3.6447   6.7164127491e+01   4.8641193537e+01    0.3742267    0.2154516  61.31  0.001856339    1.464    0.317
        50 -12.2122    133.8063      2.6919   6.8147731135e+01   5.0725086446e+01    0.3961239    0.2532632  58.84  0.000696424    1.323    0.244
        51 -11.3381    113.3118      1.9048   7.1709091546e+01   5.5787662271e+01    0.4314165    0.2177913  64.05  0.001364915    1.795    0.443
        52 -11.0641    105.1085      1.7136   7.3406947296e+01   5.7718680912e+01    0.6223654     0.268873  69.61  0.002253037    2.668    0.625
        53 -10.8397    205.4913      2.2434   5.9057692238e+01   3.2501854474e+01    0.4234792    0.1999467 -88.72  0.001118558    2.244    0.554
        54 -10.9586      2.8422      1.7856   1.1457791157e+02   7.4235432833e+01    0.3618714    0.1641521   9.40  0.002051988    2.521    0.603
        55 -10.3631    122.7383      1.1207   6.9555564529e+01   5.3584925916e+01    0.3881827   0.03962851  61.77  0.001054942    4.958    0.798
        56  -9.2373     82.0230      1.1936   7.9074812049e+01   6.2806294163e+01    0.1691099   0.08723895  53.64 0.0005744774    1.738    0.425
        57 -11.4532    104.9776    121.0428   1.1312847001e+02   3.7534445158e+01    0.4874042    0.4688826  85.18    0.0020856    1.016    0.015
        58 -10.3854     45.7682    120.7150   1.3015662304e+02   4.6519263013e+01    0.2807547    0.2127019  85.80  0.001347223    1.363    0.266
        59 -10.9248     34.4335    119.5923   1.3328457014e+02   4.7966306250e+01    0.2429418    0.2063541 -59.36 0.0004938988    1.132    0.117
        60  -8.8535     72.6661    119.7007   1.2207244792e+02   4.3277398069e+01    0.1386582    0.1068956 -25.17 0.0003110742    1.652    0.395
        61  -9.3903     81.3816    117.7804   1.1911852560e+02   4.2388549501e+01     0.191975    0.1254205 -48.09 0.0002556663    1.507    0.337
        62  -9.8738    113.9956    115.9594   1.0943267263e+02   3.6924543852e+01    0.2188268    0.2155003  77.66 0.0003468497    1.014    0.013
        63  -9.2002     37.3450    115.3194   1.3175323531e+02   4.8670635391e+01    0.1319547   0.08746056 -38.64 0.0007049365    1.726    0.421
        64  -9.9761     34.5178     92.5960   1.2854288661e+02   5.4165486143e+01     1.462568    0.8295186 -74.97  0.007383126    1.884    0.469
        65 -12.1827     37.2913     86.1431   1.2624410520e+02   5.5345279595e+01     1.622657    0.4177212  25.92  0.005692454    4.627    0.784
        66 -11.4975     44.4950     85.2466   1.2353569497e+02   5.4793142904e+01    0.8491737    0.5032579  62.15   0.00391669    2.677    0.626
        67 -12.1900      9.7538     97.7432   1.3751752076e+02   5.4953616896e+01     1.254457    0.4025978  36.14  0.005717573    3.377    0.704
        68 -12.3040      7.4850     88.8524   1.3692453316e+02   5.7076401293e+01    0.4875765    0.4558935 -80.66  0.001202235    1.173    0.147
        69 -12.0325     25.5852    113.5302   1.3497662731e+02   5.0178884502e+01    0.8020935    0.4086279   7.53  0.003729188    3.212    0.689
        70 -12.7780     26.3891    106.8305   1.3370679190e+02   5.1650108793e+01     1.052259    0.5941356 -24.27  0.005133657    2.696    0.629
        71 -12.0804     18.8952    106.1640   1.3590590043e+02   5.2408645617e+01    0.2721491    0.2045866 -63.24 0.0002874065    1.115    0.103
        72 -12.2450     18.3944     90.5587   1.3356951809e+02   5.5975484919e+01    0.4662196    0.2519386 -58.81 0.0007028815    1.478    0.323
        73 -10.2655      7.4865    114.5324   1.4037960061e+02   5.1316862102e+01    0.2283556    0.1750726 -65.30 0.0008242604    1.128    0.114
        74 -11.6970      2.5536    112.0876   1.4150578045e+02   5.2176872885e+01    0.3678075    0.2409631 -75.02 0.0008704207    1.206    0.171
        75 -10.5181      5.5323    108.5284   1.4022938487e+02   5.2794493189e+01     0.193617    0.1484136  63.99 0.0008716666    1.401    0.286
        76 -11.7572      3.3112    104.9881   1.4045534119e+02   5.3722634142e+01    0.3469205    0.3346508 -10.82  0.001288702    1.311    0.237
        77  -9.3173    126.9199    113.9938   1.0547326304e+02   3.4679424701e+01    0.1844148    0.1735985  51.04 0.0004757123    1.046    0.044
        78  -9.2750     88.0449    114.5395   1.1644892160e+02   4.2043297869e+01    0.2135956    0.1151622  59.53 0.0002705451    2.640    0.621
        79 -10.6187     67.2123    112.3097   1.2216765000e+02   4.5782739599e+01    0.4471697    0.2626543 -66.56  0.002102747    1.737    0.424
        80 -10.3583    108.3788    112.5605   1.1014868245e+02   3.8789112656e+01    0.3084408    0.2084401  74.50  0.001160632    2.168    0.539
        81 -10.4451    170.5917    110.0108   9.3913838671e+01   2.5498258169e+01     0.410932    0.3462596 -18.38  0.002025385    1.328    0.247
        82  -9.9059    175.1133    107.1456   9.2196340688e+01   2.4964169582e+01    0.3055399    0.2252672 -18.93 0.0007179239    1.640    0.390
        83  -9.7847     48.9114    112.1516   1.2770874301e+02   4.8160233966e+01    0.2035483    0.1709462  80.94  0.001227005    1.244    0.196
        84 -10.7642     79.1531    108.5207   1.1770988438e+02   4.4875804992e+01    0.4850868     0.371743  53.87  0.002558814    1.412    0.292
        85 -13.3376     18.8114     95.5995   1.3428464685e+02   5.4811677682e+01    0.4518674    0.3454004  36.03 0.0004968341    1.533    0.348
        86  -9.8552    157.8606    105.7487   9.5650754820e+01   2.9361243284e+01    0.2326694    0.2113391  24.22 0.0006608472    1.171    0.146
        87  -9.6374    143.2935    105.9707   9.9193610304e+01   3.2727747971e+01    0.2217611    0.2075026 -50.40 0.0008680661    1.091    0.083
        88  -9.3672    103.3747    106.1928   1.0996663835e+02   4.1168927101e+01    0.2048714    0.1386684 -60.50 0.0004765585    1.602    0.376
        89 -11.0266     86.0528    105.2707   1.1484975901e+02   4.4490664245e+01     0.344877    0.3122154 -38.82  0.001333394    1.118    0.106
        90 -10.4929     48.0834    103.0426   1.2620507747e+02   5.0364055682e+01    0.2102325    0.1942868  -1.76 0.0003844019    1.248    0.199
        91 -10.2039     52.3367     96.9369   1.2354371776e+02   5.1262949332e+01    0.6342552   0.08883423 -51.67  0.001775999    4.940    0.798
        92 -10.0676     68.1768     99.9842   1.1912340798e+02   4.8478699204e+01     0.312704    0.2539504 -88.73  0.001581363    1.424    0.298
        93 -10.5155     68.1267     95.7129   1.1811406430e+02   4.9450994094e+01    0.4706907    0.3202174 -13.28  0.002207743    2.165    0.538
        94  -9.6831    210.5245     98.5264   8.3195643315e+01   1.8053235967e+01    0.1457898    0.1418435 -49.79 1.739299e-05    1.006    0.006
        95 -10.3140     57.8361     97.8236   1.2194803700e+02   5.0376581829e+01    0.2420241     0.191745 -72.02 0.0006784897    1.280    0.219
        96  -9.4213     78.0902     97.1437   1.1528814416e+02   4.7620528867e+01    0.1843813    0.1618213  89.08            0    1.281    0.219
        97 -10.0311     42.5469     94.5834   1.2626847612e+02   5.2907776732e+01    0.2249604    0.1923852 -82.92 0.0006546009    1.213    0.176
        98 -10.5999    125.4114     93.3608   1.0032364902e+02   3.9354200038e+01    0.5108583    0.2424632  43.45   0.00137582    2.113    0.527
        99 -11.6061     81.9893     93.2162   1.1304039443e+02   4.7859053274e+01    0.4435787    0.3411004  74.89 0.0008559849    1.711    0.416
       100  -9.8754    117.3407     93.2076   1.0248813154e+02   4.1137172426e+01     0.288555    0.1832771  35.90   0.00124864    1.692    0.409
       101  -9.3000    152.5154     92.5265   9.3272872404e+01   3.3217068026e+01    0.1554778    0.1514482  65.88 0.0001900211    1.016    0.016
       102 -11.0456     89.3970     89.9081   1.0981532007e+02   4.7308050349e+01    0.4369639    0.2741055 -44.51  0.001049074    1.545    0.353
       103  -9.4260     92.9119     85.5237   1.0747788528e+02   4.7604971307e+01    0.1959329    0.1866021  35.22 0.0004172087    1.078    0.072
       104 -10.2713    102.4102     90.1182   1.0590855510e+02   4.4834599745e+01    0.4804976    0.3054865   9.19  0.001805152    2.910    0.656
       105  -8.9152    212.2975     87.3145   8.0078312481e+01   1.9497127057e+01     0.145585    0.1151954  16.38 0.0002674842    1.606    0.377
       106 -10.5395    113.2801     83.7795   1.0088601332e+02   4.3923650199e+01    0.6084248     0.279325 -35.66  0.002228848    2.460    0.593
       107 -11.0807    108.1082     79.9641   1.0122790517e+02   4.5768649236e+01    0.5701336     0.399795  83.46  0.002305431    2.394    0.582
       108 -11.3397     66.4846     81.8201   1.1505758522e+02   5.2747832894e+01    0.5289553    0.3572674  21.27  0.002697132    1.737    0.424
       109 -11.1834     79.7574     82.6171   1.1084065426e+02   5.0518343878e+01    0.6163539    0.4961557 -79.79  0.002570918    1.578    0.366
       110 -11.4655     73.5211     77.5003   1.1143757626e+02   5.2602049302e+01    0.6223598    0.4557709 -11.52  0.003164166    1.706    0.414
       111 -10.8885    143.5508     83.5052   9.2811245728e+01   3.7091606349e+01    0.3845979    0.3130534 -16.27  0.001331839    1.419    0.295
       112 -10.1355    165.8971     83.3428   8.7675425528e+01   3.1625200193e+01    0.3131145    0.2642141 -60.42  0.001533233    1.270    0.213
       113  -9.3108    127.5013     83.4961   9.6886233001e+01   4.0853074863e+01    0.1527128    0.1480026  22.69 -0.000194115    1.033    0.032
       114 -11.2107     58.2748     78.2090   1.1691402369e+02   5.4662103663e+01    0.3173796    0.2466888  38.60  0.001041213    1.419    0.295
       115 -11.4854     52.9310     76.1727   1.1826013806e+02   5.5784950764e+01    0.5681558    0.3251824 -52.85  0.002869037    1.572    0.364
       116  -9.4834    121.5253     78.9890   9.7130622996e+01   4.3071210415e+01    0.2209987    0.1495839 -39.33 0.0004566199    1.500    0.334
       117 -10.3193     13.8036     54.3650   1.2767525084e+02   6.4073252248e+01    0.2571123    0.1536925 -44.19 0.0002269759    1.356    0.263
       118 -11.9804     13.9250     74.6081   1.3217846402e+02   5.9802277335e+01    0.4602921    0.3372993 -65.77  0.001706849    1.175    0.149
       119 -11.3835     13.6055     66.3823   1.3058862565e+02   6.1586970120e+01    0.2980881    0.2540566  71.88  0.001081045    1.460    0.315
       120 -12.4968      8.9381     62.1927   1.3149928081e+02   6.2759341880e+01     0.655521    0.5001696 -37.57  0.004565387    1.198    0.165
       121  -9.4068      4.8469     78.1547   1.3609754963e+02   5.9575541989e+01    0.1656269    0.1079738 -50.48   0.00105724    1.285    0.222
       122 -10.4459     93.7530     76.2497   1.0444215880e+02   4.9353410551e+01     0.391387    0.2683992  27.77   0.00121203    1.632    0.387
       123 -11.7468     74.2324     50.0425   1.0217839346e+02   5.7795566112e+01     1.017753    0.7786258 -48.67  0.005677627    1.443    0.307
       124 -11.7307     85.9375     73.4593   1.0607902281e+02   5.1347068498e+01    0.6303364    0.5669293  46.93  0.003047976    1.196    0.164
       125 -11.6932     78.6552     66.9874   1.0645447914e+02   5.3895369716e+01    0.7154118    0.5893313  67.65  0.003902039    1.594    0.373
       126 -11.4352    186.8692     70.5444   7.9970285733e+01   2.8496833925e+01    0.6715632    0.5142673 -15.78  0.003235563    1.561    0.359
       127 -11.1727     32.4555     71.8632   1.2467381900e+02   5.8931319410e+01    0.4863694    0.2453644  27.84  0.001886674    2.233    0.552
       128 -10.2640     38.5028     73.5134   1.2282986645e+02   5.7988402165e+01    0.2528968    0.1777112 -34.85 0.0008686925    1.376    0.273
       129 -11.1579     40.9707     70.1952   1.2104468725e+02   5.8437854441e+01    0.3659959    0.2626514 -61.98  0.001544533    1.380    0.275
       130 -12.0471      2.0225     71.4425   1.3595379262e+02   6.1171586410e+01     0.601991    0.1439465 -65.13  0.002513259    2.925    0.658
       131  -9.4297    161.9702     70.4752   8.4769744741e+01   3.4849315239e+01     0.224271    0.1366246  83.82 0.0008101494    2.618    0.618
       132 -11.2979    122.4983     68.3025   9.3505855570e+01   4.4840485866e+01    0.5943451    0.3564925  45.99  0.002605041    1.621    0.383
       133  -9.4297    208.7449     67.9673   7.5671622192e+01   2.3422657416e+01    0.1987163    0.1878757 -56.65 0.0004528099    1.040    0.039
       134  -9.8763    172.1714     67.9038   8.1955210324e+01   3.2674278568e+01     0.244011     0.208376 -71.98 0.0009880983    1.259    0.206
       135 -11.1669    219.5678     66.3777   7.3681140537e+01   2.1034863886e+01    0.5647054    0.3031503  64.29  0.002490431    1.915    0.478
       136  -8.9924     69.7007     66.7350   1.0948170356e+02   5.5397482035e+01    0.1333121    0.1006456 -10.61 0.0001949749    1.517    0.341
       137 -10.9392     58.2853     61.7921   1.1205895220e+02   5.8050126292e+01    0.5132733    0.3233572 -60.90  0.002052747    1.923    0.480
       138 -11.3326    127.5445    242.7635   1.2787931216e+02   8.8446778019e+00    0.2910908    0.2236089 -74.56  0.001918937    1.620    0.383
       139 -10.7893     60.6898     36.7081   1.0213214257e+02   6.2241010262e+01    0.3103902    0.2026915 -32.80  0.001072314    1.431    0.301
       140  -9.5564     66.3153     73.4381   1.1272722893e+02   5.4544905447e+01    0.2691763    0.1589437 -52.76 0.0008675033    1.649    0.393
       141  -8.8086     25.6858     65.2873   1.2563404344e+02   6.0922907978e+01    0.1114683   0.09196407  76.26 0.0003740285    1.585    0.369
       142 -10.1117     20.9191     65.0605   1.2744169384e+02   6.1350265884e+01    0.1811757    0.1476741 -43.45 0.0008381102    1.051    0.049
       143 -10.7240    204.3651     63.9274   7.5281716073e+01   2.5120715403e+01     0.261167    0.2116178  43.87 0.0002047351    1.346    0.257
       144  -9.6139    167.7418     63.1188   8.1417370107e+01   3.4579434289e+01    0.2221146    0.1952353 -81.97  0.001145505    1.203    0.169
       145  -9.9259     98.4891     62.3422   9.8459351741e+01   5.1091089247e+01    0.2566129    0.2216997  27.03 0.0009863179    1.146    0.127
       146 -10.6592     87.5598     56.7279   1.0000891509e+02   5.4228813873e+01    0.4236298    0.2314529 -42.24  0.001286719    1.826    0.452
       147 -10.9966     92.0349     62.3051   1.0047665698e+02   5.2367051531e+01    0.3712183    0.3044512  50.07  0.001243889    1.314    0.239
       148 -10.6208     91.6872     57.9792   9.9104645365e+01   5.3218929878e+01    0.3648171    0.3317451   6.25  0.001256219    1.059    0.055
       149 -10.2690    159.7197     61.6576   8.2591672684e+01   3.6867795134e+01    0.4150837     0.237817  43.12  0.001717921    1.833    0.454
       150 -10.1154    113.5070     61.0132   9.3578228633e+01   4.8150610455e+01    0.5684502     0.231489 -34.62  0.002063525    2.617    0.618
       151 -10.9736    122.3395     58.6303   9.0367469141e+01   4.6554692040e+01    0.4833844    0.3755271  69.56  0.001993204    1.491    0.329
       152 -10.6097    117.4665     56.2046   9.0851646572e+01   4.8077437441e+01    0.3746295    0.2116201  57.91  0.001118549    1.918    0.479
       153 -12.3416    246.7479     78.2419   7.2912590163e+01   1.3078795993e+01    0.4640115    0.3612466 -43.97  0.002645015    1.159    0.137
       154  -9.0178     34.9673     57.0379   1.1968284988e+02   6.1772181279e+01    0.2177716    0.1606604 -12.61   0.00077997    1.444    0.307
       155 -11.5992     51.2158     61.4179   1.1461422781e+02   5.9057124525e+01    0.4454942    0.3248188 -56.52  0.001203768    1.419    0.295
       156 -11.3999     46.2465     58.3421   1.1558080760e+02   6.0278114296e+01    0.5013452    0.3309565 -43.91  0.002840613    1.328    0.247
       157 -10.9032     41.1380     56.8756   1.1714950174e+02   6.1154878767e+01    0.3038985    0.2477836  50.47 0.0007450414    1.590    0.371
       158 -10.5337     38.7034     53.6745   1.1713457402e+02   6.2052447749e+01    0.2413416    0.1832426 -16.11 0.0007946104    1.323    0.244
       159  -9.2251     26.2090     60.0136   1.2406171521e+02   6.1976397432e+01    0.9279529    0.3825914  47.11  0.003688976    4.346    0.770
       160 -10.9826     25.4626     55.3056   1.2307441480e+02   6.3000021951e+01    0.5838759    0.2937791  10.79  0.001523375    2.564    0.610
       161 -10.5645     29.4758     52.5424   1.2060082059e+02   6.3197520456e+01    0.4695782    0.1741458  30.90  0.002164211    2.942    0.660
       162  -8.8531    146.6756     60.6961   8.5102018837e+01   4.0325248028e+01     0.156972    0.1154604  24.91 0.0007032042    1.640    0.390
       163  -9.5845    228.2859     59.2977   7.0757908748e+01   1.9999529130e+01    0.1308638    0.1085937  23.70 0.0002225798    1.550    0.355
       164 -11.2430    145.7664     47.2570   8.0991889003e+01   4.2617523900e+01     0.805271    0.3311862 -25.42  0.002803268    3.018    0.669
       165 -10.7867    136.4063     56.3764   8.6088792798e+01   4.3564343814e+01    0.5039604    0.3647594   2.88  0.001512912    1.843    0.458
       166 -10.1078    157.4713     56.5274   8.1482290528e+01   3.8247334852e+01    0.2771287    0.2204223 -17.82 0.0005996563    1.432    0.302
       167 -10.5360    156.9566     53.4636   8.0637962443e+01   3.8845875054e+01    0.6511914     0.390987 -62.78  0.002597702    2.333    0.571
       168  -9.8260      2.0969     56.1551   1.3293863777e+02   6.4383385901e+01    0.1731379    0.1214625 -42.53 0.0005438403    1.201    0.167
       169  -9.8228     67.1434     54.9263   1.0648348000e+02   5.8067884737e+01    0.1903346    0.1830949 -49.57  0.000663309    1.218    0.179
       170 -11.3292    245.1137     50.8643   6.6784923017e+01   1.7316651878e+01    0.2781459    0.1964167 -70.44  0.001216229    1.439    0.305
       171 -11.3726    240.0381     50.4959   6.7253892148e+01   1.8508198957e+01    0.3178544    0.2829133  65.17 0.0009157797    1.220    0.180
       172  -9.9452     52.0312     47.6401   1.0970368473e+02   6.1594880025e+01    0.2961734    0.1971337 -30.26  0.001654376    1.407    0.289
       173 -11.0081     33.8290     44.0897   1.1603876384e+02   6.4403207733e+01    0.4999942      0.26457  25.37  0.002057126    2.066    0.516
       174 -10.5132     30.7436     40.3131   1.1608478942e+02   6.5416493957e+01    0.7828636    0.1215711  32.99  0.002532377    6.054    0.835
       175 -11.9861     46.0587     48.9546   1.1257468345e+02   6.2114184231e+01    0.5831928    0.3740253 -41.66  0.001683154    1.377    0.274
       176 -11.7776     41.8511     45.4709   1.1310261755e+02   6.3265599822e+01    0.2844816    0.2647344  14.97 0.0008519926    1.237    0.191
       177 -10.7560    113.1347     49.8119   8.9815330420e+01   5.0091380089e+01    0.7593669    0.4341205  34.78  0.003271194    1.927    0.481
       178 -12.6438    117.2957     42.7778   8.6191640065e+01   5.0207750670e+01      1.06248    0.6383674  71.13  0.003875935    2.310    0.567
       179 -12.9597    120.1067     38.7327   8.4017564505e+01   5.0124906417e+01    0.8687881    0.6843551 -79.53  0.002544112    1.700    0.412
       180 -10.5372    173.8313     48.3226   7.5906015108e+01   3.5228434473e+01    0.4210777    0.2482389  72.85  0.001566903    1.817    0.450
       181  -9.8356      3.4043     48.8942   1.3072866629e+02   6.5795232385e+01    0.1731149    0.1468654  18.08   0.00129563    1.444    0.308
       182 -10.1966    202.4745     46.8555   7.1022321368e+01   2.8058255565e+01    0.3638173    0.2499807 -22.09  0.001768176    1.693    0.409
       183  -9.2352     90.6883     48.3398   9.5975558390e+01   5.5069616058e+01    0.1349808    0.1129452 -76.63 0.0007045784    1.694    0.410
       184 -10.6531     27.5775     47.2243   1.1977035836e+02   6.4412552284e+01    0.4074427    0.2123377  -9.46   0.00190053    2.891    0.654
       185 -10.7836     20.9008     46.9533   1.2258631380e+02   6.5034953209e+01     0.298508     0.232686 -54.74 0.0009661832    1.230    0.187
       186  -9.8651     14.1688     46.1625   1.2530936510e+02   6.5690482557e+01    0.2606597   0.07690654 -44.02   0.00114197    2.660    0.624
       187  -9.2300    132.4324     45.4334   8.3371570989e+01   4.6206927455e+01    0.1476296    0.1352712  37.60 6.621466e-05    1.048    0.046
       188  -9.5767    139.2220     43.8203   8.1279802651e+01   4.4756977014e+01    0.2925076    0.1485401  49.15  0.001205476    1.829    0.453
       189 -10.6238    100.0225     42.7415   9.1002398065e+01   5.4051599256e+01    0.3890058    0.2718094 -69.24  0.001749461    2.427    0.588
       190 -11.2827     93.8500     41.3748   9.2366105186e+01   5.5542330250e+01    0.5232198    0.2815633  44.63  0.001660314    1.780    0.438
       191 -10.0132      4.0975     43.9819   1.2918622239e+02   6.6736432725e+01    0.3459937    0.1646606 -27.54  0.001128009    2.203    0.546
       192 -11.1904    156.1142     41.8414   7.7156701582e+01   4.0728786857e+01     0.362735    0.3186844  41.58 0.0009263082    1.149    0.130
       193  -9.8673     18.0347     42.0813   1.2236828274e+02   6.6201299930e+01    0.2389812    0.1373363  -7.62  0.001340655    2.088    0.521
       194 -11.2134     81.4291     39.2895   9.5597676249e+01   5.8290138135e+01    0.4668827    0.3543473  52.96  0.001706485    1.515    0.340
       195 -10.9092     77.5887     34.1331   9.4861224894e+01   5.9783210112e+01    0.3903907    0.2477148  32.27  0.001013899    1.552    0.356
       196 -11.4531     82.4466     31.6788   9.2213331266e+01   5.9226884936e+01    0.3923859    0.3651433 -58.88  0.002232655    1.388    0.279
       197 -11.0325    231.4224     39.1901   6.5522871446e+01   2.1996862452e+01    0.3561161    0.2295423 -52.74  0.001860147    1.447    0.309
       198 -11.1395      4.1459     36.4587   1.2708282165e+02   6.8192400421e+01    0.3877882    0.2122679 -35.14  0.001167691    1.548    0.354
       199  -9.9203      6.4591     30.7899   1.2421988062e+02   6.9120188785e+01    0.2644336     0.126521 -14.11  0.001389457    2.583    0.613
       200 -10.3566    176.7646     36.9639   7.2072284120e+01   3.5998861150e+01    0.3242594    0.2366234 -27.80  0.001633891    1.501    0.334
       201 -10.1089    133.7173     37.5741   8.0381513045e+01   4.6986828569e+01    0.3552966    0.2368071 -83.88  0.001524406    2.271    0.560
       202 -10.9005     22.4039     36.5171   1.1853984371e+02   6.6889028949e+01    0.3799467    0.2196346  39.66  0.001975516    2.293    0.564
       203  -9.6951    207.0964     36.9232   6.7786905537e+01   2.8210217051e+01    0.2231098    0.1786387 -69.23  0.001222607    1.205    0.170
       204 -10.2405    153.3289     36.2882   7.5915976856e+01   4.2184225980e+01    0.2646426     0.237799 -83.40 0.0005293435    1.163    0.140
       205  -9.7541    160.8655     33.4957   7.3661009996e+01   4.0585227002e+01      0.23779    0.1963114 -70.52 0.0009845557    1.306    0.234
       206 -10.2419    150.5014    237.5034   1.2285386186e+02   5.9086140077e+00    0.1265185     0.100427  41.99 0.0008106621    1.011    0.011
       207 -11.7037    105.7490     32.8380   8.5606017332e+01   5.4222221251e+01     1.040658    0.5644909   7.51   0.00368133    3.651    0.726
       208 -11.7592    115.5196     24.5135   7.9904779715e+01   5.3026095172e+01    0.5449437     0.242391  50.10  0.001688823    1.966    0.491
       209 -11.3413    110.4966     23.4957   8.0757838893e+01   5.4315291673e+01    0.3185532    0.2671497  29.14 0.0009567469    1.123    0.110
       210 -11.0890     69.7416     32.5636   9.7018242859e+01   6.1411837781e+01     0.439488    0.2784402  34.53 0.0008074354    1.536    0.349
       211 -10.1172    172.2033     33.1121   7.1654539810e+01   3.7676015438e+01    0.2668782    0.2066801 -88.72  0.001112412    1.338    0.252
       212 -11.5860    241.0972     31.1133   6.2658815768e+01   2.0775381744e+01    0.3727019    0.2960701  -3.13  0.002145681    1.759    0.432
       213 -10.4500    189.5000     27.5822   6.7543757779e+01   3.3849100402e+01    0.3587103     0.267067   3.13  0.001815339    1.839    0.456
       214 -10.5574     60.4385     25.8372   9.7694810231e+01   6.3948255898e+01    0.4924949    0.2091686 -37.67  0.001505899    2.309    0.567
       215 -10.9686     56.3985     30.8279   1.0142846118e+02   6.3828705003e+01    0.3714897     0.220083  37.18  0.001532768    1.722    0.419
       216 -11.9186     48.2213     30.4045   1.0463236913e+02   6.5068588014e+01    0.6793084    0.2931703  29.19  0.002760021    2.556    0.609
       217  -9.6618     36.0833     32.0331   1.1060852417e+02   6.6316663784e+01    0.1665207    0.1510698 -76.92 0.0007726921    1.674    0.403
       218  -9.3070     15.4861    233.5162   1.4762172043e+02   2.5640999302e+01    0.1042412    0.0775893  71.51 0.0008085528    1.095    0.087
       219  -9.1659     23.3034    231.6734   1.4618239491e+02   2.5150805365e+01    0.1164666   0.05650707  65.21 0.0007033023    1.644    0.392
       220  -9.0432    190.3058    229.7191   1.1416399632e+02   3.5959204366e-01    0.1158656    0.0905614  56.99 0.0002687534    1.556    0.357
       221  -9.4661      9.2172    227.3798   1.4839543209e+02   2.7391435715e+01    0.1406283   0.07035075  51.39 0.0002348211    1.541    0.351
       222 -10.9309     14.9765     23.0231   1.1716392140e+02   6.9899170575e+01     0.331011    0.1726212 -40.25  0.001978363    1.527    0.345
       223 -10.7059    198.2294     28.8695   6.6768273240e+01   3.1455231110e+01    0.3810088    0.2420815  50.61  0.001562406    1.651    0.394
       224 -10.0684    199.5351     24.9872   6.5569992484e+01   3.1582730254e+01    0.2581261      0.18951  65.14 0.0005287972    1.281    0.219
       225 -10.3902    175.8553     29.3892   6.9986984647e+01   3.7177207337e+01    0.3240093    0.2214308 -13.44  0.001251292    1.835    0.455
       226 -11.5429    182.8511     25.0389   6.7724413914e+01   3.5867846409e+01    0.5813661    0.2671929  53.63  0.002129423    2.060    0.514
       227  -9.9248      9.9766    217.7006   1.4778903229e+02   2.9123217774e+01    0.1512715    0.1073104  67.30 0.0006018783    1.061    0.058
       228  -9.9784    160.2859     29.3099   7.2450993583e+01   4.1247846414e+01    0.2679161    0.2043817  64.95 0.0006905415    1.195    0.163
       229 -11.3262    164.3169     27.5382   7.1230425579e+01   4.0407824298e+01    0.4098563    0.2887361 -87.95  0.001541817    1.573    0.364
       230 -11.9897    125.1970     27.6068   7.8779667226e+01   5.0343585629e+01    0.6172474    0.4580187  59.99  0.002491976    1.274    0.215
       231  -9.6956    100.0808     30.1675   8.6161051897e+01   5.5821164822e+01    0.2226462    0.1719068  23.79  0.001217244    1.280    0.219
       232  -9.7330    158.0841     20.4610   7.0031167404e+01   4.2828113984e+01    0.5182566     0.169432  68.84  0.001737836    3.063    0.674
       233  -9.7332    152.5112    207.5170   1.1816191722e+02   1.0482106669e+01    0.1360711     0.115819  44.15 9.431974e-05    1.012    0.012
       234 -10.0314    156.7256     24.9895   7.1691463941e+01   4.2677661457e+01    0.2916578     0.223059  72.21  0.000487055    1.227    0.185
       235 -10.8388    250.4120     24.4479   6.0342222682e+01   1.9494500121e+01    0.3772652   0.09177494 -34.60 0.0009634268    3.306    0.697
       236 -11.5354    246.6085     20.7326   5.9841434193e+01   2.0774534925e+01    0.3407122    0.2095683 -71.27 0.0009623872    1.562    0.360
       237 -10.9785    214.9385     23.5685   6.3467133756e+01   2.7892025139e+01    0.3882056    0.3115604 -35.91  0.001712942    1.314    0.239
       238 -10.3510    144.1936     24.8587   7.3888808092e+01   4.5920315934e+01    0.4255559     0.168612  72.46  0.001414319    3.261    0.693
       239  -9.9859    133.9163     24.3843   7.5748785661e+01   4.8570793105e+01    0.3813809    0.2821289 -81.30  0.001911671    1.704    0.413
       240 -11.0845    140.5550     20.3849   7.3060101581e+01   4.7342353610e+01    0.7585031    0.1843712  50.79  0.002421133    3.386    0.705
       241 -10.1361      4.5585    204.7853   1.4810791235e+02   3.2124567385e+01    0.1998312    0.0808964 -74.88  0.001134801    2.125    0.529
       242  -9.9260     80.7299     19.3674   8.7593676362e+01   6.1177288780e+01    0.3009035     0.180443  50.66  0.001560336    1.659    0.397
       243  -9.6095    233.5165    196.9881   1.0061746107e+02  -2.3735434143e+00    0.1808705    0.1176953 -28.36 0.0005626971    1.550    0.355
       244 -10.2883    169.8711    191.3262   1.1184579116e+02   1.0092511856e+01    0.3737974    0.1966706  31.48  0.001095509    2.055    0.513
       245  -9.4554     16.5268    192.4895   1.4508584291e+02   3.3468743840e+01    0.1148144    0.0860551  77.24 8.440185e-05    1.005    0.005
       246 -12.4569      5.2125    185.0354   1.4687665620e+02   3.6041657557e+01    0.6983876    0.3668012  74.78  0.004278683    1.607    0.378
       247  -9.2847    167.3256    187.6407   1.1171664194e+02   1.1237911722e+01    0.1417102     0.109001  77.22 0.0007043299    1.781    0.439
       248  -9.9483     39.5200    173.5032   1.3861960707e+02   3.5113388312e+01    0.1232021    0.1013901  82.90 3.664643e-05    1.023    0.022
       249 -10.7077     38.5573     22.0073   1.0528517581e+02   6.7643505388e+01    0.3461862    0.1671743 -32.70  0.001803794    1.896    0.473
       250  -9.8212     34.6175    170.2210   1.3941232535e+02   3.6375379548e+01    0.1729076   0.09583668 -65.58 0.0009539503    1.663    0.399
       251  -9.5799    223.4754     22.4745   6.2327551607e+01   2.5941894156e+01    0.2054886    0.1370612 -65.81 0.0006690568    1.437    0.304
       252 -10.1302    220.9622     18.9943   6.1731438432e+01   2.6947667163e+01    0.1984827    0.1737405 -81.55 0.0004284048    1.031    0.030
       253 -10.5543     66.2494     22.0115   9.3796311825e+01   6.3512138150e+01     0.230727    0.1641726  27.10 0.0003633543    1.310    0.236
       254 -10.2546      8.9181    155.8772   1.4403633116e+02   4.1954453825e+01    0.1961728    0.1614524  55.94 0.0008580657    1.271    0.213
       255 -12.1455      9.6047    166.1570   1.4468133681e+02   3.9657582777e+01    0.5293722    0.2976013 -66.93  0.003168354    1.606    0.377
       256 -11.4812     13.6462    157.8567   1.4310768313e+02   4.1127053610e+01    0.4275858    0.1811094 -78.44   0.00160339    1.994    0.498
       257  -9.4493      1.9574     20.5378   1.2300236063e+02   7.1232491865e+01    0.1555649   0.07040599 -18.35 0.0008093237    2.558    0.609
       258  -9.7748    198.2124    167.5453   1.0146045544e+02   8.6768520965e+00    0.2428441    0.1958952 -30.46 0.0007427954    1.285    0.222
       259 -10.3047     19.0108    165.0161   1.4248800074e+02   3.9076986231e+01    0.2189031    0.1612554  42.74  0.001470052    1.449    0.310
       260 -10.4236    205.2576    163.3750   9.9212069052e+01   7.9769704053e+00    0.2484472    0.2401682  13.84 0.0007139133    1.100    0.091
       261  -9.5755    188.6183    164.1948   1.0270164181e+02   1.1211316803e+01    0.1998872    0.1353224 -26.76 0.0006753327    1.672    0.402
       262  -9.9711     28.3042    163.6431   1.4023054646e+02   3.8487268392e+01    0.1309649   0.07448069  70.61 0.0007039761    1.718    0.418
       263 -10.4166     31.3145    153.8259   1.3851290805e+02   4.0387223674e+01    0.3489522    0.2151627  64.52  0.001992574    1.593    0.372
       264  -9.5755    170.8805     17.5263   6.7198566753e+01   3.9812506575e+01    0.1988246    0.1266838  71.24 0.0003018953    1.420    0.296
       265 -10.1123    115.6786     17.0504   7.7033279291e+01   5.3817716560e+01    0.1926567    0.1762269  13.55  0.001023335    1.117    0.105
       266 -10.3292    186.3390     15.1534   6.4490641377e+01   3.6054760791e+01    0.2633346    0.2058352  69.12 0.0004810138    1.157    0.136
       267 -10.2715    147.8990     15.8067   7.0212203424e+01   4.5946171035e+01    0.5841771    0.1326434  52.99  0.001866553    3.399    0.706
       268 -10.9340     30.6143    149.0886   1.3816640140e+02   4.1533012804e+01     0.280899    0.1945997  70.22 0.0007785687    1.375    0.273
       269 -10.3996    104.8191    153.6469   1.1990967369e+02   3.0156484843e+01    0.2043693    0.1924714 -63.63  0.001172397    1.124    0.110
       270 -12.1918     12.7377    139.1228   1.4161368687e+02   4.5380878370e+01    0.7109131    0.3172926  75.89  0.003274352    2.712    0.631
       271 -10.5033     14.1900    133.3812   1.4065180742e+02   4.6564608100e+01    0.2883035    0.1945369  86.80  0.001340255    1.322    0.243
       272 -12.1328     22.8235    149.4010   1.4013108354e+02   4.2204113450e+01    0.5741854    0.3270662 -32.89  0.002834564    3.007    0.667
       273 -11.0434     16.1112    148.1115   1.4164741910e+02   4.3084831845e+01    0.3646063    0.1763001  45.33  0.001536957    2.054    0.513
       274 -12.2757      5.2313    147.2735   1.4419650906e+02   4.4135772028e+01    0.5740695    0.3607698 -59.50   0.00297535    1.555    0.357
       275 -11.3399      2.5135    141.6353   1.4438090053e+02   4.5579099342e+01    0.3398783    0.2960716  81.17  0.002436715    1.155    0.134
       276 -11.5120      3.9189    136.5712   1.4359436502e+02   4.6605816992e+01    0.2351455    0.1938882 -83.00 0.0005109307    1.075    0.070
       277  -9.6701     42.3764    147.8011   1.3503627448e+02   4.0591602987e+01    0.1973865    0.1936094 -10.17  0.001356663    1.310    0.236
       278  -9.9339     47.5355    151.4188   1.3418516163e+02   3.9169242355e+01    0.4613518     0.188598  45.43  0.002020767    2.397    0.583
       279 -10.9002     46.7566    146.5217   1.3374170559e+02   4.0389588783e+01    0.4584222    0.2590099 -73.44  0.001647805    1.622    0.384
       280 -10.7154     62.2133    149.7620   1.3019590281e+02   3.7713140351e+01    0.4191884    0.3215376  82.31  0.002260765    1.267    0.211
       281 -10.2231     56.3406    149.0365   1.3160884099e+02   3.8644898774e+01    0.1870221    0.1499308 -78.25   0.00037679    1.120    0.108
       282 -10.6743     33.1639    144.3893   1.3697805009e+02   4.2352644650e+01    0.2406882    0.2080455  76.26 0.0007845977    1.100    0.091
       283  -9.7634    133.3595    140.8078   1.1015365500e+02   2.7497283212e+01    0.2675644    0.1969562 -38.85  0.001016451    1.494    0.331
       284 -11.9110     29.9194    133.0020   1.3642432186e+02   4.5292239987e+01    0.6407449    0.3525783 -82.37 0.0004800939    1.739    0.425
       285 -10.0199     26.2347    139.9807   1.3824771008e+02   4.4032570127e+01    0.1841854    0.1423156 -62.71 0.0006100939    1.243    0.195
       286 -11.9050     22.6121    135.7015   1.3870018262e+02   4.5337830871e+01    0.5025617    0.3586111  78.12   0.00240384    1.325    0.245
       287 -10.5177     81.8388    135.0902   1.2249133420e+02   3.8286804684e+01    0.4386828    0.3121519 -11.81   0.00200212    2.359    0.576
       288 -10.2633     47.5333    134.4117   1.3182214692e+02   4.3116230097e+01    0.2441464     0.168586 -67.62 0.0008562878    1.284    0.221
       289 -10.4053     71.9124    133.8208   1.2499239355e+02   4.0083431615e+01      0.45129    0.2800892   9.44  0.001890286    2.926    0.658
       290 -10.9779     10.5984    127.3633   1.4095879051e+02   4.8199376569e+01    0.4343255    0.1582398 -57.04  0.001674024    2.342    0.573
       291 -10.1156     92.7367    128.8015   1.1823378517e+02   3.7957735963e+01    0.3183056    0.2239425  52.33  0.001566062    1.462    0.316
       292  -9.5986     78.6298    128.2053   1.2205843614e+02   4.0392869415e+01      0.19549    0.1218687 -50.60 0.0003332889    1.578    0.366
       293  -9.9950     18.6529    124.7579   1.3847042052e+02   4.8175228162e+01    0.2836017    0.1023063 -61.14  0.001108956    2.194    0.544
       294  -9.9368      2.1036    125.1247   1.4299171158e+02   4.9283656288e+01    0.2945261    0.1376269 -75.82  0.001609749    1.696    0.410
       295 -10.5179      4.7829    122.1785   1.4197625256e+02   4.9771176919e+01      0.29098    0.1688666  66.63  0.001695736    1.829    0.453
       296 -10.9198     55.6035    123.2969   1.2773618153e+02   4.4752744443e+01    0.5486852    0.3242701  26.01  0.002714503    2.037    0.509
       297  -9.8385     82.9724    124.3469   1.2004975224e+02   4.0610165895e+01    0.2220132    0.1248204  11.16 0.0007048968    4.412    0.773
