#   1 NUMBER                 Running object number                                     
#   2 MAG_AUTO               Kron-like elliptical aperture magnitude                    [mag]
#   3 X_IMAGE                Object position along x                                    [pixel]
#   4 Y_IMAGE                Object position along y                                    [pixel]
#   5 X_WORLD                Barycenter position along world x axis                     [deg]
#   6 Y_WORLD                Barycenter position along world y axis                     [deg]
#   7 A_WORLD                Profile RMS along major axis (world units)                 [deg]
#   8 B_WORLD                Profile RMS along minor axis (world units)                 [deg]
#   9 THETA_WORLD            Position angle (CCW/world-x)                               [deg]
#  10 FWHM_WORLD             FWHM assuming a gaussian core                              [deg]
#  11 ELONGATION             A_IMAGE/B_IMAGE                                           
#  12 ELLIPTICITY            1 - B_IMAGE/A_IMAGE                                       
         1 -14.3498     68.6540    145.2382   1.0011509646e+02   3.7316617457e+01     4.757243     2.489039  83.31   0.01391822    4.611    0.783
         2 -13.9258    230.4817     19.7149   3.3571003060e+01   2.6085503341e+01     1.646835     1.175944  28.82  0.009345894    2.421    0.587
         3 -13.8021    203.5597     42.3727   4.1446025601e+01   2.9257719609e+01     1.348941     1.275567   3.99  0.004654181    1.337    0.252
         4 -13.5049    211.6458     37.0824   3.9241569916e+01   2.8103324289e+01    0.9514506    0.7616678 -53.13   0.00392005    1.151    0.131
         5 -11.3348    249.1459      2.4415   2.8803592402e+01   2.4167641979e+01    0.3185734    0.2048547 -77.47  0.001606371    1.295    0.228
         6  -9.7283      2.0000      2.9692   8.5633530538e+01   7.4294515494e+01    0.1719791   0.05164153 -43.15 0.0008066368    2.972    0.663
         7 -13.6748     12.6315    247.6869   1.2353702789e+02   2.0544838032e+01    0.8275046    0.4435441  79.91   0.00362611    1.608    0.378
         8  -9.6823    134.5228    250.0033   9.9971752344e+01   4.1941015713e+00     0.161946    0.1267964 -57.25 0.0007666336    1.558    0.358
         9 -13.6955      5.8429    187.0163   1.2133141331e+02   3.3916799158e+01     1.729101    0.9689546  86.71  0.008672472    1.537    0.350
        10 -13.1595     85.8558    222.3165   1.0689363402e+02   1.6720429973e+01     1.290683    0.6942773  63.41 0.0005829753    2.234    0.552
        11 -16.0945     35.8553    189.4472   1.1471481702e+02   3.0486590979e+01     9.365658     3.765153  79.33   0.03143842    4.381    0.772
        12  -9.6486     91.3294    215.4084   1.0484645460e+02   1.7371437175e+01    0.2143998    0.1490311  83.86 0.0009203996    1.680    0.405
        13 -11.0327    195.1791    198.5710   7.9109168792e+01   3.4127583574e+00    0.3872128    0.2758523 -71.98  0.001755077    2.766    0.638
        14 -10.7114    192.5097    194.0137   7.8783764584e+01   4.6798053665e+00    0.5520363    0.2980973 -62.12  0.001854205    4.507    0.778
        15  -9.9473    208.5036    197.4532   7.6242831341e+01   1.4054895721e+00    0.1362395    0.1168419  -1.52 0.0001220878    1.008    0.008
        16  -8.8099     58.2486    195.3521   1.1007580007e+02   2.6460706975e+01    0.1267136   0.09592608 -45.50 0.0002570649    1.591    0.371
        17 -10.4099     81.0605    182.1648   1.0277836410e+02   2.6420005563e+01    0.2971877    0.2826031 -41.13   0.00107477    1.192    0.161
        18 -12.0245     58.3526    177.3811   1.0786246534e+02   3.0711530977e+01    0.4678844    0.2954397 -42.43   0.00138228    1.933    0.483
        19 -12.0250     63.8868    171.9518   1.0570240111e+02   3.1312185780e+01    0.3325555    0.2712401 -44.86 0.0005796715    1.366    0.268
        20  -9.8132    100.1036    180.6721   9.7735415518e+01   2.3801759299e+01    0.3053952    0.2230908  19.63 0.0008810427    1.641    0.390
        21 -11.9170     74.0376    162.5488   1.0157316991e+02   3.2223601726e+01    0.4142264    0.3381962  47.96 0.0004055793    1.237    0.192
        22 -12.6909     81.3223    156.2583   9.8504667922e+01   3.2704468992e+01    0.9506031    0.6334765 -41.50  0.001286236    1.654    0.395
        23 -10.4520    132.5149    241.2907   9.9256961945e+01   6.0034454460e+00    0.2133018     0.130746 -61.37  0.001127501    2.071    0.517
        24 -13.4811     61.0357    158.5404   1.0448425475e+02   3.5008249464e+01    0.5563609    0.3213139 -41.50  0.001456129    2.051    0.512
        25 -11.6599     32.4156    156.5667   1.1200103912e+02   3.8785306289e+01    0.4004287     0.349889  64.92  0.001265658    1.161    0.139
        26  -9.5390    239.2923    155.3302   6.2132764030e+01   3.4985626627e+00    0.1367411   0.09542968  -8.63 0.0003055599    1.628    0.386
        27  -8.8218    151.5387    151.4448   7.9033712697e+01   2.1028168782e+01    0.1523104    0.1491567  87.20 0.0008049764    1.097    0.088
        28  -9.3310    174.9328    149.1597   7.3122763558e+01   1.6753229653e+01    0.2263328    0.2115218  89.32  0.000547295    1.252    0.201
        29 -10.3347    133.8697    145.4106   8.2063683648e+01   2.5949080767e+01     0.900151     0.212311 -54.32  0.001763211    7.886    0.873
        30  -9.5246    146.4993    172.0449   8.4641914253e+01   1.7483711913e+01    0.2221323    0.1486039 -49.41 0.0006803727    1.537    0.349
        31 -15.5770     10.5411    208.9280   1.2177945455e+02   2.8629334303e+01     2.847095     1.382961  87.85   0.01542948    1.859    0.462
        32 -10.7843     96.3575    142.1586   9.1529101377e+01   3.3758663999e+01    0.3777285    0.3367259  -7.09  0.001056705    1.275    0.216
        33  -9.7696     99.7640    138.8488   8.9847378046e+01   3.3976601318e+01    0.3258595    0.2391678  -2.67  0.001431392    1.923    0.480
        34 -10.5913     29.4460    142.9632   1.1108811669e+02   4.2452690442e+01    0.3085832    0.2066778  10.03  0.001636538    1.966    0.491
        35 -12.3575     84.4720    140.6583   9.4637580076e+01   3.6097742997e+01    0.3145479    0.2729173 -46.28 0.0004746431    1.139    0.122
        36 -10.0137    197.9348    139.6488   6.6148146501e+01   1.3985103827e+01    0.3280875    0.2173979 -58.09  0.001464977    1.864    0.464
        37 -12.3692     70.1964    131.2334   9.6974671174e+01   4.0612913864e+01     1.011542    0.5656419  86.60  0.002919512    3.904    0.744
        38 -10.6887     19.8178    131.6000   1.1237175874e+02   4.6109306404e+01    0.2820543    0.1556082 -64.64 0.0009679313    1.482    0.325
        39 -10.8345    107.0836    131.0406   8.5987533305e+01   3.4538878895e+01    0.4954425    0.3402148  34.73  0.001812053    1.522    0.343
        40 -15.6650     47.0685    247.9045   1.1722524312e+02   1.6708717588e+01     9.592456     2.852736  26.35   0.02569677    9.192    0.891
        41 -11.0689     95.1062    127.4057   8.8618244407e+01   3.7583550932e+01    0.2865344    0.2617459 -19.46 0.0003908706    1.159    0.137
        42 -10.1534     45.8544    135.8664   1.0522378492e+02   4.2553280204e+01    0.2201524     0.173398 -46.24 0.0005965242    1.264    0.209
        43  -9.3122    115.2961    125.3142   8.2282920844e+01   3.4322340992e+01    0.1578563    0.1230567 -12.67 0.0002691645    1.602    0.376
        44  -9.9607    240.6757    122.6629   5.4946540035e+01   8.8039102277e+00    0.1361779    0.1011162  -4.73 0.0007051185    1.719    0.418
        45  -9.7151    105.8637    119.6542   8.3569864697e+01   3.7473433448e+01     0.238457    0.2005089 -35.10 0.0003294359    1.197    0.164
        46  -9.1525    167.9664    112.9897   6.5870075432e+01   2.5699819744e+01    0.2522088    0.1923078 -78.87  0.001127915    1.758    0.431
        47  -9.5811    135.0000    113.0080   7.3767571445e+01   3.3025538591e+01    0.2676081   0.08867059 -44.29 0.0008069511    2.974    0.664
        48 -10.4430     34.8328    111.5528   1.0443189072e+02   4.9755962780e+01    0.3590544    0.1812014  47.55  0.001580617    2.500    0.600
        49 -10.0758    205.1850    110.6268   5.7953594748e+01   1.7954122317e+01    0.3156041    0.2520041  32.90  0.001122778    1.439    0.305
        50  -9.4905    134.4239    105.2145   7.1806418674e+01   3.4826372525e+01    0.2305506    0.1472392 -53.28 0.0009148311    1.699    0.411
        51 -11.1271     54.8076     95.3953   9.3933346076e+01   5.1417541877e+01    0.4428486    0.2961718  81.87  0.001903402    2.637    0.621
        52 -10.8829     52.7537     91.0301   9.3554279023e+01   5.2687992193e+01    0.3667735     0.228227 -36.34  0.001370875    1.575    0.365
        53 -10.3162     41.7069     92.0620   9.7856839163e+01   5.3735025902e+01    0.2127899    0.1913558  -2.50 0.0005229795    1.186    0.157
        54 -10.1687    249.9964     88.0374   4.6205874822e+01   1.2714938261e+01    0.1629609    0.1311301 -46.03 0.0004557571    1.042    0.041
        55 -13.2769     29.5866    204.2001   1.1743644743e+02   2.7784796728e+01    0.5046489    0.4249719 -55.87  0.001143434    1.433    0.302
        56  -8.7574     36.4796     83.4811   9.7710259160e+01   5.6252796198e+01    0.1337609    0.1171411 -44.09 0.0001023289    1.049    0.047
        57 -10.2518      7.8007     75.6139   1.0717981373e+02   6.0280251461e+01    0.1570827    0.1108808  29.35 0.0009538943    1.722    0.419
        58  -9.3238     33.0330     62.0322   9.3129153447e+01   6.1244737082e+01    0.1863149    0.1595841  73.53 0.0008388535    1.738    0.425
        59  -9.6310     29.0106     60.0225   9.4245957407e+01   6.2051844583e+01    0.2430784    0.1681494  35.35  0.001037901    1.739    0.425
        60 -11.0392     13.5247     60.2668   1.0112055517e+02   6.3263843662e+01     0.225559     0.198784 -47.72 0.0004837086    1.170    0.145
        61 -12.6563     58.0447    242.0632   1.1464536152e+02   1.6487419363e+01    0.4462337    0.2957082  85.29 0.0006091598    1.505    0.336
        62 -14.1762      3.1162    245.3894   1.2509727868e+02   2.1910971449e+01     1.712925    0.4773225 -75.61  0.008313603    3.165    0.684
        63  -9.4612    197.7787    223.3290   8.3059942969e+01  -1.1676834499e+00    0.1965506    0.1683397 -34.05 0.0006016084    1.333    0.250
        64 -12.6778    219.9145     29.6005   3.6668076437e+01   2.7196239041e+01    0.5568614    0.4201675  53.16  0.001220778    1.566    0.362
        65 -10.2843     34.8025     55.8570   9.0390438985e+01   6.2301613552e+01    0.2228284    0.1857439  25.31 0.0005055398    1.360    0.265
        66 -11.1329     10.9466     52.8065   1.0021441463e+02   6.4978872567e+01    0.2514228     0.155109  24.24  0.001488988    1.858    0.462
        67  -9.5435      1.7719     48.6149   1.0334241231e+02   6.6368579775e+01    0.1464139    0.1040611  22.19 0.0009495728    1.684    0.406
        68 -10.1163    132.0345     39.2262   5.2153228279e+01   4.6882019666e+01    0.3054342    0.2249878 -88.91 0.0008751273    1.718    0.418
        69 -10.2105    131.9924     31.2894   4.9549928038e+01   4.7873157500e+01    0.2145599    0.1950402 -47.32 0.0003514379    1.205    0.170
        70  -8.6846    115.4989     31.4996   5.3226218127e+01   5.1735148770e+01    0.1368155    0.1247706  45.49 0.0008105614    1.026    0.025
        71  -9.7409    189.3367     15.0789   3.6334749567e+01   3.5808346224e+01    0.1778807    0.1525627 -62.71 0.0007413694    1.127    0.113
        72 -11.8301    184.1564    216.8308   8.4683065285e+01   2.0505515810e+00    0.4192615    0.2359947 -38.14   0.00208079    1.857    0.461
