#   1 NUMBER                 Running object number                                     
#   2 MAG_AUTO               Kron-like elliptical aperture magnitude                    [mag]
#   3 X_IMAGE                Object position along x                                    [pixel]
#   4 Y_IMAGE                Object position along y                                    [pixel]
#   5 X_WORLD                Barycenter position along world x axis                     [deg]
#   6 Y_WORLD                Barycenter position along world y axis                     [deg]
#   7 A_WORLD                Profile RMS along major axis (world units)                 [deg]
#   8 B_WORLD                Profile RMS along minor axis (world units)                 [deg]
#   9 THETA_WORLD            Position angle (CCW/world-x)                               [deg]
#  10 FWHM_WORLD             FWHM assuming a gaussian core                              [deg]
#  11 ELONGATION             A_IMAGE/B_IMAGE                                           
#  12 ELLIPTICITY            1 - B_IMAGE/A_IMAGE                                       
         1  -9.8532    119.3724     19.2064   5.0696361488e+01   5.2987310502e+01    0.4119009    0.2474313 -10.57  0.002012569    2.015    0.504
         2 -10.2184    143.0271     17.8448   4.5635867578e+01   4.7455839464e+01    0.4700021    0.3239989  42.70  0.002004717    1.439    0.305
         3 -10.1101    171.9317     13.1244   3.9937134704e+01   4.0845664540e+01    0.3329799    0.2956901 -87.67  0.001610215    1.046    0.044
         4  -9.7055      5.9522      9.1587   9.0724260420e+01   7.3292013594e+01    0.3009492     0.217689 -19.71  0.002190119    1.004    0.004
         5 -10.7408    165.0059      5.0875   3.8521686446e+01   4.3282411114e+01    0.5932594    0.4146296  28.91  0.003289857    1.798    0.444
         6  -9.3563     79.2274      5.2440   5.5286067094e+01   6.3107435185e+01    0.2769839    0.1796776  28.03  0.001108807    1.404    0.288
         7  -8.9923    236.5574      1.8949   3.1227420389e+01   2.7126033339e+01    0.2399932    0.1632375 -73.28  0.001545118    1.236    0.191
         8 -10.1694    167.9991      6.2403   3.8483949287e+01   4.2452407720e+01    0.3823653    0.2706476   2.42  0.002114611    1.916    0.478
         9  -8.7054    148.4836      1.3055   3.9543705690e+01   4.7614901649e+01    0.2422471     0.103068  69.36   0.00107631    2.028    0.507
        10  -9.0132    146.6696    240.3121   9.8868109469e+01   4.7423573250e+00    0.2192548    0.1106057  40.10 0.0006020628    1.672    0.402
        11  -9.0808     82.4769    248.4228   1.1268968177e+02   1.2725410579e+01    0.2637453    0.1849643  82.93  0.001676859    1.514    0.340
        12  -8.5225     77.4457    250.4965   1.1384439829e+02   1.3020459326e+01     0.255762   0.09568512  37.85  0.001224815    2.220    0.550
        13 -13.1411     65.2847    244.4581   1.1567777354e+02   1.5711338333e+01     2.907321     1.805636 -29.06   0.01361453    3.992    0.750
        14 -13.9665     57.3033    233.4321   1.1634051538e+02   1.8835997805e+01     3.241905     2.160517  -1.38   0.01590825    3.446    0.710
        15 -12.3594     23.8532    228.2823   1.2245634647e+02   2.3646969877e+01    0.5090442    0.3618501  82.80  0.003566626    1.165    0.142
        16 -14.6038     33.5964    209.8583   1.1928714464e+02   2.6449404421e+01     2.955938     1.874087  52.60   0.01821453    1.378    0.274
        17 -10.2425     74.1333    228.4603   1.1249368934e+02   1.7661313226e+01    0.3264098    0.2055431  45.25  0.001328779    1.363    0.266
        18  -9.6244      1.8613    226.9571   1.2643866437e+02   2.6013018357e+01    0.1627022    0.1215755  74.81  0.000711973    1.042    0.040
        19 -11.1882    124.4731    226.7843   1.0167631694e+02   1.0618985626e+01    0.4625071    0.2906998  87.92  0.002134327    2.724    0.633
        20 -10.3647    147.7658    220.4016   9.5779455660e+01   8.0689830194e+00    0.2746775    0.1908678  21.80  0.001462286    1.506    0.336
        21  -9.2477    132.4936    222.9613   9.9434042280e+01   1.0068618961e+01    0.1751125    0.1156245  89.41 0.0008094797    2.536    0.606
        22 -10.2446    191.3749    217.5984   8.6229247384e+01   1.4293899924e+00     0.443783    0.4009458 -76.96  0.002743023    1.643    0.391
        23  -9.4352    101.6061    221.1997   1.0587888722e+02   1.5220854015e+01    0.1732611    0.1193517 -51.36   0.00095725    1.662    0.398
        24  -9.2462      7.5496    213.1739   1.2470630896e+02   2.8297095630e+01    0.3828035   0.07437754  51.38  0.001509262    3.938    0.746
        25  -9.9745    205.5892    212.4579   8.2504999647e+01  -4.0853208300e-03    0.3298055    0.1727502 -54.59  0.001362194    3.376    0.704
        26 -11.4462    132.3708    209.4007   9.7466998532e+01   1.2719045334e+01    0.6054194    0.3569884 -67.76  0.002773088    2.307    0.566
        27 -10.5971    100.0012    208.2259   1.0458750762e+02   1.8140990707e+01    0.5581577    0.1794602  40.21  0.002119316    2.696    0.629
        28 -10.2661     96.6872    211.8919   1.0580405196e+02   1.7868747202e+01     0.332998     0.278111 -50.27  0.001774662    1.374    0.272
        29  -9.4522    150.1765    238.6402   9.7923454412e+01   4.4792036736e+00    0.2911488    0.2068303 -29.85  0.001687489    1.722    0.419
        30  -9.8367    153.5849    209.2162   9.2749916342e+01   9.1867562897e+00    0.3059543    0.2012294 -43.91  0.001572046    1.656    0.396
        31  -8.6478    109.6842    239.9520   1.0639163805e+02   1.0425771456e+01    0.1734721    0.1511002  68.14  0.001155232    1.153    0.133
        32 -10.3923    126.1572    203.8542   9.8015595919e+01   1.4877321969e+01     0.254836    0.2375699  41.70  0.001537586    1.022    0.022
        33  -9.6352     13.3310    202.3682   1.2293538170e+02   3.0065231342e+01    0.3523559    0.2470491 -68.05  0.001586909    1.444    0.308
        34  -9.8455    131.5453    238.4539   1.0172147823e+02   7.3957576237e+00    0.3156849    0.1603548  32.36  0.001546491    1.820    0.451
        35  -8.7120      5.8365    200.8768   1.2436255528e+02   3.1044879386e+01    0.1636624     0.133894 -80.77 0.0008150661    1.236    0.191
        36 -10.7547    112.8191    207.1897   1.0154260548e+02   1.6358536563e+01    0.3700311    0.2503842  12.02   0.00176291    2.133    0.531
        37  -9.5266    200.4138    193.8342   8.0083545448e+01   3.9503679436e+00    0.4278056    0.2260739 -45.29  0.001955678    2.065    0.516
        38 -10.2475    137.9514    236.5003   1.0014399825e+02   6.7479197959e+00    0.3578746    0.2054591  30.07   0.00184953    1.649    0.394
        39  -8.6680     94.5357    242.4817   1.0973457510e+02   1.2149898745e+01    0.2503569    0.1032899  37.41 0.0009359795    2.065    0.516
        40  -9.3963     28.6463    181.8681   1.1807505754e+02   3.3215051088e+01    0.1780851    0.1749449  54.56 0.0006316858    1.298    0.229
        41 -10.2053     81.5719    233.8374   1.1149152147e+02   1.5592995157e+01    0.3963942    0.2173653  45.22  0.001477213    1.530    0.346
        42  -8.1559    206.3720    176.2785   7.5405117925e+01   6.0155557753e+00    0.1469785    0.1021885   4.88 0.0007009493    1.693    0.409
        43 -10.1705     78.5305    173.9376   1.0496316196e+02   2.9107819850e+01    0.3024089    0.2693157  10.32 0.0004025032    1.365    0.267
        44 -10.2554     97.6239    229.3066   1.0768254817e+02   1.4205362708e+01    0.2879291      0.19111  42.37 0.0009906135    1.303    0.232
        45 -10.0766    125.1054    167.0639   9.1912585101e+01   2.3113048898e+01    0.3551537    0.3039418 -23.98  0.001486889    1.318    0.241
        46  -8.0235    226.4612    161.5304   6.8505751280e+01   5.0547334622e+00    0.1402496    0.1206816 -13.78 1.262399e-05    1.029    0.028
        47  -9.1662    108.6120    149.2146   9.2669959927e+01   3.0277039744e+01     0.219947    0.1362251 -45.27 0.0007206863    1.641    0.391
        48 -10.9815     80.9242    144.4902   9.9436564195e+01   3.5964401309e+01    0.4586435    0.3611341 -66.88  0.001698558    1.219    0.180
        49  -9.8354     95.4967    143.9708   9.5219570593e+01   3.3796996919e+01     0.228867    0.1423664 -55.47 0.0005228526    1.544    0.352
        50  -8.0607     20.3164    135.6843   1.1544491987e+02   4.5036583080e+01    0.1315624   0.08567372  70.40 0.0003251953    1.648    0.393
        51 -11.9133     57.0929    128.7432   1.0354078346e+02   4.3128778169e+01    0.7822519    0.4783618 -44.99  0.003678019    1.633    0.388
        52  -9.7571      2.3730    109.8630   1.1763618684e+02   5.2446822724e+01    0.5385945    0.1143031 -62.28  0.002109545    2.866    0.651
        53 -11.6278    243.9994    105.5900   5.3321736919e+01   1.1366646482e+01     1.119523    0.5866534 -33.11   0.00523195    1.749    0.428
        54  -9.5440    228.3718    111.2665   5.6963642465e+01   1.3484077530e+01    0.3869313    0.2655829  -8.12  0.001810473    2.017    0.504
        55 -12.2787    116.6830    121.3525   8.4102983705e+01   3.5410107252e+01    0.8907835    0.7604125 -29.82  0.003870855    1.215    0.177
        56  -9.5676    160.9895    103.0000   6.7803184270e+01   2.9859901335e+01    0.3730817    0.2261498  41.33  0.001367504    1.735    0.424
        57 -10.3036    160.5910     99.2217   6.6861150512e+01   3.0702653532e+01    0.4857113    0.4151788  22.79  0.002420147    1.293    0.227
        58  -9.1545    181.2401    101.0438   6.2906683388e+01   2.5580821095e+01    0.3821043    0.2455979 -23.26  0.001614122    1.872    0.466
        59  -9.9358     48.4631     99.4341   1.0043242782e+02   5.1325668681e+01    0.4123397    0.2295113 -49.39  0.001974729    1.555    0.357
        60 -10.2031     12.7707     96.4177   1.1232394618e+02   5.5072819270e+01    0.4753559    0.3916965 -51.49  0.003135853    1.094    0.086
        61 -10.0357     37.7212     98.2920   1.0394798084e+02   5.2702312101e+01    0.3161928    0.2764338 -48.45  0.001442063    1.039    0.037
        62  -9.1849    107.1959     95.1162   7.9815939585e+01   4.3211477822e+01    0.2408709    0.2054848 -14.68  0.001000802    1.248    0.199
        63 -10.4801    211.7614     87.4433   5.3900226954e+01   2.1081100480e+01    0.8665355     0.297701 -33.96  0.002972285    2.929    0.659
        64  -9.3972    241.3401     88.3602   4.9810939968e+01   1.4672098863e+01    0.2761799     0.202333 -28.38  0.001520069    1.367    0.268
        65  -8.6581     43.4131     89.1973   9.9870527554e+01   5.4286188452e+01    0.1891419    0.1219471 -68.45 0.0009432606    1.637    0.389
        66  -8.3548     27.6680     89.6808   1.0576578844e+02   5.5623353528e+01    0.1409226   0.08117638 -37.18 0.0007048486    1.693    0.409
        67 -11.4625     84.2441     82.6965   8.3472130835e+01   5.0123713124e+01    0.6567748    0.4514042  10.20  0.003024255    1.852    0.460
        68  -9.8639    129.2311     83.2014   6.9963280653e+01   4.1033427233e+01    0.3205008    0.2948571  35.28  0.001691156    1.082    0.076
        69  -9.9472    213.8167     70.2601   4.9328988439e+01   2.3407765012e+01    0.4770075    0.3130361 -50.29  0.002389855    1.449    0.310
        70 -11.0704      4.6010     66.6357   1.0992430656e+02   6.2333050254e+01    0.6923683    0.4388664 -79.29  0.004024082    1.723    0.420
        71 -10.6760    140.8750     66.5644   6.1851620952e+01   4.1386078693e+01    0.6075802    0.4575083 -18.23  0.002932376    1.509    0.337
        72 -10.2524    137.1227     63.1298   6.1659628373e+01   4.2850328504e+01    0.6659914    0.3371378  38.36  0.002574747    2.259    0.557
        73 -10.2145    185.1380     65.4291   5.2565449859e+01   3.0872367235e+01    0.4526648    0.4250721   2.30  0.002570344    1.207    0.171
        74 -11.0946     87.2155     64.3522   7.6505722180e+01   5.3293923976e+01    0.4910112    0.4289876  -1.73  0.002738158    1.097    0.088
        75  -8.5721    115.0156     62.2485   6.7138830292e+01   4.8045795505e+01    0.2151018     0.163676 -58.62  0.001037377    1.637    0.389
        76  -9.9329     20.8879     55.8309   1.0023222093e+02   6.3667160057e+01    0.4778303    0.2374978 -31.32  0.002416784    1.942    0.485
        77 -10.4637     95.8906     53.9641   6.9964076407e+01   5.3474893477e+01    0.4985437    0.3558274   2.05  0.002433085    1.681    0.405
        78  -8.7319    127.8442     50.1545   5.9642124183e+01   4.7084423563e+01    0.2079073    0.1682497  21.28  0.001078467    1.329    0.248
        79  -8.9011     13.9754     49.5084   1.0154973107e+02   6.5451081219e+01    0.2239176    0.1583495 -67.23  0.001368478    1.592    0.372
        80 -10.9032    199.5696     44.9488   4.4904234861e+01   3.0412842212e+01    0.7604614    0.4712545 -37.07  0.003822279    1.578    0.366
        81  -9.4945    234.4713     47.2884   4.1299618231e+01   2.2191377137e+01    0.2552465    0.2175127   5.55  0.001542513    1.644    0.392
        82 -11.3959     81.9283     43.2124   7.0550143417e+01   5.7922215314e+01    0.7151816    0.4894001 -16.28  0.003705238    1.540    0.351
        83 -10.3617     49.7904     42.4045   8.2736600381e+01   6.3243372172e+01    0.5203705    0.3233943 -25.72  0.002794435    1.529    0.346
        84 -10.3216    140.8092     38.1833   5.2713955229e+01   4.5658526756e+01    0.4602107    0.3915078 -87.83  0.001708916    1.311    0.237
        85 -10.1984     40.8101     35.0519   8.3785534184e+01   6.5658963118e+01    0.6795877    0.2283857 -47.11  0.002733419    3.115    0.679
        86  -9.6975    173.0376     35.9480   4.6270804569e+01   3.8017486604e+01     0.354788     0.303636  18.03  0.002012329    1.414    0.293
        87 -10.1346    180.8010     26.3886   4.2470641262e+01   3.7264687580e+01     0.446106     0.341319   7.62  0.002420753    1.783    0.439
        88 -10.0940    109.4706     24.7894   5.5099408887e+01   5.4661906817e+01    0.5080572    0.2526689  28.93  0.002064956    2.629    0.620
        89  -9.2618     89.5533    248.8745   1.1135154987e+02   1.1679754720e+01    0.2578575    0.1959221  75.58  0.001704492    1.328    0.247
        90  -9.9886    110.6449    245.9403   1.0686842947e+02   9.2093874408e+00    0.3564343    0.2949191  30.70  0.002366283    1.218    0.179
        91  -9.9729    203.0573     18.4149   3.7774384304e+01   3.2838618444e+01    0.3036501    0.2251457  68.42  0.001557865    1.288    0.224
        92  -9.3066     61.8994     18.1307   6.7209110933e+01   6.5008155974e+01    0.1840845    0.1666759  -3.83  0.001233338    1.225    0.184
        93  -8.6125    239.4970     15.0080   3.3761664750e+01   2.5108698422e+01    0.1458569    0.1059903   6.91 0.0007994078    2.448    0.592
        94 -10.4765     77.7599    244.0862   1.1321995615e+02   1.4156359406e+01    0.3095868    0.2885216   7.02  0.000998965    1.459    0.314
        95  -9.1946    124.3277    244.3158   1.0392316710e+02   7.4677420632e+00    0.1200412    0.0933795   4.52 0.0007044895    1.675    0.403
        96  -8.8527    143.4892    243.0232   9.9876817122e+01   4.7778311160e+00     0.292009    0.1252853  48.94  0.001273199    2.488    0.598
        97 -10.8392     98.3272    234.8746   1.0815682702e+02   1.3031712731e+01    0.4559722    0.1703317  34.30  0.001945453    2.519    0.603
        98 -11.2915     90.5574    236.5172   1.0992722934e+02   1.3828625828e+01    0.5028173    0.4789242  52.44  0.002915831    1.196    0.164
        99 -15.8820     17.1470    246.7464   1.2466484042e+02   2.0765805839e+01     1.409101    0.9155514  46.29  0.004470972    1.354    0.262
