#   1 NUMBER                 Running object number                                     
#   2 MAG_AUTO               Kron-like elliptical aperture magnitude                    [mag]
#   3 X_IMAGE                Object position along x                                    [pixel]
#   4 Y_IMAGE                Object position along y                                    [pixel]
#   5 X_WORLD                Barycenter position along world x axis                     [deg]
#   6 Y_WORLD                Barycenter position along world y axis                     [deg]
#   7 A_WORLD                Profile RMS along major axis (world units)                 [deg]
#   8 B_WORLD                Profile RMS along minor axis (world units)                 [deg]
#   9 THETA_WORLD            Position angle (CCW/world-x)                               [deg]
#  10 FWHM_WORLD             FWHM assuming a gaussian core                              [deg]
#  11 ELONGATION             A_IMAGE/B_IMAGE                                           
#  12 ELLIPTICITY            1 - B_IMAGE/A_IMAGE                                       
         1 -18.8025    224.8770     81.7060   6.7783918799e+01   1.7944433010e+01     5.822004     5.114159   0.51   0.01806228    1.154    0.133
         2 -12.7537    136.5131     60.4209   7.8347717098e+01   4.3064567545e+01     1.822969     1.275777   8.26  0.007766493    2.069    0.517
         3 -11.8302    142.6229     36.4296   6.8468974318e+01   4.5474289527e+01    0.7134172    0.3807268  -9.41  0.001115628    2.806    0.644
         4  -8.5676    183.1314      3.6939   5.0220229109e+01   3.8628866126e+01    0.2023883    0.1780012  75.11 0.0008144231    1.100    0.091
         5  -9.9415    210.3449      1.9541   4.6871367713e+01   3.1598938223e+01    0.2363605    0.1924401  76.52 0.0003029255    1.206    0.171
         6  -9.6960    134.0000    148.0054   1.0133941630e+02   2.6256896843e+01    0.4715213    0.1937013 -58.36  0.001763873    3.115    0.679
         7 -11.6376    231.9200    250.4532   9.9724638452e+01  -4.3767743172e+00    0.1790284   0.09631544  37.50 0.0003509832    1.357    0.263
         8 -10.8888     75.9964    247.0000   1.2379873351e+02   1.8076276740e+01    0.2154745    0.1160429  40.63  0.001481735    1.681    0.405
         9 -11.1968      7.3085    248.5904   1.3411791150e+02   2.5373288213e+01    0.2763441    0.1887084  42.86   0.00246431    1.641    0.391
        10 -11.2396      2.5801    248.1355   1.3477017957e+02   2.5880448189e+01    0.3212655    0.1908032 -68.29  0.002675303    2.237    0.553
        11  -8.6421    129.9961    227.0076   1.1324849663e+02   1.3516383754e+01    0.1366315    0.1036781  51.48 0.0003684088    1.008    0.008
        12  -8.9873     16.4883    218.5029   1.3167602950e+02   2.9226969023e+01   0.09869924   0.06803175  69.57 0.0008101756    1.044    0.042
        13  -9.8539     10.1829    207.2849   1.3223407064e+02   3.1732133690e+01    0.1357096    0.1151788  60.64  0.001204046    1.429    0.300
        14  -8.4379    203.5364    206.5267   9.7962941477e+01   4.4374295431e+00    0.1187901   0.09567001  32.05 7.329733e-05    1.020    0.020
        15 -10.3712    195.2376    199.2518   9.8241799318e+01   6.7457243845e+00    0.2928726    0.2220623 -71.39  0.001457292    2.248    0.555
        16 -11.1009    191.3987    192.2164   9.7784763022e+01   8.3453585996e+00    0.7952621     0.436127 -63.77  0.002943959    5.416    0.815
        17 -10.3741    180.5828    198.5792   1.0070346628e+02   9.3470314042e+00    0.4304135    0.2136234  55.91  0.001352761    2.413    0.586
        18  -8.9198    171.6616    194.2345   1.0163824479e+02   1.1507069529e+01    0.1937069    0.1606165  55.62 0.0003900772    1.205    0.170
        19 -11.5026     17.9528    249.3060   1.3262603824e+02   2.4240487535e+01    0.4209767    0.2313796  34.60   0.00314076    2.249    0.555
        20  -9.7484    133.3308    142.5143   1.0045241503e+02   2.7457767296e+01    0.8077983    0.2647396 -59.02  0.002234178    5.591    0.821
        21 -10.6783    156.9305    148.8251   9.6628337636e+01   2.1696566161e+01    0.3009145    0.2407977 -82.39 0.0006974547    1.559    0.359
        22  -8.2846    158.4908    176.3925   1.0127132227e+02   1.6621313076e+01    0.1845588    0.1444273  69.26 0.0001376138    1.441    0.306
        23  -8.5596    155.0516    173.5311   1.0146740389e+02   1.7723538850e+01    0.2683086    0.1661194  65.99  0.001149853    2.109    0.526
        24 -10.4756     67.9526    143.8800   1.1568449202e+02   3.7785798470e+01    0.9322288    0.4320183  70.52  0.003712065    3.346    0.701
        25 -12.0980     64.5268    133.3300   1.1504067557e+02   4.0535345263e+01    0.5807985    0.4616185  48.64 0.0006991102    1.317    0.241
        26 -12.5940     76.0435    129.4413   1.1160866040e+02   3.9831121205e+01     1.169042    0.8750308  46.96  0.006897555    1.375    0.273
        27 -12.5173     45.2935    138.6053   1.2034597537e+02   4.1684917261e+01    0.8861461    0.5971153 -76.08  0.004010268    1.267    0.211
        28 -10.6387    224.3633    180.3289   9.0057226091e+01   4.1135027823e+00    0.2732123    0.2195039  35.32 0.0004760358    1.151    0.132
        29 -10.4481    159.0409    138.0573   9.4000124900e+01   2.3246000886e+01     0.220649    0.2074255  39.81   0.00073815    1.043    0.041
        30 -12.1256    229.3540    168.8462   8.7080210974e+01   4.6739693289e+00    0.8870509    0.5079229  -6.63  0.003486221    2.320    0.569
        31  -9.8453     31.8676    127.3361   1.2231501532e+02   4.5546618760e+01    0.2089486    0.1340421 -87.58  0.000566103    1.310    0.237
        32 -10.7583    222.2836    171.1037   8.8694981126e+01   5.6548269084e+00    0.4141392    0.2075552 -39.09  0.001604801    2.254    0.556
        33  -9.5526     20.1681    126.1756   1.2506600246e+02   4.6859710964e+01    0.1637129    0.1083144  74.44 0.0004348276    1.328    0.247
        34 -10.0473    143.7380    122.0125   9.3824847921e+01   2.9470773225e+01     0.431537    0.2097975  51.22  0.001335054    2.087    0.521
        35  -7.6278    101.3309    121.3026   1.0380991794e+02   3.7673036789e+01    0.1321758    0.1111587 -16.34 0.0005078429    1.652    0.395
        36 -11.0547      4.7384    110.9002   1.2752024554e+02   5.1380290812e+01    0.3263196    0.2130845 -76.27  0.002217578    1.189    0.159
        37 -10.0866    239.4810    164.4363   8.4568052498e+01   3.4220960969e+00    0.2763297    0.2201379  48.45 0.0008602013    1.436    0.304
        38  -9.5859    126.2482     91.3839   9.0367573965e+01   3.9348464194e+01    0.2855821    0.2046141 -43.76 0.0008632776    1.362    0.266
        39  -9.6891    242.3121    162.6729   8.3766834854e+01   3.1381229096e+00    0.2843837     0.173337 -35.18  0.001422365    1.767    0.434
        40  -9.5753    126.8338     81.8427   8.7512667128e+01   4.1165471241e+01    0.3452918    0.2010322 -49.72  0.000881314    1.728    0.421
        41  -9.4337    139.0141     78.2073   8.3403236970e+01   3.9182598395e+01    0.2541969    0.2108817 -37.65 0.0002407828    1.182    0.154
        42  -8.7223    111.9737     77.9374   9.0291485245e+01   4.5047261173e+01    0.2143667    0.1990118 -46.27  0.001187896    1.027    0.027
        43  -8.6851     61.3210    249.6530   1.2622121546e+02   1.9477475381e+01    0.1071214   0.05004807  63.57 0.0007049348    1.735    0.424
        44 -11.1964    147.4100     40.7209   6.9010059922e+01   4.3634163576e+01       0.5473    0.5049197  10.11  0.001794524    1.111    0.100
        45 -11.2236    140.0168     42.5148   7.1269005477e+01   4.5210093190e+01    0.5698799    0.3634621 -24.72  0.001177395    1.616    0.381
        46  -8.9385     56.3254    243.3321   1.2663101180e+02   2.0995428878e+01   0.07966755   0.07564048  47.58 0.0007050965    1.709    0.415
        47  -8.7897    120.8312     58.5114   8.1666015189e+01   4.6991503956e+01    0.2121293    0.1483009  48.74 0.0006348601    1.487    0.328
        48  -8.9704    116.9860     57.9128   8.2489682122e+01   4.7942936214e+01    0.2195729    0.2065957 -24.19 0.0003719628    1.034    0.033
        49 -10.3790    125.2565     55.8947   7.9607250908e+01   4.6476953093e+01    0.2517417    0.2436287 -29.76 0.0002567924    1.013    0.013
        50  -8.6015     63.0049     57.2847   9.9158998746e+01   5.7766512122e+01     0.176686    0.1576305 -43.18 0.0003462116    1.044    0.042
        51 -10.7122    136.6344     52.8760   7.5740307928e+01   4.4349323782e+01    0.7322859    0.3756775 -20.89  0.002636956    2.607    0.616
        52  -9.7222    118.7309     49.8108   7.9152730071e+01   4.9022600252e+01    0.4417325    0.2359318 -27.72  0.001778705    2.049    0.512
        53  -9.3301    169.0392     42.6604   6.5441755774e+01   3.7770895402e+01     0.286627    0.2629373  37.79 0.0006819295    1.112    0.101
        54  -8.5425     93.9341    167.2932   1.1303811033e+02   2.9228895613e+01    0.1606837    0.1365721  63.60 0.0002028165    1.071    0.066
        55 -10.5103    233.6380    173.8332   8.7323837886e+01   3.2954263131e+00    0.3299755    0.2783021  85.30  0.001994302    2.048    0.512
        56 -10.6839    139.2160     70.0944   8.0847063006e+01   4.0669611300e+01    0.4223629    0.3260101  69.19  0.001415013    1.490    0.329
        57  -8.4170    160.3595    165.2862   9.9005093678e+01   1.8137801047e+01    0.1640492    0.1257931 -57.50 0.0004163971    1.506    0.336
        58  -9.6928    237.9939    173.9617   8.6641160825e+01   2.5241490787e+00    0.2251146    0.1603921  40.71 0.0003505936    1.341    0.254
        59  -9.1597    249.8145    178.4380   8.5607400548e+01   1.3717431655e-02    0.2211742    0.1994385 -63.63  0.001486813    1.841    0.457
        60 -10.1873    238.4805    168.4032   8.5501914468e+01   3.1116870502e+00    0.3481425    0.2515841 -55.59  0.001044412    2.311    0.567
        61 -13.1374      9.0193    150.5177   1.2952613672e+02   4.2612385881e+01    0.5557785    0.3963915   9.59  0.002540648    2.376    0.579
        62  -8.8619    111.1338     20.3719   6.9452937661e+01   5.5305475644e+01    0.2367498    0.1827939  -7.94 0.0005649183    1.315    0.239
        63  -8.4242     92.9486    152.0162   1.1111651174e+02   3.2472377195e+01    0.1464357    0.1263981  75.86            0    1.011    0.011
        64  -9.3069    175.8171    182.1185   9.8939638595e+01   1.2571743036e+01    0.3177499    0.1505117  57.97  0.001308768    2.897    0.655
        65  -9.0053    249.5281    239.9526   9.5688657492e+01  -5.9236575145e+00    0.1624998     0.102404  31.54 0.0003594247    1.172    0.147
        66 -10.0777    143.9407    227.1940   1.1089598947e+02   1.1368151640e+01    0.1740685    0.1480421  53.84 0.0002480691    1.115    0.103
