#   1 NUMBER                 Running object number                                     
#   2 MAG_AUTO               Kron-like elliptical aperture magnitude                    [mag]
#   3 X_IMAGE                Object position along x                                    [pixel]
#   4 Y_IMAGE                Object position along y                                    [pixel]
#   5 X_WORLD                Barycenter position along world x axis                     [deg]
#   6 Y_WORLD                Barycenter position along world y axis                     [deg]
#   7 A_WORLD                Profile RMS along major axis (world units)                 [deg]
#   8 B_WORLD                Profile RMS along minor axis (world units)                 [deg]
#   9 THETA_WORLD            Position angle (CCW/world-x)                               [deg]
#  10 FWHM_WORLD             FWHM assuming a gaussian core                              [deg]
#  11 ELONGATION             A_IMAGE/B_IMAGE                                           
#  12 ELLIPTICITY            1 - B_IMAGE/A_IMAGE                                       
         1 -15.6044     98.9085    185.7973   4.8670090988e+01   2.2372071515e+01     2.557401       1.5534 -75.83   0.01148282    2.216    0.549
         2 -16.0056    121.4921     80.6136   1.9416382872e+01   4.2321598032e+01     2.773276     1.901637 -42.50   0.01305356    1.442    0.307
         3 -15.0808    203.1489     63.0936   6.9556565628e-01   2.7646688192e+01     1.921802    0.9488206 -26.80  0.008782626    2.420    0.587
         4 -15.5666    173.1266     44.8370   3.5964904750e+02   3.6493955162e+01      3.68001     2.116831  52.60   0.01841745    2.031    0.508
         5 -13.1796    247.2888     44.2384   3.5279270049e+02   2.2217740289e+01    0.7251006     0.258147 -40.77  0.003848498    1.931    0.482
         6 -11.7794    233.4465     31.8472   3.5117844983e+02   2.6066018986e+01    0.7908111    0.1972477 -42.84  0.003613831    2.541    0.607
         7 -13.8978    134.1619     35.6264   2.4960748578e+00   4.6859995137e+01     1.626388     0.634108  68.95  0.006271289    2.616    0.618
         8 -12.0735     13.1278     26.8178   4.6121559846e+01   7.3525264548e+01    0.4716773    0.2114832 -60.62  0.002068809    2.529    0.605
         9 -11.4272    110.3339     14.1691   3.5893080709e+02   5.5324376794e+01    0.4784559    0.2153923  60.90  0.002129061    1.963    0.491
        10 -11.0143    185.1536      3.1880   3.4767131755e+02   3.8718562701e+01    0.2648947    0.1718184  64.73  0.001609418    1.715    0.417
        11 -10.3386     59.8461    244.2980   6.4492586010e+01   1.4881856927e+01    0.2121921    0.1177075  41.72  0.001192623    1.474    0.322
        12 -11.8645     78.8649    213.0491   5.7215900702e+01   1.9018378312e+01    0.3507709    0.2831854  32.21  0.002102856    1.088    0.081
        13 -11.4354    188.1852    204.6913   3.1857330992e+01   6.5882429700e+00    0.3385153    0.2142057   8.04  0.001977962    1.632    0.387
        14 -10.5675     27.1330    205.1428   6.9804385021e+01   2.6451083041e+01    0.1874215    0.1812381 -13.57  0.001216907    1.252    0.201
        15 -10.5839     35.4254    203.1284   6.7503448382e+01   2.6110357739e+01    0.2995143    0.1259875  41.41  0.001336054    1.958    0.489
        16 -10.6104    179.8345    199.9773   3.2660912759e+01   8.3813128582e+00    0.2847065   0.08257869 -44.78  0.001112662    3.324    0.699
        17 -11.9986    125.9580    198.6746   4.3897249122e+01   1.5832016557e+01    0.3516125     0.324558 -35.07  0.002208238    1.149    0.129
        18 -13.4319    117.1488    195.5379   4.5523867470e+01   1.7693908123e+01    0.5888926    0.4766019 -60.58  0.003383216    1.397    0.284
        19 -11.0092    227.1517    193.6573   2.3485186987e+01   3.7407371164e+00    0.3035366    0.1307469 -32.35  0.001635452    1.956    0.489
        20 -11.0499    248.4666    193.6365   2.0367333401e+01   1.5105322804e+00    0.1987547    0.1734021 -28.04  0.001618817    1.464    0.317
        21 -12.7625    130.9627    189.3582   4.1284681075e+01   1.7001906051e+01    0.4408519    0.3906846 -31.46  0.002663404    1.135    0.119
        22 -10.6780    168.2369    186.6373   3.2707176122e+01   1.2217251334e+01    0.2361556    0.1590873  18.19  0.001304058    1.521    0.343
        23 -10.8884     13.1800    184.7197   7.2372719046e+01   3.2581701006e+01    0.2911131    0.1609782  51.54    0.0014504    1.587    0.370
        24 -15.2831     90.7199    198.2220   5.2487467099e+01   2.0724275733e+01     1.476821     1.173598 -17.08  0.008206538    1.463    0.316
        25 -13.6908     64.3218    176.1976   5.6887080425e+01   2.9348061863e+01     1.144511    0.4982151  31.46  0.004629086    2.084    0.520
        26 -13.7747     59.6091    168.4304   5.7297449747e+01   3.1902373124e+01     1.200949    0.4844895  27.90  0.004559471    2.370    0.578
        27 -12.2356    118.1026    177.3279   4.2429809072e+01   2.1438860238e+01    0.2760088    0.2174863 -61.16  0.001476048    1.396    0.284
        28 -10.6924     21.3207    190.2342   7.0437750418e+01   3.0525854575e+01    0.2845903      0.16005  54.51  0.001415116    1.602    0.376
        29 -10.7813    150.8088    169.8648   3.3396195373e+01   1.7955098901e+01    0.2499954    0.2241879 -15.92   0.00149302    1.042    0.040
        30 -12.5670    129.2305    167.8544   3.8029638788e+01   2.1771144240e+01    0.4565339    0.2041768  32.03  0.001822169    2.284    0.562
        31 -11.9744    214.6876    162.6305   2.0038698560e+01   9.9143815149e+00    0.3312668    0.1839547 -30.79   0.00183447    1.572    0.364
        32 -15.0194     80.1772    191.6784   5.4416680522e+01   2.3585486961e+01     1.193571     1.091165 -37.40  0.007113324    1.198    0.165
        33 -11.3743     39.5798    164.0182   6.2913789453e+01   3.5392294584e+01    0.5138816    0.2165045  30.83   0.00206476    2.154    0.536
        34 -11.0576    246.1267    150.7822   1.3404588633e+01   7.6881091424e+00    0.2298725    0.1217797 -20.77  0.001256392    2.106    0.525
        35 -12.4194    108.6713    144.5458   3.8904711589e+01   3.0490130930e+01    0.4669175    0.2913283 -58.42  0.002063242    1.663    0.399
        36 -15.0401    171.4948    129.7483   2.0954611348e+01   2.2369713102e+01     2.069192     1.344226  81.22  0.008326567    3.316    0.698
        37 -14.4969    186.0913    116.4911   1.5393164603e+01   2.2196179705e+01     1.181671    0.7127554 -36.03  0.005973198    1.514    0.340
        38 -14.9285    192.2157    129.8760   1.7257816949e+01   1.8768476202e+01     1.763171    0.9023628 -44.27  0.008485403    1.727    0.421
        39 -13.6279    146.5028    131.5142   2.6558808256e+01   2.6574774278e+01    0.6680112    0.5262491  60.64  0.003449277    1.490    0.329
        40 -13.6561    154.4103    129.6461   2.4400526204e+01   2.5494550961e+01    0.8128634    0.6316571 -82.23  0.004073389    1.754    0.430
        41 -11.7590     96.4889    133.4905   4.0127409254e+01   3.5290689625e+01     0.358971    0.2323352 -19.86  0.001394223    2.440    0.590
        42 -11.9873    172.1318    157.6990   2.6617895753e+01   1.6966161432e+01    0.4512621    0.3113254 -30.37  0.002427979    1.392    0.281
        43 -12.4093    147.4603    120.3711   2.3787085361e+01   2.8708430675e+01    0.3871138    0.3410253 -86.08  0.001953487    1.295    0.228
        44 -14.6019    174.3795    122.2239   1.8744914831e+01   2.3268564740e+01     1.253475    0.8246672  58.25  0.006280625    1.878    0.468
        45 -14.5383    126.6083    111.0333   2.6460783968e+01   3.4839044379e+01      1.38966    0.9339448  86.86  0.005538974    2.492    0.599
        46 -14.2523    129.2032    102.9964   2.3744472915e+01   3.6036757677e+01     1.193121    0.7686843 -65.58  0.005093031    1.933    0.483
        47 -11.3114     49.3185    137.4879   5.6308234925e+01   4.1392111795e+01    0.2814543    0.1345794 -68.17  0.001094339    2.047    0.512
        48 -12.3738     78.8630    110.9561   4.0712804375e+01   4.4048868921e+01    0.3924646    0.3641601  78.23  0.001782616    1.099    0.090
        49 -11.9476     77.8736    105.4987   3.9718506435e+01   4.5604148172e+01    0.3242899    0.2299841 -48.39  0.001480795    1.407    0.289
        50 -12.8089     74.0553    101.9328   4.0177656649e+01   4.7173889041e+01    0.4979168    0.3743173  25.86   0.00207738    1.459    0.315
        51 -13.0169    211.0238    101.3036   8.3073079457e+00   2.0368039232e+01    0.6559913    0.2968196  47.20  0.003124475    2.730    0.634
        52 -13.7100    200.7265     99.0942   9.2396263958e+00   2.2533716838e+01    0.5996752    0.5264068  67.31  0.003871147    1.336    0.252
        53 -13.6867    200.0100     92.2386   7.7993281876e+00   2.3778653168e+01    0.5835336     0.496925 -29.72  0.003680161    1.204    0.169
        54 -14.6478     97.8191     96.9778   3.0830753109e+01   4.3875412034e+01     1.665859    0.7618685  46.78  0.006155558    2.241    0.554
        55 -14.7835     87.0167     84.7978   3.0812003481e+01   4.8856046561e+01     1.627009    0.8448554 -61.00  0.006021827    2.395    0.582
        56 -10.9332     94.5230    239.0178   5.6174138501e+01   1.2037504528e+01    0.2627379    0.1368419  39.78  0.001385441    1.684    0.406
        57 -15.6343    103.5932     77.1461   2.3202491662e+01   4.7008918452e+01     2.473896     1.600028  69.19   0.01044089    1.983    0.496
        58 -11.9648    229.6455     91.0480   3.8773251158e+00   1.8823565845e+01    0.3352592    0.1517623 -52.77  0.001622219    2.255    0.557
        59 -13.0266     35.1962     87.8513   5.2708219404e+01   5.6595255901e+01    0.8846194    0.5545022 -70.03  0.004028793    1.607    0.378
        60 -11.2624      4.5108     88.7740   6.7503355987e+01   5.8963761779e+01    0.3539689    0.2582159 -73.75  0.001788201    1.243    0.196
        61 -11.2517     50.7673     86.0970   4.5265384801e+01   5.4980441932e+01    0.3416662    0.1851673 -63.75  0.001389596    1.917    0.478
        62 -11.5033     20.1488     85.4109   5.9361244514e+01   5.8778105132e+01    0.3494149    0.2206323 -29.55  0.001617323    1.783    0.439
        63 -13.4138     72.9538     78.6859   3.3984654020e+01   5.3015303327e+01     1.000211    0.5764098  44.64  0.004240966    1.745    0.427
        64 -12.2181     44.6007     81.5526   4.6794081622e+01   5.7023127945e+01    0.5996374    0.2692946  32.09  0.002329378    2.220    0.550
        65 -12.5154    170.6994     70.7793   6.8631970065e+00   3.3127516664e+01     0.858107    0.4297558 -66.95   0.00316737    3.263    0.694
        66 -12.6194    168.1141     77.3727   8.9918602342e+00   3.2590003322e+01    0.6970299    0.4211257  64.54  0.003381328    1.836    0.455
        67 -12.0017    164.5127     74.0272   8.7087169216e+00   3.3927459833e+01    0.6272923    0.3050893  53.38  0.002744466    2.211    0.548
        68 -10.3931    155.9835    235.3398   4.2572005713e+01   5.5290276921e+00    0.1988487   0.08551815   8.96 0.0007050913    4.384    0.772
        69 -13.0429    212.6359     44.1444   3.5540068715e+02   2.8396776581e+01    0.6746932    0.2831966 -54.23  0.003254832    2.150    0.535
        70 -14.5319    221.4201     70.0609   3.1443606228e-01   2.3254740960e+01    0.9940321    0.8384421  53.56  0.006845121    1.520    0.342
        71 -14.9243    235.2631     69.4300   3.5884323568e+02   2.0961443635e+01     1.435711     1.173701  53.53   0.01023665    1.620    0.383
        72 -12.4258     62.4588     71.7115   3.5936266547e+01   5.6559955902e+01    0.5581914    0.2820733 -51.48  0.002254765    1.969    0.492
        73 -11.4506     43.1437     70.3178   4.4237781738e+01   6.0020322166e+01    0.3410265    0.2470684 -47.73  0.001691551    1.343    0.255
        74 -11.9265     86.5817    234.2007   5.7511651224e+01   1.3849641578e+01    0.2627777    0.1687888  46.57  0.001497746    1.499    0.333
        75 -13.5027     65.2377     54.7084   2.8659713883e+01   5.9713331161e+01      1.21064     0.607709 -60.03  0.004427856    2.915    0.657
        76 -11.2959     53.4986     51.9491   3.2750163320e+01   6.2491926510e+01    0.3270046    0.1421684 -54.43  0.001214541    2.670    0.625
        77 -12.3522     43.0345     49.4300   3.6931340429e+01   6.4801699367e+01    0.4763737    0.2569489 -55.42  0.002087117    2.003    0.501
        78 -10.5275     41.9736    225.9848   6.7414380717e+01   2.0392221748e+01    0.2173433    0.1181805  52.19  0.001138307    1.661    0.398
        79 -11.9684     25.0715     48.4331   4.6772983668e+01   6.7532567144e+01      0.62177    0.2881701  22.31  0.002620281    2.295    0.564
        80 -12.7867    132.9506     59.6266   1.0392347562e+01   4.3521547534e+01    0.8442687    0.4127923 -30.52  0.003336011    2.422    0.587
        81 -12.8207     31.0483     63.7509   4.8419001281e+01   6.3218257710e+01    0.3697614    0.3201252  59.17  0.002056041    1.305    0.233
        82 -12.3777    228.7329     36.1923   3.5240514163e+02   2.6391634965e+01    0.4212485     0.273242 -89.59  0.002750424    1.641    0.391
        83 -10.2058    184.2288    223.6053   3.5485515046e+01   4.1362890193e+00    0.1660206   0.09472136  14.91 0.0009546497    1.687    0.407
        84 -11.0365    105.8372     33.8141   7.4012854894e+00   5.4045995709e+01    0.2531032    0.2357277  80.77  0.001356889    1.019    0.018
        85 -11.5590     27.1556     32.9385   3.9005827420e+01   7.0571453157e+01    0.4359964    0.2868258 -31.21  0.002261788    1.599    0.375
        86 -10.8728     43.1422    215.3243   6.6393498511e+01   2.2564533578e+01    0.3150631    0.1555963  39.51  0.001555068    1.658    0.397
        87 -13.2211     79.8702    172.5965   5.1936911065e+01   2.8161427290e+01      1.85476    0.9828679  80.36  0.006228069    3.741    0.733
        88 -11.5629    106.8483     18.4516   1.2317652128e+00   5.5726843696e+01    0.3549381     0.214929  29.95  0.001604622    2.389    0.581
        89 -13.5379     94.1106    213.1123   5.3466491270e+01   1.7116825656e+01     1.155338    0.6730085  26.91  0.005890034    1.539    0.350
        90 -10.9644     21.4893     17.4891   3.4713384957e+01   7.4250970858e+01    0.1284725      0.11333   2.87 0.0005071361    1.008    0.008
        91 -10.1841     63.2941     16.3517   1.1790912649e+01   6.6434257367e+01     0.138894   0.09715942  25.14 0.0007031671    1.681    0.405
        92 -13.6169     73.8801     56.1340   2.5786713224e+01   5.7675585107e+01    0.9974375    0.4477044 -41.69  0.003856975    2.320    0.569
