#   1 NUMBER                 Running object number                                     
#   2 MAG_AUTO               Kron-like elliptical aperture magnitude                    [mag]
#   3 X_IMAGE                Object position along x                                    [pixel]
#   4 Y_IMAGE                Object position along y                                    [pixel]
#   5 X_WORLD                Barycenter position along world x axis                     [deg]
#   6 Y_WORLD                Barycenter position along world y axis                     [deg]
#   7 A_WORLD                Profile RMS along major axis (world units)                 [deg]
#   8 B_WORLD                Profile RMS along minor axis (world units)                 [deg]
#   9 THETA_WORLD            Position angle (CCW/world-x)                               [deg]
#  10 FWHM_WORLD             FWHM assuming a gaussian core                              [deg]
#  11 ELONGATION             A_IMAGE/B_IMAGE                                           
#  12 ELLIPTICITY            1 - B_IMAGE/A_IMAGE                                       
         1  -8.4400    120.1915      9.1929   3.5349362340e+02   5.3534475511e+01    0.1890888    0.1353753 -69.69 0.0006280189    1.325    0.246
         2  -8.4589    169.5007      2.6508   3.4670165378e+02   4.2552764184e+01    0.2123496    0.1007034  81.76  0.001091541    1.946    0.486
         3  -9.9898    244.9115    245.9218   2.6237263216e+01  -4.1904265993e+00    0.2325759    0.1116612   9.64  0.001547012    2.042    0.510
         4  -8.6118    249.2832    250.1478   2.6180173324e+01  -5.0021055805e+00    0.1885753   0.08764289   7.99  0.001240612    2.143    0.533
         5  -7.7254    238.3071    250.3240   2.7804750038e+01  -4.1857757006e+00    0.1044987   0.05456477 -11.85 0.0007035215    1.647    0.393
         6 -12.0859     11.6711    245.6743   7.3339447442e+01   1.8952766722e+01     2.090388     1.051624 -76.10    0.0117848    2.222    0.550
         7 -11.7995     53.5373    211.3615   6.1213457769e+01   2.2255980123e+01     2.176046     1.379552  31.05   0.01158634    1.376    0.273
         8 -11.6736     37.6583    213.0148   6.5460212551e+01   2.3531666048e+01     2.165386     1.149831 -15.50  0.008603212    3.530    0.717
         9 -10.9115      3.8227    211.3931   7.4040848222e+01   2.6889684845e+01     0.653142    0.3708055 -72.75  0.002735584    1.860    0.462
        10 -12.0917     11.1431    206.8370   7.1991844432e+01   2.7359643673e+01     1.020989    0.8477727  31.02  0.003411821    1.179    0.152
        11 -11.3147      2.5766    226.9733   7.4842546289e+01   2.3540929467e+01    0.8530557    0.4759725 -85.78  0.004033366    1.849    0.459
        12 -11.9605     10.5054    225.1180   7.2888671125e+01   2.3304317830e+01    0.8593535    0.7145636  11.23  0.004965578    1.366    0.268
        13  -7.7930     51.0554    240.3878   6.4026609013e+01   1.6362809739e+01    0.1756385    0.1559802  85.71 0.0008288391    1.271    0.213
        14  -8.7462     26.1202    238.8359   6.9769594680e+01   1.9067325556e+01    0.4417935    0.1808506 -71.17  0.002162329    2.680    0.627
        15  -9.2177     32.1798    238.3180   6.8328614315e+01   1.8615366270e+01    0.3981571    0.1839597  28.17  0.001886708    1.757    0.431
        16  -8.7937     29.7672    234.9754   6.8723502815e+01   1.9525201170e+01    0.2676655    0.2083258  62.53  0.001533613    1.203    0.168
        17  -8.3312     30.8773    231.2019   6.8259981100e+01   2.0208751634e+01    0.2137981    0.1736062 -70.43  0.000706093    1.421    0.296
        18  -8.0481     38.6236    245.7684   6.7235145695e+01   1.6521410952e+01    0.1571775    0.1036794  75.65 0.0009461215    1.649    0.393
        19  -8.0922     46.8944    236.0955   6.4722939761e+01   1.7643185728e+01    0.2205826    0.1366714 -42.53 0.0009322406    2.102    0.524
        20  -7.7454    143.8165    232.6773   4.2225955094e+01   7.4427088455e+00    0.1974832    0.1299554   4.61 0.0007606625    1.488    0.328
        21 -10.0959     39.4372    230.5846   6.6159737139e+01   1.9519971676e+01    0.3527092    0.2411731 -29.75  0.001390473    1.999    0.500
        22  -9.4518    246.2052    229.9743   2.3821078340e+01  -2.4066493570e+00    0.1579792    0.1186039  22.90   0.00128878    1.683    0.406
        23  -9.4996     21.5112    210.7830   6.9498959792e+01   2.5561558943e+01    0.2577313    0.2119505 -77.26  0.001106137    1.315    0.239
        24 -10.1118      3.2705    196.1607   7.3629106593e+01   3.0505424449e+01    0.5039421    0.3938626 -58.83  0.002513028    1.472    0.321
        25 -10.6248      2.1897    188.0901   7.3607740026e+01   3.2554962226e+01    0.7936134    0.3193998 -78.60  0.002455991    2.382    0.580
        26 -10.8148     15.5864    196.2602   7.0301141567e+01   2.9506339055e+01    0.9831895    0.4666757   8.32  0.004194374    2.669    0.625
        27 -11.5241     15.5733    188.0560   6.9856018024e+01   3.1525041727e+01    0.8135958    0.4295144  36.81  0.001145796    1.638    0.389
        28 -12.9557     25.0993    178.1824   6.6444571799e+01   3.3197371136e+01     2.856903     1.106845  63.36   0.01024765    3.061    0.673
        29 -11.0289      6.0567    170.8983   7.1701281537e+01   3.6644401550e+01    0.7068035    0.5010278 -86.48  0.003048234    1.327    0.247
        30  -9.8915      9.0224    178.0097   7.1191816904e+01   3.4587800337e+01    0.2550728    0.1845106  87.35  0.001124535    1.299    0.230
        31 -10.4063     49.0429    167.7463   5.8151819655e+01   3.3444353737e+01     0.748297    0.4324245  86.94   0.00232703    2.038    0.509
        32  -7.7811     42.3127    170.3520   6.0520204249e+01   3.3515475622e+01    0.1497961    0.1045504 -36.58 0.0007045545    1.727    0.421
        33  -9.8494      2.0104    164.2171   7.2601059796e+01   3.8674830928e+01    0.5921296    0.1539788 -82.48  0.001940349    3.615    0.723
        34  -9.5512     54.6978    161.6272   5.5629577014e+01   3.4382130345e+01    0.3089104    0.2632574  -5.87 0.0004887333    1.358    0.264
        35 -11.6605      8.5886    150.8546   6.9698341488e+01   4.1809822191e+01     1.248564    0.4516346  86.28  0.004364223    3.028    0.670
        36  -9.8407     66.4056    152.9090   5.0663611688e+01   3.5164658291e+01    0.6032839    0.2643698 -59.57  0.001132458    2.198    0.545
        37  -9.4859     73.8795    149.1454   4.7675808149e+01   3.5093986637e+01    0.5491201    0.3747862   4.40  0.001697865    1.935    0.483
        38 -10.0946     70.3254    145.7233   4.8232517803e+01   3.6510156568e+01    0.8291807    0.4667256  71.45  0.002999121    2.750    0.636
        39 -10.8724     51.7106    149.6625   5.4981084226e+01   3.7951724288e+01    0.3720419    0.2989573 -10.75 0.0006781355    1.498    0.332
        40  -7.3663     32.8298    148.6193   6.1246288491e+01   4.0353703247e+01    0.2076976    0.1232552  37.30 0.0006537344    1.601    0.376
        41  -8.0878     37.3799    146.7357   5.9461221417e+01   4.0400145500e+01    0.2773049     0.159646  40.13  0.001079818    1.657    0.396
        42  -9.5778     79.2711    135.0150   4.3364833526e+01   3.7964730624e+01    0.2574266    0.2442081  31.81 0.0003490821    1.079    0.073
        43  -8.8798     13.2770    135.5724   6.6855565203e+01   4.5683393362e+01    0.2645046    0.1493839 -55.50  0.001118278    1.750    0.429
        44  -7.2790     95.6919    134.6728   3.8155040756e+01   3.5326950216e+01    0.1574572     0.119578 -21.34 0.0007038324    1.656    0.396
        45  -8.3670     63.0709    189.9076   5.6542398700e+01   2.6186444221e+01    0.3226835    0.1952392  26.14 0.0009773305    1.569    0.362
        46  -8.3000     40.3248    119.3392   5.4431002066e+01   4.7672000814e+01    0.1623016    0.1087088 -35.38 0.0007051255    1.725    0.420
        47 -11.2391      2.7224    132.4697   7.0487810527e+01   4.7242228544e+01     1.983546    0.3768816 -86.07  0.004625159    6.556    0.847
        48  -7.7669     52.4823    111.4948   4.8169405925e+01   4.8273668949e+01    0.1532773    0.1463643  84.48 0.0008102192    1.030    0.029
        49  -7.4792     48.6061     95.4439   4.6188112948e+01   5.3108053720e+01    0.1491181    0.1429155 -65.94 0.0001258378    1.017    0.017
        50  -7.6981    162.4812     91.5155   1.1337884668e+01   3.1621102801e+01    0.1418372    0.1261028 -57.39 0.0008101376    1.016    0.015
        51 -10.3441    181.3339     75.2909   4.2674058243e+00   3.0545929260e+01    0.4690403    0.2094719 -50.06  0.001261915    2.081    0.519
        52  -7.6399    144.2458     59.4568   5.9454945833e+00   4.1151387508e+01    0.1846542    0.1304425  82.03 0.0006405166    1.520    0.342
        53  -8.3985    248.0371     57.8820   3.5352870315e+02   2.1025620593e+01    0.1695271    0.1231978 -49.19 0.0004252649    1.012    0.012
        54 -10.6950    215.7307     55.5084   3.5569978145e+02   2.6820838111e+01    0.4113508    0.3289408 -65.96  0.002429366    1.133    0.117
        55 -11.8364    228.5499     46.9840   3.5280028622e+02   2.5646257995e+01    0.8287615    0.6101679  39.61  0.005367095    2.192    0.544
        56 -10.9767    244.1891     34.2345   3.4916663005e+02   2.4543739747e+01    0.4861444    0.3327022  88.17  0.003011507    1.599    0.375
        57  -9.0011     93.2523     39.8825   1.0651858119e+01   5.6325162963e+01    0.2456881    0.2351084  -2.37 0.0003843889    1.196    0.164
        58 -10.8626    244.9521     38.5571   3.4996780071e+02   2.3907557320e+01    0.4406561      0.29399  79.21  0.002363703    1.741    0.426
        59  -8.8096     77.6689     36.5853   1.4044539384e+01   6.0457209440e+01      0.25957    0.2305432  88.41  0.000604269    1.192    0.161
        60  -7.0994    207.2893     17.3940   3.4786009575e+02   3.3125049560e+01    0.1019298   0.08989748  16.81 0.0007003737    1.776    0.437
        61  -8.2570     22.0112    245.8494   7.1021497602e+01   1.8029963959e+01    0.2455658    0.1942411 -71.30   0.00146844    1.509    0.337
