#   1 NUMBER                 Running object number                                     
#   2 MAG_AUTO               Kron-like elliptical aperture magnitude                    [mag]
#   3 X_IMAGE                Object position along x                                    [pixel]
#   4 Y_IMAGE                Object position along y                                    [pixel]
#   5 X_WORLD                Barycenter position along world x axis                     [deg]
#   6 Y_WORLD                Barycenter position along world y axis                     [deg]
#   7 A_WORLD                Profile RMS along major axis (world units)                 [deg]
#   8 B_WORLD                Profile RMS along minor axis (world units)                 [deg]
#   9 THETA_WORLD            Position angle (CCW/world-x)                               [deg]
#  10 FWHM_WORLD             FWHM assuming a gaussian core                              [deg]
#  11 ELONGATION             A_IMAGE/B_IMAGE                                           
#  12 ELLIPTICITY            1 - B_IMAGE/A_IMAGE                                       
         1 -14.3203    166.2894     57.9430   6.3344189734e+01   3.6019613700e+01     1.879103     1.110524  27.06  0.005839032    2.551    0.608
         2 -14.3242    180.5755     43.6105   5.6287030269e+01   3.4492381565e+01    0.9658361    0.9167018  21.78  0.003300922    1.147    0.128
         3 -14.8671    201.7611     12.7277   4.4375026410e+01   3.2850592697e+01     1.119753    0.9958164   0.09  0.004504601    1.367    0.269
         4 -10.8098    250.3395    237.3207   8.8672152437e+01  -1.0290506217e+01    0.1207862   0.06917498  12.07 -8.798671e-05    1.715    0.417
         5 -14.1630     75.7052    247.2456   1.2067899503e+02   1.5113053991e+01    0.4092916    0.2070667 -68.67  0.002511623    2.177    0.541
         6 -17.5326     56.8878    227.1837   1.2240787148e+02   2.1116354290e+01     8.823612     6.665083  86.99   0.06430005    1.196    0.164
         7 -13.4404    149.7803    187.9272   9.9175791226e+01   1.3956127110e+01       0.4942    0.3684029 -85.25  0.001343527    1.795    0.443
         8 -11.2448     60.9894    190.2147   1.1836296002e+02   2.7912043757e+01    0.3952694    0.1569849 -67.59  0.001855155    2.357    0.576
         9 -12.8042    150.7089    179.3813   9.7486724372e+01   1.5427235795e+01    0.4145456    0.2861625 -73.15  0.001980447    1.961    0.490
        10 -11.6164    187.6800    176.2189   8.9162458955e+01   8.8053198079e+00     0.321398     0.310873 -10.82   0.00124326    1.099    0.090
        11  99.0000     13.0049    204.9411   1.2874161669e+02   3.0316838109e+01    0.3190513    0.2166876  62.44  0.002351606    1.195    0.163
        12 -10.4633    193.9478    171.3390   8.6927537614e+01   8.4282387699e+00    0.2069634    0.1709377  36.48  0.001098237    1.139    0.122
        13 -10.6859    185.6156    170.2207   8.8383675435e+01   1.0284555219e+01    0.1934847    0.1341451 -28.50   0.00046689    1.600    0.375
        14 -10.6365     17.7575    167.7207   1.2534639222e+02   3.7603264302e+01    0.1525798    0.1304881 -85.66  0.001121724    1.225    0.184
        15 -10.2617      2.4772    164.3817   1.2828459912e+02   3.9626765634e+01    0.1101856   0.08397596 -89.36 0.0003275002    1.090    0.083
        16 -12.2929    117.0135    161.7799   1.0190030206e+02   2.5427637984e+01     0.244026    0.2037166 -66.17  0.000495735    1.200    0.167
        17 -13.3269    113.7393    151.9051   1.0086782034e+02   2.8229006935e+01    0.5797286    0.3459162  79.98  0.002077318    2.870    0.652
        18 -18.9589     34.9974     98.1580   1.1235607197e+02   5.2100505857e+01     14.98318    0.7761768 -64.31   0.02456051   15.319    0.935
        19 -11.5820    167.1052    225.3964   1.0159179162e+02   4.4343366649e+00    0.2434559    0.1856411 -40.90 0.0006089568    1.582    0.368
        20 -12.1420    192.2231    193.5100   9.1538369251e+01   5.0116073579e+00    0.6876256    0.3764064 -64.29  0.002314225    5.048    0.802
        21 -13.3891    133.8689    145.7273   9.4769710714e+01   2.5766561644e+01     1.254005    0.3200794 -55.04  0.003044528    5.715    0.825
        22 -13.3572    110.6888    136.9541   9.8664888656e+01   3.2211125359e+01    0.6503156    0.3908468 -34.42  0.002687751    2.267    0.559
        23 -12.7397    100.3581    135.5327   1.0103274743e+02   3.4386436414e+01    0.2877599    0.2775974  54.07 0.0007075522    1.127    0.113
        24  99.0000     23.9687    204.8628   1.2676697425e+02   2.9230466429e+01    0.3534081    0.1765043  78.40  0.002091947    1.731    0.422
        25 -12.9259    106.0000    130.8483   9.8590391910e+01   3.4484280576e+01    0.4476002    0.3623635 -69.50  0.001225884    1.222    0.181
        26 -11.8682    136.4044    128.5114   9.0308785001e+01   2.9061517769e+01    0.6085013    0.1819229 -40.15  0.001629292    4.351    0.770
        27 -12.1839    117.2858    128.0316   9.5033157172e+01   3.3027170874e+01    0.3114572    0.2576546 -26.25 0.0007067319    1.446    0.308
        28 -11.3202    160.7585    127.8630   8.4351459138e+01   2.3913631456e+01    0.3109434     0.220543 -61.91  0.001368061    1.666    0.400
        29 -11.6581    105.4059    123.5294   9.7144018083e+01   3.6301078061e+01    0.2783348    0.2447098 -25.84 0.0005248296    1.324    0.245
        30 -10.6916    153.5396    120.4983   8.4202951441e+01   2.7081305409e+01    0.1550087    0.1525118 -72.56 4.317676e-05    1.014    0.014
        31 -10.8816    135.0000    119.9679   8.8590858435e+01   3.1252829925e+01    0.2614652   0.08721972 -46.50 0.0008044587    2.956    0.662
        32 -10.9416    111.9909    117.6640   9.4014354512e+01   3.6433169055e+01    0.2080235    0.1918905  53.91 0.0004055202    1.117    0.105
        33 -10.8606    231.1756    113.9064   6.6930688597e+01   1.0675426595e+01    0.2340984    0.2157538  46.16 0.0007501551    1.176    0.149
        34 -11.2923    168.0218    113.1049   7.8968621820e+01   2.5299489483e+01    0.3625837    0.2724981 -70.13  0.001307098    1.686    0.407
        35 -11.4883     65.7518    194.8400   1.1785949347e+02   2.6310301868e+01    0.3104548    0.1896614  69.81  0.001757644    1.532    0.347
        36 -11.0930    205.4780    110.1911   7.0531755420e+01   1.7078190310e+01    0.2738328    0.2184222  49.49 0.0006729042    1.301    0.231
        37 -13.3299     70.7468    191.4808   1.1647453122e+02   2.6332902842e+01    0.4302344    0.3502862 -55.94  0.001410734    1.503    0.335
        38 -10.9857     65.6791     98.9259   1.0296779037e+02   4.8437174182e+01    0.2096411    0.1645588 -58.64  0.001165292    1.122    0.109
        39 -10.0306    151.2952     82.3454   7.4168270124e+01   3.5431509214e+01    0.1615365    0.1253916   6.63 0.0006864231    1.669    0.401
        40 -12.8167    248.1414    247.4780   9.0642632668e+01  -1.1032563113e+01    0.3305767    0.2364777  30.68  0.002398183    1.261    0.207
        41 -12.5028    152.0000    192.9951   9.9562444787e+01   1.2593416379e+01     0.322452    0.1931228 -50.95  0.001495963    1.871    0.466
        42 -13.3851    185.6029     36.7565   5.3412640255e+01   3.4127154381e+01    0.5826789    0.4738481  20.95  0.001375242    1.487    0.327
        43 -10.2978     13.5204     59.9825   1.1190493277e+02   6.2370365750e+01     0.177395   0.09443194 -61.81 0.0003712333    1.482    0.325
