#   1 NUMBER                 Running object number                                     
#   2 MAG_AUTO               Kron-like elliptical aperture magnitude                    [mag]
#   3 X_IMAGE                Object position along x                                    [pixel]
#   4 Y_IMAGE                Object position along y                                    [pixel]
#   5 X_WORLD                Barycenter position along world x axis                     [deg]
#   6 Y_WORLD                Barycenter position along world y axis                     [deg]
#   7 A_WORLD                Profile RMS along major axis (world units)                 [deg]
#   8 B_WORLD                Profile RMS along minor axis (world units)                 [deg]
#   9 THETA_WORLD            Position angle (CCW/world-x)                               [deg]
#  10 FWHM_WORLD             FWHM assuming a gaussian core                              [deg]
#  11 ELONGATION             A_IMAGE/B_IMAGE                                           
#  12 ELLIPTICITY            1 - B_IMAGE/A_IMAGE                                       
         1 -14.1100    202.0550      9.0689   5.9536944637e+01   3.3896916099e+01     1.644069     1.294719  82.14   0.01060655    1.071    0.066
         2 -14.0663    184.0847     32.5434   6.7378790130e+01   3.5487251063e+01     1.011488    0.8553075  78.45  0.003235363    1.041    0.040
         3 -14.0694    189.9876     23.1703   6.4242776938e+01   3.5191254953e+01    0.7828482    0.7284278 -32.36  0.001401144    1.311    0.237
         4 -14.0011    172.8539     42.7643   7.1777271503e+01   3.6894203813e+01    0.9618207    0.8337674 -50.77 0.0009006567    1.206    0.171
         5 -12.0958    108.5227    209.5652   1.2552666274e+02   1.6199052483e+01     0.494975    0.3423977  52.58  0.002587858    1.330    0.248
         6 -13.6333     62.4885    209.6297   1.3543988031e+02   2.3360328700e+01     2.880016    0.9232748  50.63    0.0111579    3.049    0.672
         7 -16.2015    116.3111    243.5063   1.2848218885e+02   7.9478164342e+00     6.089875     2.461591  36.53   0.02562499    2.522    0.603
         8 -11.4000     64.6045    192.6618   1.3295541675e+02   2.6943807302e+01    0.3206831    0.2702003  53.89  0.001951906    1.221    0.181
         9 -13.0746    195.5073    195.1981   1.0415546080e+02   2.8981231858e+00     0.841305    0.6630465  79.14  0.003550841    1.831    0.454
        10 -10.7843    140.9505    199.3075   1.1667879425e+02   1.2558054955e+01    0.2096104    0.1847102  47.19   0.00076586    1.080    0.074
        11 -11.3335    112.3649    196.5440   1.2267241291e+02   1.8430024175e+01    0.4614223    0.2999595   6.57  0.001708083    3.581    0.721
        12 -10.7822    102.7279    194.9097   1.2461525361e+02   2.0479873530e+01    0.3320191    0.2617284  38.45   0.00104273    1.348    0.258
        13  -9.6354     94.6221    199.8813   1.2719961830e+02   2.0699887182e+01    0.2596494    0.1259253  67.47 0.0009022985    3.351    0.702
        14 -12.2883    107.3715    203.6332   1.2490104935e+02   1.7707570579e+01    0.4982127    0.4411136 -15.34   0.00280694    1.552    0.355
        15 -11.5530    207.6551    184.5229   9.9567576199e+01   2.6175912370e+00    0.3831201    0.2778104 -43.10  0.001586402    1.380    0.275
        16 -11.7355    211.4540    181.1623   9.8128971517e+01   2.5305518818e+00    0.4089278    0.3146238  -8.36  0.001321698    1.493    0.330
        17 -10.8387     90.5214    183.9832   1.2574660285e+02   2.5071428235e+01    0.2657582    0.1765527  60.66 0.0007634134    1.546    0.353
        18 -10.1923     92.6638    206.4359   1.2855975039e+02   1.9537522955e+01    0.2467434    0.2050138 -73.52 0.0007742512    1.185    0.156
        19 -10.9139     99.3935    180.6439   1.2309500327e+02   2.4383974013e+01    0.2529445    0.2404854 -79.49 0.0005916121    1.111    0.100
        20 -11.2951     92.1218    177.3652   1.2429851408e+02   2.6386927977e+01    0.4852275    0.2920782  72.44  0.001032799    2.187    0.543
        21 -12.2453     83.8024    179.2177   1.2659799604e+02   2.7282377348e+01     0.457017    0.2888939 -41.30   0.00211446    2.021    0.505
        22 -12.2197     86.9429    174.0678   1.2501264271e+02   2.8021962436e+01    0.3474997    0.2990053 -29.69  0.001172186    1.492    0.330
        23 -10.9788    197.7922    175.6019   9.9712475089e+01   6.2680396683e+00    0.3992934    0.2804345 -55.74  0.001117115    1.609    0.378
        24  -9.6249     71.9737    174.4987   1.2871800731e+02   3.0209250296e+01    0.2016319    0.1315966  44.33  0.001015685    1.567    0.362
        25 -15.9315     75.4225    151.7521   1.2408687336e+02   3.5243715887e+01     4.893834     2.710721  77.12   0.01021697    3.243    0.692
        26 -11.9369    136.7424    171.0595   1.1235765892e+02   1.9692172789e+01    0.5413937    0.2647742  34.86  0.002010783    2.354    0.575
        27 -11.2089    204.0916    168.0875   9.6843181944e+01   6.4974884752e+00    0.4290011    0.4095003 -43.88  0.002351138    1.068    0.063
        28 -11.2781    145.6988    168.4766   1.0971095137e+02   1.8477208754e+01    0.3391863    0.2541993 -42.47   0.00120844    1.398    0.285
        29  -9.7227     83.0097    229.3211   1.3344661843e+02   1.6101040473e+01    0.1763961    0.1395502  54.50 0.0003520419    1.155    0.134
        30  -9.7364      9.6995    214.2585   1.4624975324e+02   2.8600308589e+01    0.1213138   0.08821756  52.66 0.0008382783    1.391    0.281
        31 -10.5518      6.4924    160.8784   1.4249130434e+02   4.0779569090e+01    0.1810906    0.1473115  69.42  0.000281841    1.249    0.199
        32  -9.4883      1.3389    161.2197   1.4368438822e+02   4.1098777670e+01    0.1042971   0.07812395 -49.96 0.0004159253    1.526    0.345
        33 -12.6965     98.7099    156.9336   1.1899403666e+02   3.0215134297e+01    0.7270663    0.4216049 -38.15   0.00298275    2.201    0.546
        34 -11.6900    133.7751    144.6233   1.0743278856e+02   2.6455884077e+01     1.090617    0.2679607 -53.93  0.002549557    5.398    0.815
        35 -10.8502    174.6756    148.7255   9.8734035362e+01   1.6724459435e+01    0.3753495    0.2391918 -66.50  0.001466211    2.125    0.529
        36 -11.7995    144.6634    145.3476   1.0491500063e+02   2.3998555282e+01    0.3899233    0.3137945 -89.51  0.001164858    1.478    0.324
        37 -12.2675    109.0481    141.3483   1.1306768663e+02   3.2120757437e+01    0.5633971    0.3692537 -32.16  0.002397365    1.953    0.488
        38 -12.4604     97.7037    141.8098   1.1619240077e+02   3.4062450158e+01    0.2940493    0.2767476  -8.86 0.0004463649    1.229    0.186
        39 -10.2922     69.8274    228.0444   1.3593789919e+02   1.8323164686e+01    0.2045029    0.1397983  74.94  0.001189244    1.320    0.242
        40 -11.0402     66.4811    236.4426   1.3743484711e+02   1.7059932591e+01    0.2833141    0.1895189 -49.31  0.001349772    2.075    0.518
        41 -12.1340    116.4848    130.8128   1.0868245145e+02   3.3192057764e+01    0.5228565    0.3924655   2.57  0.001771606    1.970    0.492
        42 -10.9626    160.0276    128.3856   9.7212269489e+01   2.4427786919e+01     0.412798    0.2765901 -39.03  0.001789015    1.537    0.349
        43 -11.3241    135.4387    124.2363   1.0214411261e+02   3.0793787080e+01      0.46935    0.1540462 -47.05  0.001439046    3.000    0.667
        44 -10.5513    125.4494    127.3055   1.0547410238e+02   3.2199574395e+01    0.2676767    0.1914285  67.52 0.0009228606    1.724    0.420
        45 -10.8906    120.4920    124.9994   1.0621270321e+02   3.3742313602e+01    0.2428136    0.1491608 -47.20 0.0009457141    1.585    0.369
        46 -10.5506    111.0165    119.8539   1.0749439893e+02   3.6801863403e+01    0.2499693    0.2132546 -52.89 0.0003332729    1.133    0.117
        47 -12.2304     68.4582    116.3095   1.1889297580e+02   4.4780154881e+01    0.4136332    0.2766693  23.69  0.001444196    1.790    0.441
        48 -19.3442     23.0351    136.9427   1.3559258147e+02   4.4997843469e+01     19.97241     2.358062 -68.18   0.04364879    8.959    0.888
        49 -10.5336    168.2083    113.0189   9.1498497386e+01   2.5820765574e+01    0.3837016     0.276392 -71.26  0.001396541    1.726    0.421
        50 -11.9381    104.7326    128.9905   1.1142519687e+02   3.5864920515e+01    0.5666948    0.3911888 -80.56  0.001192197    1.962    0.490
        51 -10.2593    205.2242    110.2045   8.3371312907e+01   1.7772155755e+01    0.2975632    0.2043394  42.28  0.001029539    1.648    0.393
        52 -11.7452     67.8332    104.4791   1.1630887316e+02   4.7577469051e+01     0.350347    0.2526151  -3.78  0.001759927    1.835    0.455
        53 -11.7520    115.3729    210.9227   1.2422907606e+02   1.4717959669e+01    0.3492492    0.2173643  77.18 0.0008631098    2.158    0.537
        54  -9.1603    153.9578    103.7780   9.2310130232e+01   3.1047080285e+01    0.1943383    0.1271662  49.32 0.0003224844    1.530    0.347
        55 -10.1508    134.5168    102.9882   9.6829167219e+01   3.5624235221e+01    0.2412339    0.1510613 -43.78 0.0009143065    1.586    0.369
        56  -9.2509    149.4911    100.5443   9.2489315895e+01   3.2740405227e+01    0.1570818     0.147103 -85.32 0.0004003922    1.093    0.085
        57  -9.4954    151.9831     78.7388   8.5868954289e+01   3.6325848464e+01    0.1948483    0.1271532  53.35 0.0005019545    1.491    0.330
        58 -10.9890    176.0688     74.3851   7.9711681149e+01   3.1277570251e+01    0.3106513     0.239287  89.48 0.0008533536    1.444    0.307
        59 -12.8989     46.9304    204.3767   1.3811968492e+02   2.6597290472e+01    0.2682006    0.2077052  63.86 0.0008533288    1.171    0.146
        60 -11.2868     80.1645    186.0074   1.2848602705e+02   2.6229622644e+01    0.4174218     0.322531 -80.66  0.001401829    1.203    0.169
        61 -10.6566     72.8229    202.8474   1.3242773021e+02   2.3415493057e+01    0.2873392    0.2048647 -50.54   0.00102658    1.656    0.396
        62 -13.4499     73.4609    195.0365   1.3127935008e+02   2.5119119718e+01    0.8281348    0.6879317  56.17  0.004935825    1.182    0.154
