#   1 NUMBER                 Running object number                                     
#   2 MAG_AUTO               Kron-like elliptical aperture magnitude                    [mag]
#   3 X_IMAGE                Object position along x                                    [pixel]
#   4 Y_IMAGE                Object position along y                                    [pixel]
#   5 X_WORLD                Barycenter position along world x axis                     [deg]
#   6 Y_WORLD                Barycenter position along world y axis                     [deg]
#   7 A_WORLD                Profile RMS along major axis (world units)                 [deg]
#   8 B_WORLD                Profile RMS along minor axis (world units)                 [deg]
#   9 THETA_WORLD            Position angle (CCW/world-x)                               [deg]
#  10 FWHM_WORLD             FWHM assuming a gaussian core                              [deg]
#  11 ELONGATION             A_IMAGE/B_IMAGE                                           
#  12 ELLIPTICITY            1 - B_IMAGE/A_IMAGE                                       
         1 -12.2482    195.0066     38.4179   4.8913344461e+01   3.1587081201e+01     1.024785    0.9280962 -62.98   0.00349194    1.061    0.057
         2 -12.4316    204.1254     28.6896   4.5065482674e+01   3.0552535241e+01    0.8822187    0.7509483 -19.98  0.001447053    1.339    0.253
         3 -10.8552     40.6892      6.9043   7.6188549150e+01   6.9342560314e+01    0.2882554     0.221329 -32.12  0.001920694    1.481    0.325
         4  -9.9949    231.9863      2.0089   3.5775773187e+01   2.6911426672e+01    0.3666444    0.1950215 -87.70  0.001763509    1.856    0.461
         5 -11.1850    226.6320      3.8044   3.6602252362e+01   2.7952237684e+01    0.7155517    0.3894919 -89.21  0.003663542    1.811    0.448
         6 -10.0935    168.7060    220.4662   9.7152067898e+01   4.5959771219e+00    0.3259781    0.1898931  26.30  0.001620312    1.841    0.457
         7  -9.9130    139.8888    249.2189   1.0663613433e+02   4.7462018368e+00    0.3229551    0.2509042  14.59  0.002099203    1.594    0.373
         8 -14.9879     51.1267    202.3328   1.1897463670e+02   2.6273892345e+01     10.75048     3.179471  52.53   0.04295997    3.306    0.698
         9 -10.3727     34.5270    208.5347   1.2275511914e+02   2.6917889161e+01    0.3420255    0.1690198  50.21  0.001977375    1.721    0.419
        10 -13.4655     58.3392    242.5259   1.2088150209e+02   1.7565352437e+01     1.131549    0.5753596  48.10  0.004909245    1.551    0.355
        11  -9.3724    113.3301    207.6609   1.0663185173e+02   1.6249584171e+01    0.2268225    0.1782219  69.56 0.0006756245    1.263    0.208
        12  -9.1536    178.1572    217.1860   9.4763388652e+01   3.5144956319e+00    0.1746948      0.15025  55.96   0.00107859    1.339    0.253
        13  -8.6853     86.8912    249.1913   1.1634262036e+02   1.2612911202e+01     0.183604    0.1441688 -85.75  0.001016018    1.349    0.259
        14  -8.7466    191.4973    192.0018   8.7679591354e+01   5.3209429732e+00      0.18232    0.1229591 -66.02 0.0008106598    2.598    0.615
        15  -8.6980     95.0266    188.0273   1.0792194759e+02   2.3239416744e+01    0.2070803    0.1825149  70.81 0.0005415332    1.006    0.006
        16 -17.3584      6.4708    187.2404   1.2674609224e+02   3.4118284258e+01     17.03989     2.037009 -77.38   0.04730341    7.623    0.869
        17  -8.7733     99.5005    180.7953   1.0585875561e+02   2.4109891241e+01    0.2442289    0.1826087  43.39 0.0007741979    1.298    0.229
        18 -10.6601     73.2699    174.7736   1.1109501353e+02   2.9426931557e+01    0.4179768    0.2860287 -36.71  0.002129956    2.091    0.522
        19 -10.5343     77.1318    170.1491   1.0954856740e+02   2.9939009808e+01    0.3382102    0.2925557 -25.06 0.0007700534    1.562    0.360
        20  -8.2262    140.6608    174.3165   9.5264342848e+01   1.8261616723e+01    0.1495629    0.1117231  74.88 -2.265365e-05    1.704    0.413
        21  -9.6397    114.4247    173.7435   1.0125268283e+02   2.3162516554e+01    0.2482262    0.2147491 -86.25  0.001003578    1.178    0.151
        22 -10.0268     47.6255    172.6128   1.1676078585e+02   3.3212423295e+01    0.3321924    0.1803432 -52.00  0.001058626    2.062    0.515
        23  -9.9383     52.7881    171.5172   1.1545030146e+02   3.2849783352e+01    0.4842149    0.1887408 -68.48  0.001616921    2.318    0.569
        24 -12.8092     58.8420    131.2041   1.0819050802e+02   4.1701105949e+01     2.043549    0.7279711 -73.36  0.006169133    4.393    0.772
        25 -12.1535     73.6293    156.4503   1.0838106747e+02   3.3644857846e+01    0.6470463    0.5555979 -49.45  0.001078681    1.287    0.223
        26 -13.3746     68.5139    144.2547   1.0775822693e+02   3.7274865504e+01     2.734614     1.473263  55.27  0.002995919    2.133    0.531
        27  -9.5088    134.0000    144.0285   9.0713908746e+01   2.6159621766e+01    0.6881129    0.2250624 -55.80  0.001914623    4.163    0.760
        28  -9.9188    104.3858    139.7528   9.7388897303e+01   3.2743574264e+01    0.4944691    0.3518557 -21.73  0.002209866    2.037    0.509
        29 -10.5236     92.2299    139.5827   1.0058937275e+02   3.4849293163e+01    0.2871436    0.2534966 -45.83 0.0004638237    1.183    0.154
        30 -10.4166     47.8615    139.4425   1.1249111338e+02   4.1005114553e+01    0.3901131    0.2567898   7.95  0.001185885    2.352    0.575
        31  -8.9439    105.8964    130.7637   9.5060575815e+01   3.4600704932e+01    0.3235732    0.2646913 -76.94  0.001406434    1.316    0.240
        32  -9.9485    113.4340    130.0689   9.2875906910e+01   3.3372637045e+01     0.414966    0.3231911 -29.30  0.001562745    1.487    0.328
        33  -8.9384     86.0014    145.1048   1.0328768838e+02   3.4518727647e+01    0.2652623    0.1967954  53.82 0.0006473407    1.390    0.281
        34  -9.5550    100.0066    126.4073   9.5702802239e+01   3.6681728772e+01    0.4185576    0.2775265 -24.49  0.001553401    2.194    0.544
        35 -10.8240     91.7365    154.1257   1.0341405311e+02   3.1466657165e+01    0.6231091    0.4207783 -30.09  0.002852576    2.143    0.533
        36 -10.0874    119.6521    123.4123   8.9645738318e+01   3.3718590980e+01    0.4987996    0.3292499 -17.27  0.001943638    2.456    0.593
        37  -8.5784    114.5017    118.9954   8.9959246458e+01   3.5745190182e+01    0.2410657    0.1471768 -48.71  0.001028666    1.579    0.367
        38  -8.5631    108.9617    118.9943   9.1485678897e+01   3.6802632127e+01    0.2277648    0.2135952 -33.20 0.0003980488    1.093    0.085
        39 -10.3505     49.4861    116.9930   1.0837033245e+02   4.6261441150e+01    0.2525695    0.1802062  55.71  0.001373957    1.598    0.374
        40 -10.6149    117.6617    110.1145   8.6828982021e+01   3.7154912801e+01    0.6716335    0.4474792  41.86  0.003012399    1.555    0.357
        41  -8.3938    205.2496    110.2589   6.6625368681e+01   1.7434364497e+01    0.2544648    0.1946332  48.84  0.001244084    1.375    0.273
        42 -10.3728     54.8691    110.1666   1.0543449363e+02   4.7286948388e+01    0.4584272     0.199367  32.09  0.001962005    2.576    0.612
        43  -9.1687    134.6819    105.0619   8.0901574026e+01   3.4698792371e+01    0.5339192    0.1423544 -43.83  0.001474274    3.667    0.727
        44 -11.3278     84.8595    161.4386   1.0636111176e+02   3.0820011621e+01     1.085682    0.5418994  61.60 0.0005097531    2.739    0.635
        45 -10.2782     41.7852    208.7980   1.2137552240e+02   2.6044530101e+01    0.4597524    0.2676092  70.31  0.002447867    1.522    0.343
        46  -8.0840    161.6620     89.2844   6.9847493243e+01   3.1687164241e+01    0.1587851     0.125187 -80.86 0.0002326633    1.629    0.386
        47  -7.5245     62.6998     69.2929   9.2462817506e+01   5.5644623198e+01    0.1261507    0.1089094 -89.40 0.0002049132    1.568    0.362
        48  -9.0464    151.7787     54.9935   6.1520740237e+01   4.0152596905e+01    0.2642091    0.2180045  74.23 0.0005872735    1.318    0.241
        49  -9.2612     92.9855    217.9512   1.1209006869e+02   1.7404054210e+01    0.2033646    0.1640947 -80.54 0.0005513165    1.274    0.215
        50 -12.0224    184.4122     46.8399   5.2912035546e+01   3.3109121303e+01    0.9343107    0.7198132  42.15  0.002538003    1.405    0.288
        51  -9.7707     60.6501    233.4561   1.1977695065e+02   1.8923896227e+01     0.251392    0.1693002  81.21 0.0005257967    1.339    0.253
        52 -10.2862    163.3530    223.4445   9.8666110584e+01   5.0175103980e+00    0.4115841    0.2134287 -45.99  0.002060728    2.256    0.557
        53  -8.9201    154.0573     48.9923   5.9102942011e+01   4.0500001848e+01    0.2242781    0.2174114  85.58 0.0004280162    1.056    0.053
        54 -10.2640    158.5566    223.3333   9.9598610682e+01   5.8431470297e+00    0.3100337    0.2611256 -74.94  0.001934468    1.541    0.351
        55  -8.4649     56.3188    224.1344   1.1983121004e+02   2.1238304690e+01     0.158448    0.1167818  75.49 0.0003944365    1.119    0.106
