#   1 NUMBER                 Running object number                                     
#   2 MAG_AUTO               Kron-like elliptical aperture magnitude                    [mag]
#   3 X_IMAGE                Object position along x                                    [pixel]
#   4 Y_IMAGE                Object position along y                                    [pixel]
#   5 X_WORLD                Barycenter position along world x axis                     [deg]
#   6 Y_WORLD                Barycenter position along world y axis                     [deg]
#   7 A_WORLD                Profile RMS along major axis (world units)                 [deg]
#   8 B_WORLD                Profile RMS along minor axis (world units)                 [deg]
#   9 THETA_WORLD            Position angle (CCW/world-x)                               [deg]
#  10 FWHM_WORLD             FWHM assuming a gaussian core                              [deg]
#  11 ELONGATION             A_IMAGE/B_IMAGE                                           
#  12 ELLIPTICITY            1 - B_IMAGE/A_IMAGE                                       
         1  -8.5289    120.4673     13.1767   4.8798461063e+01   5.3029008888e+01    0.2981047   0.09707341 -35.53   0.00114213    3.269    0.694
         2  -8.5914     55.5497     10.0780   6.6552113179e+01   6.6832408748e+01    0.1994139    0.1658722  50.24 0.0007515934    1.542    0.352
         3  -8.0497     47.4484     10.2492   7.0047275039e+01   6.8119693433e+01    0.1525348     0.106931 -33.53 0.0005874399    1.608    0.378
         4  -8.3578     90.9914      8.9957   5.4204552896e+01   6.0107013207e+01    0.1824739     0.152668 -61.93 0.0004693813    1.632    0.387
         5  -7.7039     12.6437      8.7842   8.7217016706e+01   7.2597295615e+01    0.1403893     0.093063 -42.35 0.0002738069    1.587    0.370
         6  -8.5039     33.3879      4.9785   7.3954236701e+01   7.0782594814e+01    0.2678233    0.1613602 -46.80  0.001458979    2.702    0.630
         7  -8.4832     79.0677      4.1834   5.5550716321e+01   6.3034137194e+01    0.2519274    0.1470716 -40.47 0.0008205358    2.227    0.551
         8  -7.7880    115.4705      2.9778   4.6134560188e+01   5.5107566514e+01    0.1783477   0.09289595 -48.58 0.0008098559    2.581    0.612
         9  -7.7825     44.6841      3.3329   6.7772794353e+01   6.9332222750e+01    0.1000925   0.09633991 -48.15 0.0005156647    1.687    0.407
        10  -7.9415      5.3494      7.6775   9.1053998176e+01   7.3363780914e+01   0.09197125   0.08692357  31.92 0.0007048831    1.746    0.427
        11  -8.4176     62.5132      1.5799   5.9770810009e+01   6.6474040682e+01    0.1811858    0.1378915  62.84 0.0006928896    1.733    0.423
        12  -7.7101     39.2035      1.3960   6.9248469195e+01   7.0372928709e+01    0.1465151    0.1011499  41.55 0.0003511285    1.599    0.375
        13  -9.1943    120.2163    245.4417   1.0476193160e+02   7.3971045771e+00    0.3750139     0.240533  83.28  0.001588125    2.384    0.581
        14  -8.6814    249.0081    248.7795   8.0435370772e+01  -1.1901883876e+01    0.3556825    0.1674379 -18.59   0.00191175    2.304    0.566
        15  -9.2624    248.4378    242.2620   7.9476155442e+01  -1.1054588879e+01    0.2796001    0.1781774 -36.54   0.00110736    1.844    0.458
        16  -9.1567    247.9812    235.4054   7.8418233723e+01  -1.0151506951e+01    0.3181105    0.2066984 -40.23  0.001625833    1.958    0.489
        17  -8.1834    191.2830    249.6483   9.1128208661e+01  -4.1719406581e+00    0.1721205    0.1323911  54.48  0.000968519    1.792    0.442
        18  -8.4174    183.4687    249.6337   9.2638649474e+01  -3.0094417531e+00    0.2438626    0.1899732  63.91  0.001472617    1.986    0.497
        19  -9.3344    147.6501    246.8059   9.9362506230e+01   2.9200911658e+00    0.5011775    0.2929814  66.70  0.002213875    3.246    0.692
        20  -8.3126     93.8851    249.5519   1.1049535565e+02   1.0578243481e+01    0.2323137    0.1219952  65.05  0.000936259    2.281    0.562
        21  -7.6271     72.4725    250.5115   1.1476536698e+02   1.3376747550e+01    0.1192992   0.09420776  56.94 -6.206408e-06    1.025    0.025
        22  -8.5278     67.4676    244.7389   1.1525651999e+02   1.5113602441e+01    0.2047649    0.1106064 -79.49  0.001132845    2.051    0.513
        23  -8.0960     58.7315    244.9825   1.1696727012e+02   1.6201655980e+01    0.2335216   0.07567906  58.26 0.0009040282    3.576    0.720
        24  -9.1047      9.3927    243.5764   1.2593847647e+02   2.2058527797e+01    0.2771423   0.09506292  81.44  0.001302209    3.107    0.678
        25  -8.2234    201.9444    243.4730   8.8144679319e+01  -4.8729020011e+00    0.1903221    0.1702612 -46.96 0.0007778895    1.588    0.370
        26  -8.7151    169.0107    243.4719   9.4601910242e+01   1.2036880286e-01    0.1953547     0.177614 -82.60 0.0004579604    1.539    0.350
        27  -8.5619     77.9595    243.5841   1.1309168061e+02   1.3915069412e+01    0.2880874    0.1255671  61.65  0.001281207    2.707    0.631
        28  -8.7215     34.4926    244.0475   1.2146749897e+02   1.9302351605e+01     0.160726   0.09637833 -85.93  0.001024352    1.571    0.364
        29  -8.7763    214.1278    242.5490   8.5695673710e+01  -6.5031571297e+00    0.2714566    0.1963539 -25.09  0.001191768    1.429    0.300
        30  -8.9915    209.1695    239.6498   8.6166669830e+01  -5.3933930995e+00    0.2676274    0.1933253 -41.83  0.000984272    1.729    0.422
        31  -8.8512    196.0346    243.0132   8.9209254925e+01  -3.9352089514e+00    0.2395888     0.149955  26.97 0.0005188823    1.344    0.256
        32  -8.4413    193.8288    239.6077   8.9109860756e+01  -3.1114340405e+00    0.1827539    0.1750056   2.35 0.0003492534    1.312    0.238
        33  -9.4185    160.2233    240.5187   9.5953000093e+01   1.9669901798e+00    0.3635779    0.2607447 -89.04   0.00178056    2.611    0.617
        34  -8.3621     88.0847    242.4124   1.1095517846e+02   1.2714920714e+01     0.178911    0.1483413  85.32 0.0008957415    1.243    0.196
        35  -9.1983    183.1531    240.2241   9.1303067179e+01  -1.5730078407e+00    0.3343964    0.2452308  61.46  0.001776035    2.080    0.519
        36  -8.1677    153.3496    242.0686   9.7568938675e+01   2.7999125599e+00    0.1669607    0.1567565  41.41 0.0009347863    1.172    0.147
        37  -8.8558    241.2617    238.6116   8.0125336621e+01  -9.6873223637e+00    0.3905808    0.1676739 -17.32  0.001656604    3.496    0.714
        38  -8.1388    145.9958    239.7058   9.8751764233e+01   4.3569925597e+00    0.1818108    0.1411567  37.80 0.0004356309    1.074    0.069
        39  -9.0428    135.7811    238.9775   1.0076419707e+02   6.1017272058e+00    0.2615927    0.1797333  64.11  0.001281045    1.783    0.439
        40  -8.4657    129.0273    238.7663   1.0213733380e+02   7.2044961885e+00    0.2118382    0.1636285  86.13 0.0009101086    1.666    0.400
        41  -9.3829    230.8253    236.8696   8.1699964950e+01  -8.0712877390e+00    0.2907372    0.1942124 -44.77  0.001194972    2.078    0.519
        42  -8.5919     25.9181    237.7405   1.2267632915e+02   2.1465502374e+01    0.2327203    0.1027761  69.26   0.00123505    2.119    0.528
        43  -9.2597    186.4569    230.6944   8.9160257278e+01  -6.2194452385e-01    0.3196858    0.2544283 -82.48  0.001258288    2.285    0.562
        44  -8.1246     58.1625    237.3221   1.1647768860e+02   1.7745564542e+01    0.1829638   0.08177523  45.50 0.0008529137    1.790    0.441
        45  -9.9525    214.8762    233.2595   8.4049264703e+01  -5.3285908722e+00    0.4620683    0.3602392 -88.43  0.002322692    3.488    0.713
        46  -8.9228    203.2531    234.7738   8.6514006103e+01  -3.8256753413e+00    0.2771803    0.2081553 -58.40  0.001229684    2.169    0.539
        47  -9.8101    175.9491    233.8020   9.1764531070e+01   5.5203435130e-01    0.4450319    0.2599894 -58.74  0.002160494    2.709    0.631
        48  -8.3715    170.1719    235.8980   9.3254969566e+01   1.1349206092e+00    0.1851694     0.162715  50.96 0.0006180316    1.312    0.238
        49  -9.4585    109.1406    234.6550   1.0578545645e+02   1.1049941757e+01    0.5184118    0.2485753  55.28  0.001590606    2.261    0.558
        50  -8.5292     99.6495    234.3776   1.0774040743e+02   1.2541356403e+01    0.2950726    0.1712394  79.35  0.001125606    2.494    0.599
        51  -9.1907     78.6122    234.5033   1.1211178959e+02   1.5563724380e+01    0.2655708    0.1626862  73.41  0.001209139    1.762    0.432
        52  -8.1926    123.0226    234.0723   1.0279695998e+02   8.9965631055e+00    0.2085822     0.139733  64.83 0.0006689262    1.749    0.428
        53  -9.9830     68.0561    231.6959   1.1401087726e+02   1.7561333035e+01    0.5331817    0.2928775  87.15  0.002421758    2.138    0.532
        54  -8.2826    194.5150    232.3746   8.7829775887e+01  -2.1391857314e+00    0.1975501      0.12436 -43.69 0.0006535629    1.880    0.468
        55  -7.6426    164.3012    233.3223   9.4069897825e+01   2.4947729424e+00    0.1293835   0.09373664   4.50 0.0004425958    1.630    0.386
        56  -8.8264    144.5511    233.0421   9.8133434003e+01   5.7353243569e+00    0.3497571    0.1674789  60.70  0.001150704    4.804    0.792
        57  -8.5484    139.9674    230.2898   9.8713878402e+01   6.9665046168e+00    0.2596536    0.1797963  66.41 0.0006449809    1.882    0.469
        58  -8.3348    132.8020    233.0340   1.0060188756e+02   7.6293749544e+00    0.2042096    0.1576845  59.67  0.001174688    1.361    0.265
        59  -9.0679    236.0454    230.4433   7.9683121591e+01  -7.9326089595e+00    0.3550339    0.1520377 -35.64 0.0008317204    2.343    0.573
        60  -8.0658    157.7873    231.9928   9.5219511996e+01   3.7709501019e+00    0.1932392    0.1486846  80.60  0.000869618    1.990    0.497
        61  -8.7926     92.2246    231.7435   1.0900592781e+02   1.4151548004e+01     0.244078    0.1634164  67.74 0.0009165583    1.536    0.349
        62  -9.1377      1.7794    230.9706   1.2672006488e+02   2.5205537257e+01    0.2099844    0.1067423  72.69 0.0009307214    1.570    0.363
        63  -9.0419    151.4713    228.9791   9.6097243662e+01   5.3209444786e+00    0.2749863    0.2140333  87.63  0.001218539    1.886    0.470
        64  -9.2894    148.6783    224.6656   9.6051747989e+01   6.5477908351e+00    0.3233693    0.2455032  79.75  0.001133878    1.898    0.473
        65  -8.7087    162.3268    228.2017   9.3706021615e+01   3.6762553122e+00    0.3110299    0.2101118  60.75  0.001250382    2.029    0.507
        66  -8.9566    127.8400    227.1742   1.0087047787e+02   9.5055280863e+00    0.3106592    0.2175812  68.96  0.001085111    1.770    0.435
        67  -8.1632    120.1701    227.7623   1.0259379106e+02   1.0626374015e+01    0.2274997    0.1505137 -80.67 0.0007505945    2.072    0.517
        68  -9.5231    246.7464    228.3182   7.7431074262e+01  -9.0863161951e+00    0.4765975    0.1995703 -26.82  0.002145244    2.431    0.589
        69  -8.2235    223.5296    226.8207   8.1348700200e+01  -5.6769419167e+00    0.2233126    0.1101938 -31.21 0.0007964156    2.056    0.514
        70  -8.8950    206.0254    226.2694   8.4575398499e+01  -2.9898958814e+00    0.2352364    0.1740115 -45.48 0.0008459827    1.709    0.415
        71  -8.2466     49.2210    226.7433   1.1741977049e+02   2.0976087910e+01     0.266505    0.1275485  62.67  0.001346634    2.019    0.505
        72  -7.8061    200.2123    226.4225   8.5734227035e+01  -2.1167427900e+00    0.1699854    0.1088716  41.43 0.0003945172    1.571    0.363
        73  -9.0211     94.0139    224.2505   1.0779280039e+02   1.5369279993e+01    0.4149312    0.1993611  61.69  0.001754798    2.661    0.624
        74  -8.8306    180.6093    224.4713   8.9340171960e+01   1.3129469909e+00    0.2806838    0.2093918  60.16  0.001061455    1.869    0.465
        75  -9.1534    104.7056    223.7404   1.0542178835e+02   1.3841692054e+01    0.3399365    0.2218118  78.85  0.001575636    1.958    0.489
        76  -8.1470     38.6089    225.2814   1.1943739372e+02   2.2535145805e+01    0.2045231    0.1038768  64.51  0.001102033    1.796    0.443
        77  -8.9001    216.4256    223.4042   8.2095324053e+01  -4.1398695170e+00    0.2474923    0.2093311 -47.95 0.0009118872    1.649    0.394
        78  -8.4401    173.1371    223.0679   9.0651834752e+01   2.7707809247e+00    0.2345133    0.1750036 -65.49 0.0006550916    1.972    0.493
        79  -9.2664    192.4813    221.3832   8.6423456227e+01  -1.0657341893e-01    0.2873243    0.2506425 -84.07 0.0008858254    1.819    0.450
        80  -8.9664    159.2087    220.7665   9.3212059078e+01   5.4891786597e+00    0.3450225    0.2202469  60.76   0.00100184    2.212    0.548
        81  -8.0252    140.1759    222.7328   9.7591068469e+01   8.3121475940e+00    0.2205733    0.1457343  52.99 0.0008320005    1.557    0.358
        82  -9.2036    239.2872    221.1991   7.7509955880e+01  -7.1272574618e+00    0.3556192    0.2237937 -26.85  0.001630323    1.483    0.325
        83  -9.1670    225.5540    221.7244   8.0095161260e+01  -5.2459496253e+00    0.2250629    0.2038649  29.19  0.001055395    1.399    0.285
        84  -8.8200      8.0568    222.1517   1.2515602913e+02   2.6374276994e+01    0.2453476   0.07173286  30.74  0.001107645    3.537    0.717
        85  -9.4382    120.2044    218.8608   1.0139965401e+02   1.2343757070e+01    0.4385528    0.3273304 -89.78  0.001740883    1.674    0.403
        86  -8.8728     82.7733    220.7010   1.0982211214e+02   1.7744949027e+01    0.3052158    0.1521978  61.46  0.001361562    2.274    0.560
        87  -8.2255     73.4577    220.9601   1.1185287035e+02   1.9007835574e+01    0.1822765   0.09551807  79.53 0.0008089865    2.549    0.608
        88  -8.0124    202.8598    220.2083   8.4162770563e+01  -1.5726173844e+00    0.1808153    0.1661456  27.19 0.0005502719    1.261    0.207
        89  -8.5307    248.7868    218.2812   7.5329665620e+01  -8.0275883001e+00    0.3219792    0.2057738  55.49   0.00156953    3.468    0.712
        90  -8.2739    210.1224    218.9670   8.2533674138e+01  -2.5155178055e+00    0.1765536     0.166584   0.83 0.0005261585    1.278    0.218
        91  -9.4569    132.8895    216.0931   9.8208412022e+01   1.0789313890e+01     0.477935     0.298901  76.39   0.00204738    2.804    0.643
        92  -8.1847    112.1465    217.7294   1.0302578143e+02   1.3870519845e+01    0.2300838    0.1237525  65.44 0.0009408551    2.737    0.635
        93  -8.9877     51.3828    217.2686   1.1619119384e+02   2.2677665521e+01    0.2868429    0.1835377  86.62 0.0008633502    1.498    0.333
        94  -7.8086    179.2831    217.6501   8.8487787828e+01   2.6703790612e+00    0.1239842    0.1056524  71.45 0.0007016949    1.652    0.395
        95  -8.6917    169.3451    216.1136   9.0312274459e+01   4.6052572377e+00    0.2727248     0.217753 -86.86 0.0008467176    1.953    0.488
        96  -8.5833    143.0014    216.6482   9.6070039543e+01   8.9794977230e+00    0.2754993    0.1994853  79.84   0.00118363    2.042    0.510
        97  -8.4626     61.7404    216.9213   1.1396345181e+02   2.1432762984e+01    0.2358686    0.1465646  79.09  0.001043978    1.643    0.391
        98  -8.3506    154.6440    215.3390   9.3332475812e+01   7.2453528659e+00    0.2165128    0.1718149 -69.01  0.001064632    1.640    0.390
        99  -7.9628     18.5143    215.9763   1.2280094763e+02   2.6627294136e+01    0.1768286   0.09631368 -83.39  0.001039714    1.614    0.380
       100  -8.9526    232.3367    214.0864   7.7500988187e+01  -5.1347849350e+00    0.3583213     0.199325 -31.83  0.001450782    1.726    0.421
       101  -8.3910    185.6423    214.1160   8.6575098288e+01   2.2093400471e+00    0.2513449    0.1673744 -54.43  0.001065692    2.001    0.500
       102  -9.0650     93.5595    214.3903   1.0672819641e+02   1.7460103112e+01    0.4297377    0.1933684  56.03  0.001773677    2.519    0.603
       103  -9.4662     73.2302    212.1012   1.1097792825e+02   2.0908191825e+01    0.6503962    0.2338168  58.29  0.002197147    4.046    0.753
       104  -9.3175    213.7826    212.1837   8.0631215307e+01  -2.0409163774e+00    0.2921593    0.2841166  67.84  0.001373529    1.497    0.332
       105  -8.6051    197.0872    212.7826   8.4017786002e+01   5.3957355526e-01    0.2319068    0.1782023 -10.86 0.0006321926    1.314    0.239
       106  -8.6441    161.5483    212.4394   9.1370359501e+01   6.5959341722e+00     0.242404    0.2062311  65.14 0.0006736792    1.428    0.299
       107  -8.0484    106.4822    212.9661   1.0365691570e+02   1.5746699480e+01    0.1818733    0.1117329  83.56 0.0008079428    2.391    0.582
       108  -7.3987    242.6706    212.2504   7.5320730955e+01  -6.3537194709e+00    0.1031279   0.09613502  35.41 0.0002754182    1.549    0.355
       109  -9.2348    204.2331    210.8938   8.2260672158e+01  -3.1636753652e-01    0.2430682    0.2005743 -36.72 0.0005961292    1.357    0.263
       110  -9.3083    175.5852    210.1716   8.7991375475e+01   4.5931378172e+00     0.404203    0.2742313  65.24  0.001480807    2.414    0.586
       111  -9.2132    116.5768    210.6984   1.0107250835e+02   1.4580606657e+01     0.420904    0.2525448  71.08  0.001570472    2.471    0.595
       112  -9.3041      6.8870    209.8533   1.2473296560e+02   2.9020826903e+01    0.4658838    0.1385371  72.64  0.001652239    4.715    0.788
       113  -8.3885    192.4460    210.7801   8.4602355608e+01   1.6371575077e+00    0.2326033    0.1919322 -68.73 0.0009446083    1.833    0.454
       114  -8.8872    148.1029    210.6637   9.4013981765e+01   9.2471397562e+00    0.2761382    0.2095735  76.28  0.001256295    1.824    0.452
       115  -8.3428     32.9964    211.2121   1.1954665027e+02   2.6116004128e+01    0.2802714   0.08808781  53.85  0.001160411    2.983    0.665
       116  -8.4815     85.5302    209.5243   1.0794007880e+02   1.9695712307e+01    0.3077425    0.1645318  67.53  0.001342784    2.394    0.582
       117 -10.0406    227.5661    216.2132   7.8754330041e+01  -4.7440598765e+00    0.2221521    0.1919177  11.35 0.0003211806    1.162    0.140
       118  -9.3646    246.3466    207.2761   7.3775208898e+01  -6.1668544426e+00    0.2455061    0.1874972 -27.01 0.0005667718    1.271    0.213
       119  -9.5454    249.9103    201.4870   7.2095530322e+01  -5.8424141843e+00      0.51863    0.2079867 -41.52  0.002348589    2.641    0.621
       120  -9.0011    245.4667    193.3200   7.1328494747e+01  -4.0015425546e+00    0.2650456     0.220001 -51.02   0.00106347    1.697    0.411
       121  -8.0778    156.4741    207.9294   9.1725635622e+01   8.3146180210e+00    0.1904433     0.139585 -51.00 0.0005838488    1.548    0.354
       122  -8.3108    139.0056    208.0041   9.5613933920e+01   1.1336065650e+01     0.214669    0.1607396  69.04 0.0005439358    1.658    0.397
       123  -9.6740    194.9075    203.3288   8.2763943878e+01   2.4856355778e+00    0.4915966    0.3672168 -62.24  0.002475698    2.002    0.501
       124  -9.2467    192.4811    197.4788   8.2180925039e+01   3.9183359895e+00    0.3421177    0.2713913 -48.13  0.001181364    1.471    0.320
       125  -9.1970     99.2374    205.9533   1.0437002060e+02   1.8371297541e+01    0.3904463    0.2482236  85.95  0.001339726    2.073    0.518
       126  -8.5327     56.3076    205.3135   1.1402748989e+02   2.4641797752e+01    0.3284619    0.1799191  69.79  0.001399049    1.948    0.487
       127  -8.3438     11.5435    206.5121   1.2361834534e+02   2.9300066115e+01    0.1178414   0.08923138  76.19 0.0001866016    1.007    0.007
       128  -9.0304    183.8579    204.0435   8.5174084050e+01   4.2544115953e+00    0.3059004    0.2476094  73.56 0.0009019407    1.865    0.464
       129  -8.5921    131.2693    204.0456   9.6740797535e+01   1.3468078038e+01    0.3054103    0.2057732  73.13 0.0008608599    2.112    0.527
       130  -8.2406    109.0570    205.3197   1.0202661812e+02   1.6934677070e+01    0.1988129    0.1603979  51.85 0.0006028207    1.122    0.108
       131  -7.8868     92.3936    205.1873   1.0584107267e+02   1.9598881625e+01    0.1851435    0.1236805 -83.34 0.0007276216    1.710    0.415
       132  -9.0703    236.7028    208.5824   7.5717136345e+01  -4.9717112014e+00     0.281207    0.2419061 -57.86  0.001189263    1.866    0.464
       133  -8.5519    223.2726    202.7793   7.7112624034e+01  -2.0636265955e+00    0.4535175    0.3023885  67.07  0.001865477    4.044    0.753
       134  -9.6429    163.7320    202.9556   8.9288513936e+01   7.9799274826e+00    0.3972818    0.3134558  68.65  0.001197206    1.685    0.407
       135  -8.5087    211.0892    202.2114   7.9334860746e+01  -2.3924369979e-02    0.2209189    0.1775063 -67.38 0.0007322665    2.040    0.510
       136  -9.8010    124.3096    206.2839   9.8672687425e+01   1.4197996311e+01    0.3322248    0.2227062  69.48  0.001586293    1.936    0.483
       137  -9.2076    243.1662    200.9855   7.3170399090e+01  -4.8016071149e+00    0.3124553    0.1891981 -40.17   0.00104753    1.747    0.428
       138  -8.9724    140.3551    200.8820   9.4159141932e+01   1.2527342301e+01    0.3902192    0.2614033  86.38  0.001424188    2.587    0.614
       139  -8.6681     79.9818    201.2044   1.0820433561e+02   2.2327406612e+01    0.3278044    0.1880069  75.08  0.001482631    2.215    0.549
       140  -7.4742     73.2909    202.6222   1.0991161229e+02   2.2967850729e+01    0.1433226   0.08837132  69.76 0.0007019955    1.737    0.424
       141  -8.5772     48.2149    202.0450   1.1550990475e+02   2.6367774172e+01     0.221099    0.1169838  73.87  0.001065326    2.051    0.513
       142  -9.3605    237.1245    198.8705   7.3844620602e+01  -3.5914186190e+00    0.3007593    0.1854697 -41.33  0.001074797    1.748    0.428
       143  -9.5139    149.5111    198.4144   9.1664641243e+01   1.1396618471e+01    0.4673078    0.3175108 -77.01  0.001509116    2.323    0.570
       144  -8.9102    123.9367    199.3046   9.7686099215e+01   1.5716992770e+01    0.3462784     0.232969  71.82  0.001255136    1.993    0.498
       145  -9.3277    112.7965    198.5505   1.0017330234e+02   1.7767550087e+01     0.483202    0.2752705  63.73  0.001726055    2.347    0.574
       146  -9.0789     88.6659    198.6344   1.0585577551e+02   2.1607803649e+01    0.3554287     0.227486  79.41  0.001682558    1.897    0.473
       147  -8.2912    176.9700    199.1640   8.5749119542e+01   6.3409503685e+00    0.2032333    0.1836573  60.13 0.0005754709    1.327    0.247
       148  -8.0613    202.3316    197.9692   8.0272142739e+01   2.1407219795e+00    0.2217651    0.1890151  60.80 0.0008356203    1.602    0.376
       149  -9.2814     61.5332    197.1437   1.1200081223e+02   2.5792257322e+01    0.4528919    0.2197168  65.22  0.001614357    2.481    0.597
       150  -8.6285    215.8242    195.5532   7.7167780810e+01   2.8872016956e-01    0.2380733    0.1702316 -52.10 0.0007361579    1.853    0.460
       151  -8.1948    133.0525    196.0210   9.5036043654e+01   1.4818700370e+01    0.2237823    0.1663262  71.21 0.0006842009    1.674    0.403
       152  -9.2592     12.5240    197.1795   1.2283837232e+02   3.1228844720e+01     0.331521    0.1213011  81.22  0.001373083    3.167    0.684
       153  -8.7272    224.5461    194.2092   7.5259745435e+01  -9.1059872309e-01    0.2817708     0.198295 -53.52  0.001378363    2.007    0.502
       154  -8.8789    185.2131    194.7358   8.3181500984e+01   5.6879214922e+00    0.2739212    0.2361698 -58.40 0.0006980501    1.448    0.310
       155  -9.0408    160.8938    194.2171   8.8365305604e+01   1.0173026003e+01         0.33    0.2625371  82.35 0.0009506994    1.787    0.440
       156  -8.9267     43.7469    193.5031   1.1570970872e+02   2.8819447817e+01    0.4139779    0.1958484  73.65   0.00179961    2.574    0.612
       157  -8.3392    230.8130    194.3668   7.4133039280e+01  -1.9290687319e+00    0.1766133    0.1487646 -21.35 0.0007207931    1.149    0.129
       158  -8.7953     77.0288    193.9650   1.0800187698e+02   2.4382783441e+01    0.2469545    0.1927953  71.96 0.0005739668    1.219    0.179
       159  -8.6110    241.0463    192.1030   7.1867468651e+01  -3.1556420077e+00    0.2315172    0.1594884  16.02  0.001124436    1.442    0.306
       160  -8.1051    205.0357    191.6963   7.8539995971e+01   2.7534312769e+00    0.2215509    0.1410176 -37.59 0.0006177848    1.576    0.366
       161  -8.2248    198.9495    191.9085   7.9804072135e+01   3.7715020548e+00    0.1956525    0.1742598 -88.84 0.0006307798    1.637    0.389
       162  -8.5659    172.5087    191.9259   8.5379546595e+01   8.5012453060e+00    0.2625184    0.2199803  69.63  0.001397023    1.550    0.355
       163  -9.1973    139.5918    190.7013   9.2607136932e+01   1.4765210811e+01    0.4119827     0.289062  86.16  0.001294162    2.218    0.549
       164 -10.4304     92.0684    188.7418   1.0368595371e+02   2.3316356377e+01     0.992175    0.2974813  48.54  0.003079948    3.704    0.730
       165  -8.8029     21.0316    191.0153   1.2058315443e+02   3.1798310618e+01    0.3256665    0.1288493  63.56  0.001427011    2.721    0.633
       166  -8.9375    216.6132    188.1308   7.5586364090e+01   1.3890388578e+00    0.3139234    0.2143688 -48.76 0.0009557377    1.763    0.433
       167  -8.8065    148.6306    189.4505   9.0287338999e+01   1.3376282236e+01    0.2744148    0.2152274  89.44  0.001045242    1.747    0.427
       168  -8.0254    237.1211    188.6912   7.1906022104e+01  -2.0258806840e+00     0.212371    0.1576525 -35.76 0.0005673756    1.351    0.260
       169  -9.2020    155.9675    187.6322   8.8272341635e+01   1.2394292405e+01    0.3609524     0.231385 -60.36  0.000810979    1.956    0.489
       170  -8.9824    129.3072    188.5803   9.4665852532e+01   1.7069236447e+01     0.294313     0.230246  74.41 0.0007698637    1.525    0.344
       171  -9.7128    120.8394    186.6822   9.6375268074e+01   1.8985788274e+01    0.5553624    0.3156015 -75.94  0.002156573    2.790    0.642
       172  -8.7560     34.1028    187.9580   1.1739948044e+02   3.1163771300e+01    0.3578933    0.1765101  78.86  0.001466242    2.232    0.552
       173  -8.1824    230.6968    187.5734   7.2845733349e+01  -8.3398514181e-01     0.211088    0.1552552 -50.68 0.0007347195    1.765    0.433
       174  -8.9542    191.4174    187.2635   8.0454842996e+01   5.9407327832e+00    0.3280383    0.2368974 -73.37  0.001275657    2.465    0.594
       175  -8.5962    187.0795    187.6151   8.1431641755e+01   6.6605196722e+00    0.2138816    0.1919658 -47.88  0.001222507    1.277    0.217
       176  -9.1230     54.6749    186.9475   1.1248950151e+02   2.9012822290e+01    0.4247706    0.2176889  73.85  0.001661624    2.441    0.590
       177  -8.7149    164.9266    186.8325   8.6098289081e+01   1.0890673542e+01    0.2753062    0.2304231 -83.51 0.0009480853    1.601    0.376
       178  -9.2701    109.5951    186.2509   9.9034952344e+01   2.1023736647e+01    0.3877131    0.2605609  71.08  0.001246076    1.862    0.463
       179  -9.0465    249.1772    185.5901   6.9213249828e+01  -3.3878239785e+00    0.2410018    0.2242066  53.30  0.000940485    1.563    0.360
       180  -8.7948    182.9342    185.1868   8.1839930084e+01   7.8724458308e+00    0.2828946    0.2046617 -60.19 0.0006352513    1.826    0.453
       181  -8.8295    210.1250    184.3901   7.6109125795e+01   3.1362462631e+00    0.2458067    0.1873277 -40.44 0.0005459895    1.373    0.272
       182  -9.1105     66.5459    184.5482   1.0934652931e+02   2.8026787215e+01    0.3727949    0.2183728  67.25  0.001205541    1.907    0.476
       183  -8.5585    224.1679    183.7537   7.3299622542e+01   8.5458393734e-01    0.2256649    0.1656501 -40.53 0.0006098984    1.424    0.298
       184  -8.2114    196.9673    183.9249   7.8654142694e+01   5.5484202185e+00    0.2062849    0.1780454  87.19 0.0008030222    1.705    0.413
       185  -9.2376    174.1271    183.5325   8.3425509332e+01   9.8245839712e+00    0.3312255    0.2777723 -47.43  0.001206911    1.297    0.229
       186  -8.1530      2.0550    183.8301   1.2421715592e+02   3.5081761868e+01    0.1992254    0.1124054  44.35  0.001201998    1.699    0.412
       187  -9.0561     44.3428    182.2258   1.1444753206e+02   3.1357870499e+01     0.363352    0.2119993  78.52  0.001176934    1.794    0.443
       188  -8.2562    235.3442    182.0962   7.0935674338e+01  -7.0104727108e-01    0.1834304    0.1108123 -43.94 0.0005546389    1.779    0.438
       189  -9.1539    147.5191    180.6005   8.8915237869e+01   1.5434270081e+01     0.351858    0.2715358  84.90  0.001145277    1.791    0.442
       190  -9.6766     25.4817    178.8434   1.1858505820e+02   3.4153540629e+01    0.6732021    0.2590631  78.25  0.002419079    3.906    0.744
       191  -8.0157    240.4710    180.0437   6.9627179616e+01  -1.1897914948e+00    0.1978695    0.1149733 -34.03 0.0006926721    1.559    0.358
       192  -8.8029    202.8254    184.7204   7.7622798388e+01   4.3592951996e+00     0.264289    0.1891148 -51.11  0.000750359    1.680    0.405
       193  -8.5492    137.7690    179.4082   9.1009381826e+01   1.7517024330e+01    0.2818981    0.2244376  80.67 0.0009824603    1.575    0.365
       194  -9.0907    204.9439    177.9342   7.5843031936e+01   5.1917275481e+00    0.2857147    0.1919109 -29.31 0.0009696665    1.478    0.324
       195  -9.3584    191.5046    178.3598   7.8674017713e+01   7.5728770679e+00    0.2860584    0.2605703  80.09 0.0006815422    1.435    0.303
       196  -8.2923    169.2923    178.6835   8.3545542797e+01   1.1696543647e+01    0.2564138    0.1783843 -56.30 0.0008188547    1.697    0.411
       197  -8.9381     36.0289    176.8443   1.1589359714e+02   3.3546759336e+01    0.5382607    0.2155088  77.00  0.001791334    4.372    0.771
       198  -9.6195    248.4244    176.4501   6.7556685277e+01  -1.8676137375e+00    0.4168695    0.2653621 -48.58  0.002200834    1.925    0.481
       199  -8.7686    250.4979    172.9089   6.6510290805e+01  -1.6355910142e+00    0.2356311    0.1657044 -35.56 0.0005199439    1.311    0.237
       200  -8.6706    231.0434    176.9245   7.0679639782e+01   8.4117180942e-01    0.2820462    0.1806375 -43.58 0.0008414377    1.640    0.390
       201  -8.5956    217.3281    177.3046   7.3300610179e+01   3.1085600002e+00    0.2347015    0.2193885 -69.44 0.0007006841    1.434    0.303
       202  -8.7874    129.1309    177.3817   9.2731284845e+01   1.9562433334e+01    0.2992555    0.2168624  78.41 0.0007824309    1.863    0.463
       203  -8.3102     97.3028    177.6912   1.0071826322e+02   2.5040174581e+01    0.2670728    0.1770825  10.92  0.000976176    2.359    0.576
       204  -8.9343    183.0181    176.0799   8.0012564073e+01   9.5992529752e+00    0.3115308    0.2514217 -65.21 0.0008131067    1.605    0.377
       205  -8.8482     88.9328    176.8284   1.0270020537e+02   2.6580736407e+01    0.2954833    0.2094678  82.33 0.0009955679    1.619    0.382
       206  -9.9066     57.4370    173.5297   1.1023028870e+02   3.1841204081e+01    0.8389571    0.3808252  78.22  0.002719443    4.311    0.768
       207  -9.1152     12.7154    176.6058   1.2135528369e+02   3.5840300260e+01    0.2815372      0.12318  67.78  0.001310434    2.411    0.585
       208  -9.2115    158.9178    175.1974   8.5212705150e+01   1.4398330133e+01    0.3506884    0.2731664  84.72  0.001069635    1.836    0.455
       209  -9.5124    104.4161    174.6122   9.8413446173e+01   2.4577948466e+01    0.6032203    0.3507743  66.49  0.002363842    2.434    0.589
       210 -10.8150     75.9280    170.5427   1.0508748778e+02   3.0047027215e+01     1.254547    0.4891461 -76.39  0.003722831    4.568    0.781
       211  -8.6245     79.2159    158.5813   1.0234884872e+02   3.2478865028e+01    0.3906721    0.1488691  28.93  0.001344506    3.210    0.688
       212  -8.3542    224.3225    174.1011   7.1338474251e+01   2.4477963252e+00    0.1971397     0.158914 -30.62 0.0009328629    1.173    0.147
       213  -9.4617    175.9176    172.4562   8.0820848618e+01   1.1671128186e+01    0.3256842    0.2847463 -62.49  0.001061552    1.347    0.258
       214  -8.2938    143.0088    172.9479   8.8523332815e+01   1.7937252867e+01    0.2350729    0.1812918  75.24  0.000606781    1.677    0.404
       215  -8.6607    134.7569    171.8702   9.0321162219e+01   1.9743824419e+01    0.2666672     0.210263 -80.41 0.0008150784    1.559    0.359
       216  -9.6918    121.3725    170.6636   9.3422382696e+01   2.2505530998e+01    0.4350852    0.3125558 -76.47  0.001266873    1.709    0.415
       217  -9.2658     45.0513    171.1204   1.1306038361e+02   3.3914385698e+01    0.3742711    0.2056213  81.08  0.001116261    2.089    0.521
       218  -8.4598    205.7099    170.3953   7.4146783154e+01   6.4153721686e+00    0.2521517    0.1625589 -48.81 0.0006637709    1.733    0.423
       219  -8.4154    198.5879    170.2817   7.5556906453e+01   7.7611193717e+00    0.2491256     0.215683 -84.81 0.0007441218    1.620    0.383
       220  -8.4979    244.6149    169.5191   6.6817969297e+01  -1.7088109134e-01    0.2446552    0.1459322 -38.02 0.0006151295    1.536    0.349
       221  -8.4496    237.1713    169.6898   6.8131687499e+01   1.0163159788e+00    0.2251842    0.1650599 -41.56 0.0006151908    1.393    0.282
       222  -8.9884    230.2570    169.1102   6.9238499267e+01   2.2758197943e+00     0.384982    0.1962194 -44.23  0.001750025    2.015    0.504
       223  -9.2009    167.2569    168.7420   8.1995297465e+01   1.4113825641e+01    0.4023491    0.2773024  71.99  0.001136488    2.335    0.572
       224  -8.6194    149.8280    169.5963   8.6227470931e+01   1.7349273318e+01    0.2784156    0.2033219 -73.30 0.0007594978    1.840    0.456
       225  -8.4842    218.8343    168.3215   7.1177560467e+01   4.4049971814e+00    0.2311149    0.1776972 -43.41 0.0005930124    1.361    0.265
       226  -8.3079    211.4987    168.4945   7.2615537825e+01   5.6975072597e+00    0.2419958    0.1271529 -49.28 0.0006936619    2.225    0.550
       227  -8.7347    111.9288    167.7914   9.5297887535e+01   2.4873414557e+01     0.410129    0.2725893  87.70  0.001722039    2.198    0.545
       228  -8.5788     88.4970    168.5299   1.0150629335e+02   2.8630176257e+01    0.2391312    0.1379761 -75.46 0.0006441398    2.058    0.514
       229  -9.1456    192.0167    166.8418   7.6194354463e+01   9.6607969621e+00    0.3474776    0.2272679 -53.21 0.0008684024    1.804    0.446
       230  -9.0482    185.0055    166.5648   7.7620238115e+01   1.1072496422e+01    0.2738455    0.2014197 -57.51 0.0007283438    1.645    0.392
       231 -10.0507     95.0727    163.1332   9.8869265238e+01   2.8872353326e+01    0.8372999    0.4412906  72.99  0.002581266    4.227    0.763
       232  -9.3172     20.3580    165.8398   1.1864715956e+02   3.7688749943e+01    0.4286171    0.1953188  75.87  0.001635508    2.560    0.609
       233  -8.3692     13.0068    167.0933   1.2053471827e+02   3.8025823385e+01    0.2098295    0.1161926  68.33  0.001123937    1.754    0.430
       234  -9.8391    136.8188    164.5604   8.8378459061e+01   2.0987733886e+01    0.6565371    0.3213331  56.06  0.002279575    2.817    0.645
       235  -8.2834    234.0115    164.8589   6.7697870997e+01   2.3497640165e+00    0.1937075    0.1741869 -41.57 0.0006147008    1.257    0.205
       236  -8.6385    159.4259    164.3330   8.2883004042e+01   1.6586993902e+01    0.2935497    0.2441207  84.81 0.0008892498    1.552    0.356
       237  -8.4830     56.6416    164.0858   1.0920886700e+02   3.4231805443e+01    0.3138943    0.2323578  -9.85  0.001600569    2.044    0.511
       238  -9.3874     33.2641    163.3615   1.1517557716e+02   3.7054645526e+01    0.4980389    0.2130955  59.13  0.002004158    2.794    0.642
       239  -8.9473    246.0229    163.1542   6.5293704982e+01   6.2703820487e-01    0.3140749    0.1681186 -41.91 0.0004608635    1.780    0.438
       240  -9.4383    243.4622    159.5185   6.4976746795e+01   1.6419756421e+00    0.4762553    0.2467506  20.15  0.001567396    3.323    0.699
       241  -9.7889    250.1887    157.8383   6.3526896889e+01   8.0705772565e-01    0.3525554    0.1864972 -40.14 0.0008355387    1.708    0.415
       242  -8.6145    246.7150    155.6739   6.3647150204e+01   1.7300676928e+00    0.2269215    0.1420161 -19.64 0.0002901139    1.682    0.405
       243  -8.7218    239.9133    164.1473   6.6527483208e+01   1.4725293632e+00    0.1934512    0.1767637 -44.66 0.0007092429    1.297    0.229
       244  -8.6275    212.9615    163.6618   7.1320632554e+01   6.2981633806e+00    0.2594471    0.1931121 -43.59 0.0005873922    1.375    0.273
       245  -8.5226    204.7914    162.8636   7.2747906300e+01   7.9711293529e+00    0.2469378    0.1903884 -56.74 0.0005016922    1.583    0.368
       246  -9.5141      3.3962    162.3817   1.2245622464e+02   3.9874990722e+01    0.3914083    0.1697984  53.39  0.001763036    2.287    0.563
       247  -9.0385    177.5610    160.9102   7.8035591063e+01   1.3671154330e+01     0.291402    0.2372606 -69.45 0.0008310141    1.563    0.360
       248  -8.9048    151.5904    161.1136   8.4063117973e+01   1.8843926982e+01     0.318657    0.2502194 -85.03 0.0008010255    1.715    0.417
       249  -8.8610     60.5277    160.1547   1.0763341092e+02   3.4700746035e+01    0.3851602    0.2159519  73.58  0.001625665    2.372    0.578
       250  -8.7580    227.4491    158.9714   6.7638159434e+01   4.4976417102e+00     0.340109    0.2066452 -51.64  0.001207841    1.995    0.499
       251  -8.6563    237.1427    158.8554   6.5910748286e+01   2.8213804171e+00    0.2028347    0.1755085 -43.01 0.0006839683    1.255    0.203
       252  -8.7729    196.4691    157.9657   7.3375243259e+01   1.0498907062e+01    0.2846962    0.2327805 -65.91 0.0007531993    1.564    0.360
       253  -8.3555    128.2148    159.0909   8.9440057400e+01   2.3892397441e+01    0.2915215    0.1909687  64.87 0.0008244531    2.015    0.504
       254  -9.7141    105.8925    157.4332   9.4950300902e+01   2.8401593651e+01    0.5954592      0.39895 -65.58   0.00145998    1.594    0.373
       255  -8.6387    218.0210    156.8247   6.8909026064e+01   6.5906837297e+00    0.2997617    0.1917879 -47.70 0.0007826182    1.667    0.400
       256  -8.3800    188.1603    157.7841   7.5067197568e+01   1.2177598184e+01    0.2578824    0.1953476 -50.49 0.0006456405    1.424    0.298
       257  -9.1995    167.5984    157.4367   7.9522166684e+01   1.6398401234e+01    0.3392501    0.2776872 -88.37   0.00113976    1.640    0.390
       258  -9.1904    157.6302    156.1943   8.1572367409e+01   1.8692814802e+01    0.3249084    0.2548326 -79.71 0.0008410042    1.705    0.414
       259  -8.8632    144.9364    155.4768   8.4484634628e+01   2.1422907312e+01     0.399342    0.2866511  78.10  0.001427984    2.056    0.514
       260  -9.4629    119.5047    155.1718   9.0900752194e+01   2.6460823280e+01    0.4993322    0.3134302 -75.88  0.001502226    2.299    0.565
       261  -9.5181     81.8072    154.9615   1.0103189476e+02   3.2977657501e+01    0.5320737    0.3261245  72.34  0.001635267    2.241    0.554
       262  -9.4894     49.7801    155.5222   1.0988063462e+02   3.7169281764e+01    0.4577398    0.2290089  63.25  0.001533365    2.591    0.614
       263  -9.1447     23.3676    155.8750   1.1692164833e+02   3.9804843380e+01    0.3288043    0.1451163 -54.26  0.001529975    2.204    0.546
       264  -9.1678     20.0472    152.2744   1.1741353584e+02   4.0963089667e+01    0.2418926    0.1316014  56.97 0.0009337896    1.926    0.481
       265  -8.1852    237.2012    150.4051   6.4128687055e+01   4.2377032791e+00    0.1798231    0.1537394 -50.75 0.0003504337    1.318    0.241
       266  -8.6015    242.8582    155.0891   6.4161801255e+01   2.4742191962e+00    0.2150756    0.1934964 -79.40 0.0005485468    1.544    0.352
       267  -8.1539    239.7783    153.0557   6.4252243529e+01   3.3405948622e+00    0.1935416    0.1544463 -28.98 0.0004442154    1.101    0.092
       268  -7.8285    204.5479    155.4849   7.1209600493e+01   9.3935087580e+00    0.1435206    0.1350508 -19.74 0.0001531484    1.052    0.049
       269  -9.5906    132.8607    153.0466   8.6997497471e+01   2.4381903275e+01    0.4746479    0.3489398  73.64  0.001325047    1.796    0.443
       270  -9.4087    133.5917    148.1938   8.5764512976e+01   2.5353435503e+01    0.3509378    0.2299189 -37.80  0.001215919    1.671    0.402
       271  -9.7278     68.1063    153.9567   1.0463775099e+02   3.5219364610e+01    0.4339364    0.2677794  67.77  0.001314326    1.983    0.496
       272  -8.2985    232.9498    154.0163   6.5620991670e+01   4.3732903489e+00    0.2058347    0.1668727 -68.51  0.000588671    1.738    0.425
       273  -8.6918     60.4307    153.0437   1.0661373605e+02   3.6470670034e+01    0.2158805    0.1272484 -67.25 0.0006298865    1.580    0.367
       274  -8.6450      9.0443    153.5050   1.2035308138e+02   4.1545513741e+01    0.1608509     0.122941  26.80  0.001030541    1.588    0.370
       275  -8.7758     98.2728    150.8279   9.5747740845e+01   3.1323857285e+01    0.3403302    0.2311079 -84.86  0.001069097    1.915    0.478
       276  -9.7590     29.2649    150.6979   1.1480410477e+02   4.0521890978e+01    0.5154884    0.2450049  73.47   0.00213035    2.815    0.645
       277  -9.2688      3.0227    150.7884   1.2163782248e+02   4.2618503157e+01    0.3147969    0.1435146 -80.95  0.001542942    1.819    0.450
       278  -9.5665    248.7754    149.4285   6.2021944092e+01   2.4076113433e+00    0.3374512    0.1948053 -38.59 0.0008382782    1.524    0.344
       279  -9.7407    243.2314    149.9445   6.3026940040e+01   3.2652293495e+00     0.363041    0.3004698 -69.77  0.002080695    1.686    0.407
       280  -9.3386    241.0235    137.3177   6.0707469571e+01   5.7768120314e+00    0.2695874     0.178656 -37.88 0.0008414841    1.331    0.249
       281  -9.0022    240.2358    145.2604   6.2531736695e+01   4.5734635239e+00    0.2351269    0.1613835 -40.83 0.0005682446    1.342    0.255
       282  -9.1351    243.1305    141.8419   6.1334163709e+01   4.6381553794e+00    0.4287847    0.1644434 -34.69  0.001702511    2.410    0.585
       283  -8.8398    189.3386    150.1817   7.3141847029e+01   1.3440937914e+01    0.3129549    0.2436788 -64.86 0.0007825404    1.622    0.384
       284  -8.3659    182.2305    151.2112   7.4888779856e+01   1.4688142845e+01    0.2031216    0.1802896 -76.34 0.0005216475    1.363    0.266
       285  -8.6016    162.7141    150.8622   7.9203719269e+01   1.8793949626e+01    0.2811249    0.2136395 -65.48 0.0009200269    1.606    0.377
       286  -8.1889    213.0704    149.8677   6.8333486821e+01   8.7881499334e+00    0.2059229     0.188205 -60.28 0.0003582009    1.273    0.215
       287  -8.4657    198.7881    149.0288   7.0938643153e+01   1.1755222114e+01    0.2193706    0.1958299 -58.96 0.0005826172    1.268    0.211
       288 -10.2776     89.2109    146.3315   9.7405379562e+01   3.3938796651e+01    0.7093819    0.4089938 -89.89  0.002509079    3.129    0.680
       289  -9.8494     39.4904    147.6614   1.1164300840e+02   4.0253322874e+01    0.5253913    0.2795461  71.13  0.001791566    2.419    0.587
       290  -8.3353     40.3430    141.3092   1.1053835733e+02   4.1737090132e+01    0.1375827   0.09413033 -39.11 0.0007044543    1.696    0.410
       291  -9.2514    233.2916    147.6142   6.4200602898e+01   5.4123378980e+00    0.2699021    0.1661434 -36.70 0.0008386999    1.461    0.316
       292  -8.9790     78.2840    147.0974   1.0063334674e+02   3.5457611053e+01    0.3716475    0.2257725  84.86  0.000963784    2.433    0.589
       293 -10.9300     54.9726    143.2461   1.0663813487e+02   3.9596014475e+01     1.067523     0.596954 -74.60  0.003343483    1.809    0.447
       294  -8.4407    223.4061    146.7925   6.5756679757e+01   7.3773404875e+00    0.2441168     0.160563 -31.19  0.000653087    1.432    0.302
       295  -8.2603    206.9008    146.6794   6.8811198908e+01   1.0584386624e+01    0.2482372    0.1784725 -51.59 0.0006599944    1.521    0.343
       296  -8.4739    175.5655    146.3427   7.5253876598e+01   1.7064283314e+01    0.2577476    0.2199279 -73.59 0.0006587555    1.422    0.297
       297 -10.2999    148.8622    144.9270   8.1189057722e+01   2.2971002569e+01    0.5797169    0.4080838 -87.34  0.001621995    2.305    0.566
       298 -10.2166    138.9543    144.8910   8.3660832828e+01   2.5025006299e+01    0.7145334    0.3674721 -62.97  0.001157093    2.865    0.651
       299  -9.2232    139.8035    137.4148   8.1731831891e+01   2.6549142032e+01    0.3909844     0.242581  31.50   0.00160143    1.815    0.449
       300  -9.3566     13.3991    146.4296   1.1857001010e+02   4.2907879815e+01    0.3550994    0.1771551  57.88  0.001205624    2.180    0.541
       301  -9.0632    165.4684    144.1556   7.7044713186e+01   1.9648282910e+01     0.304419    0.2639625 -87.79 0.0006437364    1.402    0.287
       302  -9.9302    125.0281    142.2575   8.6696387191e+01   2.8436140556e+01    0.7285004    0.4352129 -66.73  0.002349911    2.207    0.547
       303 -10.9187     69.4006    141.4300   1.0216871281e+02   3.8157856544e+01    0.7349411     0.445526 -66.65   0.00249079    1.598    0.374
       304  -8.9368    246.9664    143.7409   6.1121809906e+01   3.6526012309e+00    0.2446177    0.1693281 -39.15 0.0005119511    1.290    0.225
       305  -7.5602    218.2909    144.6293   6.6210125372e+01   8.7383263925e+00     0.142648    0.1104414 -66.14 0.0005908789    1.720    0.418
       306  -7.7296    194.2810    143.6846   7.0651561774e+01   1.3706611607e+01    0.1441209    0.1188991 -75.12 0.0002816118    1.575    0.365
       307  -9.7472      2.6545    141.7149   1.2095702707e+02   4.4791011034e+01    0.4152011    0.1938426  77.49   0.00156722    2.331    0.571
       308 -10.3195    106.6627    144.1620   9.2095235958e+01   3.1465905375e+01    0.8390097    0.5369286  88.37  0.002218735    2.609    0.617
       309  -8.0829    250.5108    140.9807   5.9986721765e+01   3.4989768618e+00    0.2016712    0.1143628 -37.21 0.0006051131    1.520    0.342
       310  -8.4838    182.1097    141.7359   7.2763452851e+01   1.6631926317e+01    0.2624536    0.2020439 -53.89 0.0005787461    1.404    0.288
       311  -9.9104     23.3894    138.0686   1.1492642554e+02   4.4135981125e+01    0.5701371    0.2820166  73.26  0.002196631    2.645    0.622
       312  -7.9230    218.7864    138.8298   6.4834192492e+01   9.6935784954e+00    0.1892919    0.1627554 -58.30 0.0004339698    1.311    0.237
       313  -8.6556    172.2374    138.3123   7.4141309195e+01   1.9437733373e+01    0.3080841    0.2377799 -72.73 0.0007865116    1.696    0.410
       314  -8.2239    207.6711    138.1607   6.6747348698e+01   1.2029215867e+01    0.2318992    0.1766514 -59.55 0.0008385489    1.555    0.357
       315  -8.6718    197.6965    137.6440   6.8577235747e+01   1.4175117622e+01    0.2925227    0.1883469 -49.31 0.0007250831    1.621    0.383
       316  -8.5943    162.6665    136.3330   7.5871006590e+01   2.1916900394e+01     0.279332    0.1881485 -55.28 0.0006313602    1.641    0.391
       317  -8.9716    250.7276    130.1098   5.7661331266e+01   5.2503615513e+00    0.5382646    0.1252493 -36.31  0.001679887    3.949    0.747
       318  -8.7753    248.3531    135.0403   5.9067713906e+01   4.8534074384e+00    0.2929463     0.185683 -37.30 0.0006188542    1.364    0.267
       319  -8.7105    246.9755    130.4830   5.8308573674e+01   5.8553287530e+00    0.2599306    0.1696567 -42.47 0.0006231334    1.374    0.272
       320  -8.2832    188.0184    135.9610   7.0164972776e+01   1.6541252822e+01    0.2347958    0.1852962 -74.34 0.0005419922    1.668    0.400
       321  -8.8339    151.4817    135.7644   7.8416978746e+01   2.4446782390e+01    0.3391476    0.1900466  31.56   0.00128401    2.139    0.533
       322 -10.4166     83.4374    132.9286   9.6419874201e+01   3.8179307861e+01    0.6059084    0.3483704 -70.14  0.001459142    2.029    0.507
       323  -9.1761     38.9868    136.0386   1.1017632839e+02   4.3185247922e+01    0.2636029    0.1778827  70.72  0.000795204    1.656    0.396
       324  -8.7994    179.8202    134.2610   7.1509541620e+01   1.8640833856e+01    0.2654018    0.2075167 -55.23 0.0009245679    1.379    0.275
       325  -8.5622    237.4466    133.6978   6.0503543263e+01   7.0467622208e+00    0.2625009    0.1182737 -41.57 0.0009680973    1.992    0.498
       326  -8.1906    231.5606    134.2208   6.1588640949e+01   8.0568710896e+00    0.1913892    0.1233818 -27.44 0.0003913129    1.539    0.350
       327  -9.0406    112.7622    133.2567   8.8016040322e+01   3.2953087375e+01    0.3585889    0.2627414  85.64  0.001054629    1.887    0.470
       328  -9.1916    143.0598    131.6610   7.9536154885e+01   2.7159757229e+01    0.3736302    0.2648531 -70.78 0.0007850092    1.866    0.464
       329 -10.0129    132.1725    131.4099   8.2296831046e+01   2.9509007487e+01    0.5901217    0.4226244 -88.68  0.001165426    2.112    0.526
       330  -9.3267    134.4656    124.8547   8.0095448051e+01   3.0523265958e+01    0.4561129    0.2050534  32.68  0.001471142    2.929    0.659
       331 -10.4048     98.1061    130.2544   9.1528209286e+01   3.6375574606e+01    0.7788038    0.3047138 -55.70  0.001630142    2.576    0.612
       332  -8.7334     98.8389    120.7855   8.9130913758e+01   3.8531792817e+01    0.5394864    0.3172258   9.67  0.001790444    3.506    0.715
       333 -10.0247     73.3758    129.4860   9.8739273157e+01   4.0565948520e+01    0.4708413    0.2913681 -82.98  0.001398833    2.169    0.539
       334 -10.1351     12.6737    128.5269   1.1685449511e+02   4.7285537866e+01    0.6255209    0.2773408 -86.89  0.002760263    2.407    0.584
       335  -7.6407    220.5075    130.4102   6.2636372989e+01   1.0877294745e+01    0.1409413    0.1310025 -30.41 0.0001334505    1.022    0.022
       336  -7.9932    204.6682    130.3884   6.5533891626e+01   1.4111234127e+01    0.2158511    0.1721061 -74.60 0.0005976031    1.631    0.387
       337  -8.1520    192.8629    130.2256   6.7817327321e+01   1.6639739690e+01    0.2232098    0.2012427 -67.32 0.0004999989    1.230    0.187
       338  -9.2393    168.3475    129.5649   7.2932008832e+01   2.2113547154e+01    0.3139378    0.2533692 -74.08 0.0009160197    1.532    0.347
       339  -9.2906    152.9503    129.0151   7.6430409710e+01   2.5609580796e+01    0.4272512    0.2867319 -67.07 0.0009412601    2.016    0.504
       340  -8.4565     25.5162    130.1689   1.1331048586e+02   4.5893351154e+01    0.2340629    0.1445924 -20.00  0.001159161    2.342    0.573
       341  -8.0204      2.0086    130.4970   1.2008706566e+02   4.7500935229e+01     0.168746   0.07582602  50.56 0.0008100529    2.506    0.601
       342  -7.9049    211.4193    129.1958   6.3993139006e+01   1.2936791741e+01    0.2120134    0.1275468 -49.68 0.0006637995    1.736    0.424
       343 -10.7394     59.8340    125.0250   1.0202656434e+02   4.3534411671e+01    0.7937337    0.4540481  85.24  0.002528764    2.917    0.657
       344  -8.5472     59.1459    115.4446   1.0034600130e+02   4.5990922146e+01    0.3585627    0.2133999 -10.94  0.001418175    2.944    0.660
       345 -10.7403     44.9205    123.6339   1.0642101866e+02   4.5643083294e+01     1.109746    0.5668924  76.26  0.003906492    3.795    0.736
       346  -9.9886    117.9111    125.4929   8.4750523781e+01   3.3785816612e+01     0.531204    0.3693205  84.87  0.001462245    2.275    0.560
       347  -7.8814    228.5011    125.5189   6.0167592327e+01   1.0170128499e+01    0.1413072    0.1267636 -42.38 0.0008094313    1.069    0.065
       348  -8.9592    179.2478    124.5811   6.9300630723e+01   2.0732933719e+01    0.2946759    0.2467634 -69.73 0.0005374479    1.386    0.278
       349 -10.2894     28.2964    122.3702   1.1137687594e+02   4.7571047463e+01    0.7230065    0.3521238  74.73  0.002773725    3.411    0.707
       350  -9.1291     27.8403    113.6770   1.1018098623e+02   4.9737660301e+01    0.3589727    0.1680788  18.72  0.001640839    2.627    0.619
       351  -8.9930    192.0690    134.5067   6.8986768046e+01   1.5968889834e+01    0.3575491    0.1984723 -43.73 0.0009065667    1.757    0.431
       352  -7.7298    188.5168    124.0128   6.7215553466e+01   1.8802411456e+01    0.2117246      0.12773 -61.92 0.0004991143    2.351    0.575
       353  -8.6499     84.8814    122.9240   9.3844157374e+01   4.0409439159e+01    0.4423897    0.2695189   6.84   0.00165044    2.921    0.658
       354  -9.0821    158.7893    121.5897   7.3180660854e+01   2.5919203666e+01    0.4417572    0.3119727 -64.22  0.001317604    1.754    0.430
       355  -7.9819    153.8610    123.2095   7.4770387326e+01   2.6669394845e+01    0.2191741    0.1870047   8.99 0.0005448199    1.355    0.262
       356  -7.8926    203.1342    122.1552   6.3890918020e+01   1.5990723469e+01    0.2054368    0.1675582 -58.87 0.0004928716    1.328    0.247
       357  -7.9773    195.0373    122.2644   6.5481386688e+01   1.7718067728e+01    0.2234686     0.156525 -58.71 0.0005166482    1.659    0.397
       358  -8.7685    172.0457    121.5631   7.0129947534e+01   2.2953644500e+01    0.2893619    0.2109039 -57.77 0.0005612102    1.532    0.347
       359 -10.0098    130.8918    118.8111   7.9526865459e+01   3.2648770186e+01    0.5670587    0.3830784  80.78  0.002009548    2.511    0.602
       360  -9.4722     71.0226    119.7935   9.7464210382e+01   4.3304500861e+01    0.3541605    0.2357899 -78.95 0.0008890622    1.831    0.454
       361 -10.1979    141.5328    117.8778   7.6493755889e+01   3.0554820601e+01     0.709434    0.3426616 -48.68  0.001628519    2.125    0.529
       362  -9.6406      2.9464    117.3364   1.1843548705e+02   5.0584762228e+01    0.4853308    0.2317636  73.48  0.002222531    2.684    0.627
       363  -7.8341    231.4892    117.5125   5.7882231901e+01   1.0979539416e+01    0.1415156    0.1243037 -49.00 5.737466e-05    1.103    0.094
       364  -8.3490    185.6934    116.0623   6.5844748154e+01   2.0992267174e+01    0.2460477    0.1802264 -56.43 0.0006154708    1.487    0.327
       365 -10.0125    109.2824    114.2470   8.4426802483e+01   3.8114604897e+01    0.5515763    0.3814338 -81.00  0.001291934    2.187    0.543
       366  -9.1652    108.8235    107.8041   8.2887414913e+01   3.9689665746e+01    0.4512582    0.2805876  16.08  0.001694527    2.538    0.606
       367  -7.9951    193.1469    115.2724   6.4153836472e+01   1.9479986625e+01    0.2064171    0.1704088 -65.18 0.0005030124    1.350    0.259
       368 -10.0680     79.1167    112.5966   9.3279024178e+01   4.3839848137e+01    0.6459683    0.4166309 -85.14  0.001804989    2.434    0.589
       369  -8.8718     78.3749    105.3937   9.1776977255e+01   4.5678961176e+01    0.3811631    0.2409221  14.51  0.001632308    2.145    0.534
       370  -8.3688    167.3173    114.2014   6.9327860962e+01   2.5533952517e+01    0.2463756    0.1950496 -26.09 0.0007748464    1.372    0.271
       371  -9.9964    121.9324    112.6381   8.0387379187e+01   3.5930542549e+01    0.3652454    0.3018922 -89.77 0.0008204706    1.498    0.333
       372 -10.0835     92.7688    112.6233   8.8992434595e+01   4.1561232564e+01    0.5169456    0.3759556 -77.49  0.001224913    1.762    0.433
       373  -8.9189     92.8628    105.2330   8.7084942768e+01   4.3281358167e+01    0.4910496     0.297276  14.36  0.001874672    2.599    0.615
       374  -9.9463     14.0344    111.1156   1.1422383776e+02   5.1398358462e+01    0.4249779    0.2293214  74.62  0.001403909    2.453    0.592
       375  -8.3901    174.9595    112.0035   6.7079476213e+01   2.4231065827e+01     0.235599    0.2193449 -67.50 0.0004825426    1.117    0.105
       376  -8.5999    159.1280    111.6887   7.0561533848e+01   2.7924428772e+01    0.2682896    0.2103807 -55.04 0.0004728056    1.343    0.255
       377 -10.1074    133.3244    109.1498   7.6350854243e+01   3.4271074165e+01    0.5586528    0.3473945 -46.16  0.001543135    1.610    0.379
       378 -10.1749     66.4449    110.0164   9.6790649499e+01   4.6341384142e+01    0.6065311    0.3442854 -60.12  0.002411803    1.691    0.409
       379  -9.0033     42.5334    109.6544   1.0465193713e+02   4.9336889926e+01     0.320571    0.1726582  -0.05  0.001299953    3.113    0.679
       380 -10.7017    248.9034    108.2895   5.3242788691e+01   9.1734631481e+00    0.4925135    0.2457194 -40.95  0.002319782    1.712    0.416
       381  -9.6207    139.8448    104.4547   7.3372755582e+01   3.3834178740e+01     0.562259    0.2740285 -49.67  0.001390644    2.188    0.543
       382 -10.1630    119.0058    105.9714   7.9438856167e+01   3.8037386463e+01    0.3730659    0.2914836 -33.48  0.001060417    1.337    0.252
       383 -10.7975    109.3933     99.2215   8.0383903433e+01   4.1506402634e+01    0.8818009    0.4945189  65.11  0.002769139    3.336    0.700
       384  -9.0514    108.4412     92.3786   7.8722989856e+01   4.3191112377e+01     0.516476      0.27016  27.29  0.001837428    2.692    0.629
       385  -9.5516    150.7841    103.3593   7.0337023936e+01   3.1567515813e+01    0.5227559    0.3366532 -70.77  0.001552604    2.450    0.592
       386 -10.5854     45.8220    102.6645   1.0213139216e+02   5.0679418750e+01    0.7956465    0.4559599  70.86  0.003151094    3.191    0.687
       387  -8.9126     45.4875     92.9662   1.0011010525e+02   5.3019830439e+01    0.4890903    0.2396262   8.82  0.001920352    3.222    0.690
       388 -10.6852     22.9606    102.7066   1.0998383453e+02   5.2782066807e+01    0.7476475    0.4008804  72.54  0.002752002    2.991    0.666
       389  -8.6836    166.7592    104.3909   6.6897668939e+01   2.7647034468e+01    0.2970228    0.2320344 -67.80 0.0007395178    1.505    0.336
       390  -9.8264    128.3593    102.3126   7.5829676877e+01   3.6842314784e+01    0.3337932    0.2861537 -61.13 0.0007804854    1.253    0.202
       391  -9.3173      6.6129    102.8675   1.1547702626e+02   5.3818886385e+01     0.272051    0.1771947  61.93  0.001011654    1.845    0.458
       392  -7.7445    175.5386    102.4558   6.4487425213e+01   2.5978641434e+01    0.1540258    0.1474438 -70.85 0.0001802342    1.055    0.052
       393  -9.3085     82.2110    100.0962   8.9166087502e+01   4.6302297515e+01    0.4153609    0.2926052 -82.73 0.0009307509    2.100    0.524
       394  -8.3364    159.8071    101.1029   6.7592304858e+01   2.9928599835e+01    0.2404282    0.2069604 -67.31 0.0005064416    1.268    0.211
       395 -10.4786     64.2094     94.7309   9.3882472153e+01   5.0284651132e+01     1.119753    0.4769289 -51.62  0.003009926    2.107    0.525
       396  -9.2224     95.1279     97.1232   8.4188440303e+01   4.4726152277e+01    0.3427962    0.2531099 -68.79 0.0006999582    1.673    0.402
       397  -8.4129    151.0083     95.5086   6.8124501097e+01   3.3109665038e+01    0.3122664    0.1980008  -0.19  0.001028849    3.371    0.703
       398  -8.2852    189.1272    107.7462   6.3075054744e+01   2.1824453260e+01    0.2747489     0.188754 -47.69 0.0007798927    1.440    0.306
       399  -7.3792    188.6954     94.2959   5.9730223425e+01   2.4439990290e+01    0.1520754    0.1157787 -74.24 0.0003233273    1.582    0.368
       400  -8.1449    164.8678     94.1222   6.4557853618e+01   3.0107018968e+01    0.2387566    0.2033978 -70.00 0.0004687897    1.291    0.225
       401  -9.2330    139.1396     92.5734   7.0234122283e+01   3.6458317846e+01     0.442289    0.3148851  87.93  0.001103234    2.164    0.538
       402 -10.3512    123.6215     91.4646   7.4057358127e+01   4.0176601680e+01    0.6388623     0.436457  28.05  0.001250682    1.713    0.416
       403  -8.2519    176.2236     93.2057   6.1901629868e+01   2.7581977872e+01    0.2145263    0.1746936 -67.71 0.0004872309    1.358    0.264
       404  -9.5596      5.1768     92.1100   1.1440110496e+02   5.6419236086e+01    0.3425247    0.2143982  66.69  0.001362631    2.052    0.513
       405  -8.1538    157.8625     92.0656   6.5561473569e+01   3.2169327334e+01    0.2364195    0.2072755 -68.08 0.0004477332    1.228    0.186
       406  -9.5233     34.8272     89.9330   1.0330987760e+02   5.4808097763e+01    0.4240004    0.2612862  89.29  0.001615893    2.457    0.593
       407  -9.1640     22.8450     90.1454   1.0774236108e+02   5.5764687197e+01    0.2802286    0.2188533 -24.81  0.001007184    1.348    0.258
       408  -8.1714    150.8640     89.1760   6.6377075586e+01   3.4390443582e+01    0.2343692    0.2094632 -77.20 0.0004878059    1.225    0.184
       409 -10.1386     86.6019     86.1960   8.3845074165e+01   4.8678299013e+01    0.6709976    0.4199048 -54.85  0.001495468    1.710    0.415
       410  -7.5429    188.4594     87.4599   5.8000639093e+01   2.5730296420e+01    0.1509586    0.1400283 -69.67 0.0001137823    1.062    0.059
       411  -7.9133    163.7923     87.0395   6.2841848341e+01   3.1708464206e+01    0.2046027    0.1223887 -39.77 0.0004738149    1.672    0.402
       412 -10.1044     99.3097     86.1814   7.9713009932e+01   4.6327026972e+01    0.2563322    0.2415737  12.26 0.0002569083    1.051    0.049
       413  -9.7679     48.7115     83.9977   9.6736910431e+01   5.4725849688e+01    0.6236135    0.3999496 -76.73  0.002275046    2.152    0.535
       414  -7.4984    196.3051     86.6605   5.6378689410e+01   2.4028023049e+01    0.1554347    0.1105308 -69.07 0.0003040565    1.678    0.404
       415  -9.9693    104.7474     83.2111   7.7122064184e+01   4.5870434982e+01    0.4618175    0.3130183 -62.82   0.00101656    1.936    0.483
       416  -8.4323    158.0346     84.0081   6.3258105684e+01   3.3658966438e+01    0.2305552    0.2223325 -60.40 0.0003755791    1.042    0.040
       417  -9.1584    141.0443     83.0825   6.6996124256e+01   3.7883466086e+01    0.3422628    0.2433775 -55.37 0.0005865601    1.577    0.366
       418  -8.7386    127.5379     83.9466   7.0758265489e+01   4.0829636146e+01    0.3253269     0.189654  17.20  0.001034472    3.570    0.720
       419  -8.3456     63.9053     82.3398   9.0665008672e+01   5.3138602725e+01    0.2405507    0.1820751 -59.04 0.0006074491    1.387    0.279
       420  -7.9839    185.2988     82.6648   5.7326687172e+01   2.7329699572e+01    0.1562106    0.1129929 -70.15 0.0007032809    1.654    0.395
       421  -9.7453     24.6288     80.4545   1.0506991927e+02   5.7863168183e+01    0.4333469    0.2641198 -88.97    0.0014378    2.409    0.585
       422  -9.3698      9.8149     81.0470   1.1085628500e+02   5.8717969077e+01    0.3113342    0.1903429  60.21  0.001276005    2.324    0.570
       423  -8.9004    250.0000     80.9426   4.7167269768e+01   1.3322959212e+01    0.2216126   0.06572677 -36.80 0.0006796935    2.937    0.660
       424  -8.4553    150.2283     80.5446   6.4041703906e+01   3.6178892309e+01    0.3125988    0.1876062 -53.70 0.0009499436    1.931    0.482
       425  -8.7889    119.2703     80.5167   7.2005624506e+01   4.3346706246e+01    0.3086465    0.2355668 -59.75 0.0007265317    1.538    0.350
       426  -8.7893     74.7460     80.7235   8.6300276320e+01   5.1855416828e+01    0.2784794     0.192125 -58.56  0.000745138    1.614    0.380
       427  -8.4593    166.8557     79.7206   6.0147216998e+01   3.2305874207e+01    0.2476733    0.2058511 -25.58 0.0004498874    1.309    0.236
       428  -7.8142    183.8634     78.2040   5.6405006254e+01   2.8449262107e+01    0.1977659     0.177131  -0.57 0.0004808149    1.320    0.243
       429  -9.6199    128.2539     75.6177   6.8028635793e+01   4.2270400342e+01    0.4352222    0.2826813 -60.80 0.0009300186    2.057    0.514
       430  -7.7533    156.9814     76.4864   6.1335086386e+01   3.5285026640e+01    0.2018046    0.1346555  85.36 0.0003943205    2.209    0.547
       431  -8.6699    140.3703     75.1244   6.4785695194e+01   3.9530222845e+01    0.3179302    0.2170045 -56.75 0.0009782834    1.725    0.420
       432  -9.9931     63.1529     73.7354   8.8421760147e+01   5.5107294401e+01     0.472374    0.2810099 -60.54  0.001059879    2.025    0.506
       433  -9.6816     82.4526     72.8166   8.1155630282e+01   5.2215751128e+01    0.4117736    0.2984438 -70.29  0.001163584    2.035    0.508
       434  -8.3181    163.4426     73.5978   5.9123547011e+01   3.4216511807e+01    0.2842798    0.1394401 -42.85  0.001106444    2.053    0.513
       435  -7.9426    151.5322     73.4669   6.1664897923e+01   3.7145154105e+01    0.1511696    0.1464171  78.24 0.0003600764    1.027    0.027
       436  -8.8082    115.5945     72.8553   7.0657198814e+01   4.5629151359e+01    0.2585915    0.1828432 -45.38 0.0007079067    1.475    0.322
       437  -9.5136    105.8833     71.6850   7.3152411851e+01   4.7926798381e+01    0.3431649    0.2135173 -52.34 0.0007132979    1.868    0.465
       438  -8.4706     42.7306     72.8442   9.6064868033e+01   5.7876765747e+01    0.2418416    0.1804934 -72.41  0.001000782    1.645    0.392
       439  -7.6829    175.4928     72.5342   5.6429537769e+01   3.1448417100e+01    0.1481726    0.1428615  89.23 0.0001077877    1.011    0.011
       440  -9.1581     95.0844     71.1385   7.6371058326e+01   5.0209875190e+01    0.3428308    0.2261783 -55.26 0.0009732544    1.820    0.451
       441  -9.4457     51.3760     69.6256   9.1712569224e+01   5.7556957460e+01     0.402092    0.2389605 -66.53  0.001350881    2.310    0.567
       442  -9.2098     29.8836     70.1148   1.0050943255e+02   5.9734182118e+01    0.4676833     0.218322 -16.90  0.001816554    3.554    0.719
       443  -9.1255     16.8495     70.3332   1.0588930078e+02   6.0691022921e+01    0.2569436    0.1635753 -79.98 0.0008628439    1.912    0.477
       444  -9.0118    147.0947     68.2390   6.1109409335e+01   3.9133273083e+01    0.4376265    0.2376196 -44.53 0.0009723354    1.925    0.481
       445  -8.3099    146.7738     58.9914   5.8356965948e+01   4.0744892902e+01    0.2174631     0.135534 -46.65 0.0005046726    1.720    0.419
       446  -8.5088    138.4286     66.1967   6.2518610011e+01   4.1573567143e+01      0.28041     0.215361 -71.33 0.0009951964    1.648    0.393
       447  -8.9548    121.4772     65.9684   6.6796495126e+01   4.5574710870e+01    0.2971465    0.2337892 -62.57  0.000873599    1.553    0.356
       448  -9.0350     83.5621     65.5816   7.8397703535e+01   5.3445145866e+01    0.4765576    0.2747981  -2.59  0.001608049    3.810    0.738
       449  -8.7872     64.9201     63.0422   8.4346659087e+01   5.7033172690e+01    0.4996791    0.2916326  -1.12  0.002004086    2.873    0.652
       450  -9.0356     37.3675     64.5098   9.5877673918e+01   6.0225569397e+01    0.2465881    0.2143873 -85.44 0.0008280696    1.531    0.347
       451  -7.8966    156.9919     69.9334   5.9423772403e+01   3.6427670796e+01    0.1880402      0.16257 -38.97 0.0007262457    1.187    0.157
       452  -8.8936    110.2212     63.7831   6.9257447729e+01   4.8461248559e+01    0.2830404    0.2482031 -75.78 0.0007929496    1.416    0.294
       453  -8.2376    158.2422     61.9955   5.6824479339e+01   3.7438627417e+01    0.2010314    0.1890941 -49.97 0.0003325449    1.092    0.084
       454  -8.1893     51.5006     62.4810   8.9446119305e+01   5.9018784792e+01    0.2291287    0.1249205  14.26  0.001020901    2.334    0.572
       455  -9.7341     73.3746     59.5307   7.9972533352e+01   5.6363712248e+01    0.4113863    0.2575671 -52.70  0.001033069    1.878    0.467
       456  -7.3223    164.6468     60.2978   5.5050474041e+01   3.6123734851e+01    0.1548291    0.1123474 -77.37 0.0007035388    1.693    0.409
       457  -9.5112     97.8220     60.7659   7.2016023091e+01   5.1601029639e+01    0.3274577    0.3059498  83.27 0.0009695158    1.308    0.236
       458  -9.8762     23.3722     56.3658   9.9529622973e+01   6.3198254875e+01    0.4496655    0.2957614  89.19  0.001873934    2.905    0.656
       459  -8.2547    130.9319     57.9567   6.1735616911e+01   4.4736117442e+01    0.2293727     0.180148 -76.20 0.0006023247    1.645    0.392
       460  -9.5727      7.3922     57.0606   1.0679036547e+02   6.4118958946e+01    0.2849206    0.2025245  88.66  0.001193566    1.949    0.487
       461  -8.8062    139.9319     55.9893   5.8958034465e+01   4.2889849704e+01    0.2550228    0.1992424 -43.24 0.0005089351    1.347    0.258
       462  -9.4644    118.9876     55.2615   6.3928098687e+01   4.7955596020e+01    0.4371938       0.2257 -44.89   0.00139189    2.155    0.536
       463  -9.1982     54.1132     55.1022   8.5921469458e+01   6.0126174610e+01    0.2903244    0.2117324 -58.50   0.00103027    1.704    0.413
       464  -8.9601     44.1104     55.2265   9.0137685952e+01   6.1373416528e+01    0.3352889     0.195948 -58.64  0.001123619    2.047    0.511
       465  -8.6487    105.9151     53.4147   6.6978726563e+01   5.1162611256e+01    0.2649533    0.1992995 -54.06 0.0008072528    1.620    0.383
       466  -9.4954     92.4034     50.6008   7.0159762919e+01   5.4436131712e+01    0.3911084     0.234948 -46.56  0.001149309    1.914    0.477
       467  -8.7665     92.7848     43.0333   6.7236882912e+01   5.5556646670e+01    0.3325087    0.1989139 -17.29  0.001506346    2.045    0.511
       468  -8.3895     74.6354     51.6964   7.6711206024e+01   5.7571398995e+01    0.2193164     0.152026  -1.62   0.00100884    1.713    0.416
       469  -8.6282    144.5820     49.0266   5.5727924075e+01   4.2810994817e+01    0.2150216     0.143888 -32.50 0.0006250817    1.592    0.372
       470  -8.2977    129.8316     49.1671   5.9121868798e+01   4.6369457499e+01    0.2140389    0.1979008 -86.24 0.0004643899    1.194    0.162
       471  -8.7056    120.9587     47.6685   6.0826348436e+01   4.8683943010e+01    0.2347233    0.2049097 -26.21 0.0005863894    1.207    0.172
       472  -8.4395    112.2116     46.9475   6.2905195161e+01   5.0792323190e+01    0.2087789    0.1919444 -64.03  0.000572807    1.277    0.217
       473  -9.0292     82.1443     46.4991   7.2089489062e+01   5.7095354202e+01     0.278972    0.2335282 -43.87 0.0006830751    1.363    0.266
       474  -9.1616    133.1465     43.9600   5.6619198144e+01   4.6331034885e+01    0.3954079    0.2593956 -66.50  0.001735689    2.204    0.546
       475  -8.7090     44.9521     44.6403   8.6051794860e+01   6.3268302224e+01    0.2346816     0.172941 -45.23 0.0007270028    1.394    0.283
       476  -9.1077     16.4879     44.5775   9.9167808656e+01   6.6092080895e+01    0.2513468    0.1767765 -60.28  0.001095404    1.514    0.340
       477  -9.2146     69.8046     41.8268   7.4775912346e+01   6.0062195604e+01    0.3703807    0.2740836 -64.29  0.001512665    2.254    0.556
       478  -9.1214     58.3456     42.9758   7.9738542398e+01   6.1712747943e+01    0.2823752    0.2141389 -54.88 0.0009998097    1.749    0.428
       479  -9.3822      5.2640     42.2321   1.0388639093e+02   6.7259932820e+01    0.2677414     0.190027 -77.60  0.001339857    1.857    0.462
       480  -8.8122    106.0083     41.4440   6.2666584527e+01   5.2984415703e+01    0.2533374    0.1922646 -50.08 0.0006194253    1.584    0.368
       481  -8.7466     36.7978     40.9117   8.8327723859e+01   6.4909501025e+01    0.2082337    0.1680447 -55.11 0.0007230914    1.544    0.352
       482  -8.7813     95.4351     38.0676   6.4528695534e+01   5.5739227738e+01    0.2733876    0.1980703 -50.07 0.0008978147    1.737    0.424
       483  -8.3068     80.6469     36.5851   6.8772293629e+01   5.8910777002e+01    0.2433468    0.1608023 -35.36 0.0006747575    1.576    0.366
       484  -9.3334     26.3465     35.6701   9.1326426760e+01   6.6937011326e+01    0.2651957    0.2037054 -63.53 0.0009311309    1.824    0.452
       485  -8.3658    133.3986     36.1900   5.3983232879e+01   4.7322803452e+01    0.1925541    0.1289007 -43.21 0.0004836516    1.643    0.391
       486  -8.1933    125.9998     35.6904   5.5477181479e+01   4.9169493679e+01    0.1962553    0.1665579  54.42 0.0003821668    1.088    0.081
       487  -8.7118    111.8150     34.7586   5.8643903028e+01   5.2603556537e+01    0.2589072    0.1868161 -43.70 0.0006022444    1.584    0.369
       488  -7.8943     88.5292     34.5104   6.5321160662e+01   5.7660084875e+01     0.134719     0.123214  21.51 9.915138e-05    1.066    0.062
       489  -8.9599     48.4701     33.3344   8.0068571338e+01   6.4734685988e+01     0.236844    0.2125667 -37.43 0.0006747399    1.375    0.273
       490  -8.2619    119.0843     33.0940   5.6212256188e+01   5.1138548466e+01    0.2093476    0.1662502 -70.32  0.000594723    1.624    0.384
       491  -8.7930     60.5218     32.6888   7.4714157231e+01   6.3027828074e+01    0.2306705    0.2003969 -65.90 0.0006332124    1.798    0.444
       492  -7.9965    139.2335     31.7576   5.1300665159e+01   4.6455790182e+01     0.226817    0.1418922  31.10  0.001029199    1.946    0.486
       493  -8.8177     12.9423     30.2366   9.6102635351e+01   6.9043638464e+01    0.2580259    0.1562657 -61.60  0.001341939    2.063    0.515
       494  -8.7913    101.6425     29.5616   5.9458275586e+01   5.5546249235e+01    0.2129889    0.1582341 -49.50 0.0007338495    1.681    0.405
       495  -9.0025    127.9663     27.8275   5.2335321694e+01   4.9671266368e+01    0.2598704    0.1652987  44.21 0.0008789339    1.480    0.325
       496  -8.7903     81.5205     27.5347   6.4809132224e+01   5.9992567816e+01    0.2531523    0.2038791 -56.78 0.0007591169    1.763    0.433
       497  -8.8021      3.5974     27.3640   1.0005705983e+02   7.0171565066e+01    0.2441338    0.1270767 -59.24  0.001187481    1.971    0.493
       498  -9.0980     91.6567     26.3493   6.1104709946e+01   5.8087131913e+01    0.2765088    0.2142576 -47.53 0.0009038271    1.623    0.384
       499  -8.5278     72.2651     31.4239   6.9662657270e+01   6.1207917675e+01     0.220588     0.201016  82.57 0.0006303215    1.619    0.382
       500  -8.5349    104.4318     23.2071   5.6270984404e+01   5.5688768357e+01    0.1754154    0.1239613 -40.02 0.0005382388    1.633    0.388
       501  -7.9854     34.8074     23.2384   8.2074457462e+01   6.8092683693e+01    0.1672736     0.137681  76.26 0.0009458971    2.740    0.635
       502  -8.8906     63.6429     21.0546   6.8448971356e+01   6.4131395847e+01    0.2726516     0.192989 -50.20 0.0009261331    2.102    0.524
       503  -8.6809     48.4538     21.7836   7.5064392564e+01   6.6473275380e+01    0.1966417    0.1887847  -2.60 0.0006689639    1.413    0.292
       504  -8.1547    120.4579     21.1931   5.1659134789e+01   5.2213859516e+01    0.1790434    0.1240895 -42.33 0.0008299397    1.655    0.396
       505  -7.8600     19.5047     21.5096   8.9163147366e+01   6.9998356426e+01    0.1172699   0.09258949 -17.35 -4.398496e-05    1.050    0.048
       506  -8.5078    233.1261     19.3303   3.5535140533e+01   2.5357299221e+01    0.1841212    0.1609039 -45.64 0.0003244913    1.265    0.210
       507  -8.9601     73.9935     19.4176   6.3931858459e+01   6.2453151749e+01    0.2492272    0.1730892 -42.76 0.0008623046    1.826    0.452
       508  -8.3628     87.8674     17.4082   5.8597433113e+01   5.9917263532e+01    0.2039924    0.1718136 -28.99 0.0004348358    1.344    0.256
       509  -8.2470     38.7591     18.2072   7.7871554663e+01   6.8332766294e+01    0.1738187     0.142727 -36.25 0.0007428135    1.481    0.325
       510  -7.9410    112.9783     16.9499   5.1808489585e+01   5.4414246516e+01    0.1563959    0.1443248  25.38 0.0004398388    1.099    0.090
       511  -8.0592     30.1949     16.2042   8.1162916892e+01   6.9691568525e+01     0.145419    0.1306642  -9.57  0.000578159    1.340    0.254
       512  -8.5948     96.8628     15.0695   5.5093796198e+01   5.8242713821e+01    0.1857978    0.1789096  86.36 0.0005087417    1.264    0.209
       513  -7.8900      7.5078     15.5145   9.3284325837e+01   7.1965094541e+01    0.1112287   0.08799736 -21.58 0.0002330766    1.105    0.095
       514  -8.9984    175.7648    247.9031   9.3897069884e+01  -1.5932013665e+00      0.27738    0.2244391  81.46  0.001150166    2.079    0.519
       515  -7.7877     17.1802     14.2010   8.7186409943e+01   7.1367520414e+01    0.1407241    0.1251359 -16.39 0.0006417268    1.355    0.262
       516  -7.7532     83.6559     11.2877   5.7275013801e+01   6.1427427205e+01    0.1172978    0.1014556 -84.45 0.0004016172    1.649    0.394
       517  -8.3875    113.0594    248.8007   1.0659064748e+02   7.8948889640e+00    0.2047647    0.1492987  82.04 0.0008443109    1.675    0.403
       518  -9.2709    103.8701    246.8823   1.0823116070e+02   9.6022234373e+00    0.4344534    0.2298875 -83.18  0.002009406    3.110    0.678
       519  -9.0578    243.1775    246.0871   8.1011276587e+01  -1.0856450758e+01    0.4127789    0.1628259 -25.28   0.00198676    2.835    0.647
       520  -8.5020    232.7755    247.5199   8.3078255641e+01  -9.6929001306e+00     0.205144    0.1834023  50.83  0.001186369    1.911    0.477
       521  -8.5543    218.5313    247.4420   8.5651262002e+01  -7.7673331334e+00    0.2549833    0.1090326 -35.13  0.001265492    2.513    0.602
       522  -8.5559    155.9544    248.1762   9.7874140143e+01   1.4111692511e+00    0.1885413     0.148592  46.62 0.0006614877    1.241    0.195
       523  -8.6326    132.1847    247.8454   1.0262141291e+02   5.1462242539e+00    0.2208796    0.1631956  61.89   0.00052447    1.491    0.329
       524 -10.0547    224.0100    244.3503   8.4156286600e+01  -8.1177880923e+00    0.4144914    0.2379826 -44.54  0.002332842    2.368    0.578
       525  -9.1045    210.8703    246.5297   8.6931683058e+01  -6.5768449210e+00    0.1966677    0.1590627 -52.20 0.0009177694    1.931    0.482
       526  -8.7412    140.4119    245.5901   1.0067085128e+02   4.2479420355e+00     0.422281    0.2468781  76.47  0.001638542    4.431    0.774
