#   1 NUMBER                 Running object number                                     
#   2 MAG_AUTO               Kron-like elliptical aperture magnitude                    [mag]
#   3 X_IMAGE                Object position along x                                    [pixel]
#   4 Y_IMAGE                Object position along y                                    [pixel]
#   5 X_WORLD                Barycenter position along world x axis                     [deg]
#   6 Y_WORLD                Barycenter position along world y axis                     [deg]
#   7 A_WORLD                Profile RMS along major axis (world units)                 [deg]
#   8 B_WORLD                Profile RMS along minor axis (world units)                 [deg]
#   9 THETA_WORLD            Position angle (CCW/world-x)                               [deg]
#  10 FWHM_WORLD             FWHM assuming a gaussian core                              [deg]
#  11 ELONGATION             A_IMAGE/B_IMAGE                                           
#  12 ELLIPTICITY            1 - B_IMAGE/A_IMAGE                                       
         1 -15.3609      6.9713    129.3191   1.3982812311e+02   4.7887444790e+01     7.097748     1.263846 -72.71   0.01914071    6.638    0.849
         2 -13.6231    198.8159     30.1363   6.6011463729e+01   3.2098792286e+01     1.276469    0.8266706  64.37  0.006179474    1.406    0.289
         3 -13.7716    215.9275     10.4860   5.9569413410e+01   3.0357932458e+01    0.9251148    0.7749237  73.91  0.002161586    1.204    0.169
         4 -10.5319    202.0433      2.5083   5.9152758896e+01   3.4409032670e+01    0.1949309    0.1044621  75.53 0.0005042988    1.574    0.365
         5  -9.4641     93.8855    171.1458   1.2409642172e+02   2.7609632479e+01    0.2192969    0.1774399  81.81 0.0003477506    1.236    0.191
         6 -13.5369    241.6507    246.5218   1.0607878882e+02  -1.2920139103e+01     1.537813    0.6141637  32.13  0.007393525    2.322    0.569
         7 -12.7697     12.6499    239.8526   1.4826241525e+02   2.3285839422e+01    0.6096264    0.3156677  46.33  0.003928782    1.761    0.432
         8 -12.8032      5.0766    248.1339   1.4994142833e+02   2.2498530344e+01     1.097024    0.4611854  42.90   0.00670159    2.177    0.541
         9 -11.5024      5.1983    241.0060   1.4954049616e+02   2.3840688882e+01    0.4740655     0.277297  77.86  0.002074348    1.259    0.206
        10 -10.9708     65.4517    248.9605   1.3982063113e+02   1.4993440366e+01     0.271552    0.1751251  79.91 0.0008093265    1.397    0.284
        11 -13.5636    156.5244    247.4851   1.2232831525e+02   6.7993765537e-01     1.001377    0.6111984  42.53   0.00547125    1.377    0.274
        12 -12.4258     45.1910    248.0145   1.4331548999e+02   1.7887770963e+01    0.6967638    0.2840172  40.61   0.00364153    2.317    0.568
        13 -10.2185     52.8058    237.8281   1.4114322549e+02   1.8893903940e+01    0.1727943    0.1092284  71.88 0.0004423222    1.333    0.250
        14 -13.7813    139.5622    246.6905   1.2553651051e+02   3.7189126555e+00     1.037548    0.7804997  45.43  0.006292675    1.122    0.108
        15 -11.3415     29.0447    248.8806   1.4611501498e+02   1.9705432324e+01    0.2742256    0.2212181 -69.07  0.001623772    1.590    0.371
        16 -13.2121     44.1143    213.2087   1.4058270717e+02   2.5135830731e+01     1.008528    0.6876647 -81.89  0.004849433    1.260    0.206
        17 -14.1101     33.9944    224.5773   1.4348862437e+02   2.3957284119e+01    0.8201907    0.5869703  67.37  0.002442281    1.135    0.119
        18 -11.9948    139.0034    231.4959   1.2353557711e+02   6.5758524661e+00     0.403865    0.1956429  46.22  0.001852785    1.803    0.445
        19 -12.1941     89.5071    226.7353   1.3297445580e+02   1.5848603137e+01    0.9211418    0.1493299  48.61   0.00243814    6.145    0.837
        20 -12.7714    116.4365    231.4749   1.2812373050e+02   1.0490713684e+01     1.382718   0.07541353  42.30  0.002840055    9.463    0.894
        21 -12.5024    152.8599    229.1876   1.2036071748e+02   4.5386214957e+00    0.6803754    0.1955061  39.69  0.002332679    3.218    0.689
        22 -12.2612     22.8674    245.7690   1.4693887020e+02   2.1016548462e+01    0.5946326    0.2864125  77.19  0.002884799    1.828    0.453
        23 -10.9552    172.1645    222.6923   1.1536448254e+02   2.2282670445e+00    0.3412088      0.15784  26.98  0.001214979    3.317    0.699
        24 -11.8697     58.7979    212.9991   1.3763891020e+02   2.3272650138e+01    0.6236156    0.2259584  60.06  0.002314048    3.571    0.720
        25 -12.9191     28.8760    230.9992   1.4490353939e+02   2.3240387412e+01    0.3097907    0.2569754 -82.66 0.0007772524    1.320    0.242
        26  -9.1968    152.4859    212.9415   1.1783780007e+02   7.7049552630e+00     0.191876    0.1405095 -52.33 0.0003687187    1.496    0.331
        27 -12.7157      9.4663    206.9028   1.4667045566e+02   3.0318132579e+01    0.6807222    0.4468725  34.91  0.003076098    1.882    0.469
        28 -11.2881     54.4904    204.7650   1.3764513766e+02   2.5658162017e+01    0.3485146    0.1916063  68.77  0.001760511    1.868    0.465
        29 -11.9725     38.7889    197.3850   1.4012337375e+02   2.9262121325e+01    0.9676685    0.3400792  68.40  0.002547642    7.707    0.870
        30 -11.6860     56.9693    197.6048   1.3632959922e+02   2.6936235923e+01     0.279964    0.2284427 -67.52 0.0004803683    1.270    0.213
        31 -11.3948      7.6589    192.7950   1.4596491464e+02   3.3522833922e+01    0.2547653    0.1881106  67.23 0.0005434533    1.226    0.185
        32  -9.5796    191.7099    193.0619   1.0593372080e+02   4.0606416638e+00    0.2233935    0.1135144 -62.74 0.0007026987    4.176    0.761
        33 -11.9304     63.6557    189.2720   1.3386389674e+02   2.7937486879e+01    0.2657479    0.2375986 -76.01 0.0004336962    1.180    0.153
        34 -13.4568      6.6994    228.0985   1.4855115954e+02   2.6220624043e+01     1.274999    0.6393859  59.91  0.008014303    1.632    0.387
        35 -11.6767     82.0038    167.9715   1.2646762488e+02   3.0282070798e+01    0.5344022    0.4225751 -36.81  0.001810402    1.576    0.366
        36 -13.2729     60.9979    174.4031   1.3249601808e+02   3.1784809094e+01    0.5412862    0.2823502 -46.92  0.001866384    2.288    0.563
        37 -10.3290     95.5860    152.0886   1.2019129854e+02   3.1897894091e+01    0.2937598    0.2630445 -61.22 0.0008091971    1.084    0.077
        38 -11.9737     84.0987    150.8399   1.2293315292e+02   3.4086379416e+01    0.3018275    0.2496931 -45.91  0.000505291    1.275    0.216
        39 -12.2497     67.3424    143.3902   1.2598103906e+02   3.8372734036e+01    0.6688122     0.428501  64.52  0.002735029    1.910    0.476
        40  -9.6027    108.4034    136.7104   1.1361082034e+02   3.3290098416e+01     0.360693    0.2208526 -26.24   0.00136367    2.635    0.620
        41 -10.4225     95.1039    134.2384   1.1664047326e+02   3.6263467517e+01    0.2482121    0.2134726 -43.21 0.0003703663    1.183    0.155
        42 -11.1686     25.4769    128.3149   1.3477222901e+02   4.6675277633e+01    0.2555177     0.185782  71.81 0.0009090329    1.555    0.357
        43  -8.9494    105.6348    123.5458   1.1131183727e+02   3.6890900578e+01    0.1497058    0.1384194 -50.93 0.0001461133    1.044    0.042
        44  -9.6853     77.7493    121.6062   1.1871286298e+02   4.2062535384e+01    0.2446609    0.1913193  72.76 0.0007389496    1.550    0.355
        45  -9.3102     64.4654    120.3251   1.2227686262e+02   4.4260223710e+01    0.2068695    0.1540989  61.19 0.0005310347    1.609    0.379
        46  -9.3331    167.7420    112.7534   9.2980738980e+01   2.5893905870e+01    0.2160146    0.1803848 -81.48 0.0007845647    1.354    0.261
        47  -9.6632     46.8267     99.3653   1.2304248534e+02   5.1194290276e+01    0.2226009    0.1804669  63.15  0.001318796    1.562    0.360
        48 -11.4352    243.5014     94.9447   7.5010293240e+01   1.1883377498e+01    0.3876394    0.1254584 -39.07  0.001382997    2.806    0.644
        49  -9.1298     64.0877     80.0376   1.1248376342e+02   5.3159111218e+01    0.1889179    0.1617052  78.33  0.000566011    1.629    0.386
        50 -12.3497      3.4501     50.3652   1.2633943435e+02   6.4676513210e+01    0.3560939    0.3113672  31.24   0.00173175    1.557    0.358
        51 -12.6185     35.4620    244.6941   1.4474600720e+02   1.9742180547e+01    0.7430673    0.3589447 -56.46  0.004041515    2.710    0.631
        52 -10.1262     81.3951    249.1693   1.3693939135e+02   1.2651881556e+01    0.1695147    0.1027482 -86.51 0.0009569916    1.749    0.428
        53 -10.7827     74.5364    176.4865   1.2960106960e+02   2.9380784544e+01     0.249658     0.221166 -85.86  0.000168771    1.041    0.039
        54 -11.3325    100.7409    246.2485   1.3300429747e+02   1.0227129112e+01    0.3363519    0.1736933  70.41  0.001528218    2.552    0.608
