#   1 NUMBER                 Running object number                                     
#   2 MAG_AUTO               Kron-like elliptical aperture magnitude                    [mag]
#   3 X_IMAGE                Object position along x                                    [pixel]
#   4 Y_IMAGE                Object position along y                                    [pixel]
#   5 X_WORLD                Barycenter position along world x axis                     [deg]
#   6 Y_WORLD                Barycenter position along world y axis                     [deg]
#   7 A_WORLD                Profile RMS along major axis (world units)                 [deg]
#   8 B_WORLD                Profile RMS along minor axis (world units)                 [deg]
#   9 THETA_WORLD            Position angle (CCW/world-x)                               [deg]
#  10 FWHM_WORLD             FWHM assuming a gaussian core                              [deg]
#  11 ELONGATION             A_IMAGE/B_IMAGE                                           
#  12 ELLIPTICITY            1 - B_IMAGE/A_IMAGE                                       
         1 -10.6099     45.1602     12.1587   3.2174115269e+01   7.1060760340e+01    0.2375463    0.1780803  43.21 0.0008032902    1.322    0.244
         2 -11.9091     49.8285     14.3511   3.1183788769e+01   6.9907634946e+01    0.5243254    0.3180473  45.42  0.002001879    1.585    0.369
         3 -11.9123     56.1504     19.8571   3.1372645802e+01   6.7942292664e+01     0.450997    0.3320234  59.32  0.001517861    1.603    0.376
         4 -11.0223    127.3042     14.5030   8.9843062693e+00   5.1836709129e+01    0.4919585    0.1898119  53.55  0.001931028    2.430    0.589
         5 -13.2120    174.1600      3.7828   3.5986802431e+02   4.0998553311e+01    0.9515318    0.3954051  82.24  0.003401544    2.293    0.564
         6 -10.8132    120.6940     12.7036   9.4173603858e+00   5.3721690146e+01    0.2440104    0.1912726  50.67 0.0006975968    1.274    0.215
         7 -11.4672    162.9640     11.7824   3.3095484959e+00   4.2977471853e+01    0.2805083    0.2283056 -82.28  0.001065901    1.075    0.070
         8 -12.1505    160.6509      5.2657   1.5456493399e+00   4.4218356236e+01    0.5193464    0.2170377 -44.94  0.002281445    2.187    0.543
         9  -9.7252     78.9190     11.8347   1.8648530998e+01   6.4084903635e+01    0.1783242     0.154164  86.63 0.0008555789    1.315    0.240
        10 -10.7363     27.7727     11.3933   4.1759950966e+01   7.3997201120e+01    0.2163556    0.1613082 -32.22  0.001033983    1.292    0.226
        11 -11.1518    241.4876      9.9627   3.5691115722e+02   2.5236773340e+01    0.2681323   0.09697483 -32.48  0.001266994    2.391    0.582
        12 -10.5026     69.3631      8.8801   2.0153021203e+01   6.6557195051e+01    0.2899772    0.1933356  -5.94  0.001066854    1.732    0.423
        13 -11.5661     69.4698      5.5077   1.8268920314e+01   6.6878591599e+01    0.3232778    0.2595423 -55.44  0.001566146    1.532    0.347
        14 -10.3077     32.5000     10.0430   3.7906365944e+01   7.3490611627e+01    0.1859355    0.1142197 -32.37  0.001030824    1.585    0.369
        15  -9.7557    115.1364      8.8303   8.8591178381e+00   5.5524222464e+01    0.1902254    0.1432261  51.35 0.0005596254    1.290    0.225
        16 -11.6490     78.6696      5.4583   1.5456720605e+01   6.4787858187e+01    0.4022625     0.241761  32.91  0.001110648    1.780    0.438
        17 -10.6818      3.1572      8.1086   5.8684340561e+01   7.7292453951e+01    0.2106273    0.1604702  10.95 0.0009264481    1.320    0.242
        18 -11.1494      4.0717      3.9589   5.5354003543e+01   7.7952663702e+01    0.3617171    0.2276389  32.12  0.002232854    1.815    0.449
        19 -11.9313     16.5989      8.1773   4.7616406029e+01   7.5965970982e+01    0.3343865    0.2522426   3.49  0.001107784    1.225    0.184
        20 -11.3216     15.7030      4.6550   4.5956987749e+01   7.6631695812e+01    0.2482828    0.1598604 -13.64 0.0007882661    1.584    0.369
        21 -12.1950     10.9087      3.1841   4.8839918748e+01   7.7413859913e+01    0.3878029    0.3161645  28.39   0.00184689    1.402    0.287
        22 -11.5075    124.2621      6.9342   6.6135030219e+00   5.3368741991e+01    0.3918126    0.2386557 -81.74  0.001877572    1.797    0.443
        23 -10.5569     98.7583      8.5879   1.1978448282e+01   5.9663276723e+01    0.2170167    0.1515648 -63.59  0.000856153    1.690    0.408
        24 -11.8461     86.6858      6.6068   1.3893658693e+01   6.2789095099e+01    0.4757088    0.2431561  52.97  0.002148557    1.709    0.415
        25 -11.3228    130.5856      5.0850   5.0034926541e+00   5.1914240505e+01    0.3533983    0.2427582   6.96  0.001764288    1.979    0.495
        26 -10.8924    138.0492      4.2098   3.7116768786e+00   5.0076374446e+01    0.2362998    0.1313261 -72.56  0.001078092    1.958    0.489
        27 -10.0836     35.2916     13.4298   3.8358128262e+01   7.2555126048e+01    0.2493059     0.183805 -14.45  0.001287093    1.330    0.248
        28 -11.5388    114.7348      1.8967   6.1294401382e+00   5.6246037764e+01    0.4245057    0.2038678  74.87  0.001438578    1.932    0.482
        29 -10.8956    153.7557      1.6090   1.0872624694e+00   4.6302297213e+01    0.2448597    0.1538527 -88.64  0.001272863    1.460    0.315
        30 -10.3613     89.0164      1.4436   1.0827787741e+01   6.2685161798e+01    0.2018004    0.1182957  66.74 0.0003579474    1.547    0.354
        31  -9.1541    219.9920      1.0000   3.5606151715e+02   3.0663882369e+01     0.175129   0.06200793  80.26 0.0003555559    2.743    0.635
        32 -11.7415    236.1854     95.4704   1.6401826588e+01   1.4500309944e+01    0.2653895    0.1982477 -88.91  0.001522185    1.735    0.424
        33  -9.6613    143.4540     96.4695   3.2801850277e+01   3.4219857272e+01    0.1570784    0.1503178 -60.66 0.0002412173    1.026    0.025
        34 -10.9306     64.5464     95.8519   5.6963871546e+01   5.0523332273e+01    0.2868261    0.2654417  54.72  0.000810916    1.127    0.112
        35 -11.4492      5.6974     95.6348   8.0509229181e+01   5.6769766754e+01     0.381841    0.2271658  -5.85  0.001910722    2.178    0.541
        36 -10.2073    103.4417     95.4795   4.3433685821e+01   4.3400593886e+01    0.1590448    0.1514495 -73.66 1.978196e-05    1.015    0.015
        37  -9.5093     89.7781     94.3401   4.7521114777e+01   4.6447164387e+01    0.2137521    0.1487029  30.86 0.0007263246    1.635    0.388
        38 -10.6260    132.6196     92.5013   3.4334020015e+01   3.7579163806e+01    0.3140521    0.2672606 -79.84 0.0005785775    1.262    0.208
        39 -10.6838    171.4685     90.5318   2.5178804276e+01   2.8899356921e+01    0.1514296    0.1415215 -52.21 4.010425e-05    1.040    0.038
        40 -10.3990    103.2684     89.7287   4.1796023800e+01   4.4781844303e+01    0.3242273     0.240435  -7.52  0.001348555    2.067    0.516
        41  -9.9137     37.2271     90.0004   6.6477709758e+01   5.5694746185e+01    0.1929858     0.109161 -65.01  0.000324824    1.592    0.372
        42 -11.5065     11.8209     85.9691   7.6614865182e+01   5.8941856810e+01    0.3116982    0.2046485 -87.00 0.0003596251    1.468    0.319
        43 -10.5027      6.0006     85.3230   7.9046174220e+01   5.9448729006e+01    0.1729658    0.1644013 -64.95 0.0004218714    1.129    0.114
        44 -10.0917    232.6648     84.6594   1.4406390995e+01   1.6860061489e+01     0.127627    0.1009825  -0.88 0.0007051044    1.756    0.431
        45 -11.1082    101.9043     82.6922   4.0058089474e+01   4.6677886580e+01    0.5776187    0.2218768  44.63  0.001923578    2.664    0.625
        46 -10.0844    238.6638     81.3192   1.2959462732e+01   1.6240440508e+01    0.1375826   0.08412664 -59.85  0.000457467    1.704    0.413
        47 -11.0421     54.4828     78.5839   5.6273860237e+01   5.6407363245e+01    0.3195857    0.2564958  76.89 0.0004805793    1.503    0.335
        48  -9.4647    143.6835     77.3007   2.7149672992e+01   3.8059774257e+01    0.1608236     0.118465 -76.37 0.0003896406    1.617    0.381
        49 -12.8625     36.5211     73.2807   6.2733523975e+01   6.0049415659e+01    0.6419626    0.5125067 -16.48  0.002099961    1.402    0.287
        50  -9.1994     90.2821     72.2753   4.0459723430e+01   5.1458772131e+01    0.1467868    0.1219172  -3.06 0.0001928467    1.503    0.335
        51 -11.5664     63.7423     69.5430   4.9563354398e+01   5.7111828435e+01    0.2935899    0.2535236  36.55 0.0002287263    1.209    0.173
        52 -10.6943      7.5633     68.6606   7.5633346253e+01   6.3621702573e+01    0.2114057    0.2046027 -77.23 0.0005703213    1.141    0.124
        53  -9.2120     83.3263     68.2583   4.1518735714e+01   5.3761072187e+01    0.1478487    0.1196525   3.93 0.0002538549    1.556    0.357
        54 -10.0341    135.3117     75.3347   2.8488081072e+01   4.0476564503e+01    0.1558879    0.1266417   9.58 0.0007044693    1.682    0.405
        55 -10.7765      3.6647     75.2802   7.8626514254e+01   6.2147923284e+01    0.2263546    0.1515427  35.19  0.001254895    1.708    0.415
        56 -10.0052    204.6572     65.5963   1.3320527292e+01   2.5654905852e+01    0.2408878    0.1354406 -52.17 0.0006897195    1.636    0.389
        57  -9.2431    192.2907     65.7272   1.5034461556e+01   2.8433252455e+01    0.1449473   0.09894557 -65.68 0.0002401824    1.514    0.339
        58  -9.5475    174.9785     64.9582   1.7467077839e+01   3.2650187555e+01    0.1815595    0.1640907 -67.21 0.0008624207    1.013    0.013
        59 -11.0568      4.4438     63.6553   7.6268643977e+01   6.5028197293e+01     0.271356    0.1781436 -57.69 0.0008082954    1.257    0.205
        60 -11.3328      3.1685     58.8999   7.6019232624e+01   6.6255895727e+01    0.3230936    0.2519804 -54.93  0.001482275    1.076    0.070
        61 -10.3850    164.3953     64.1623   1.9040680327e+01   3.5364017939e+01    0.2275457    0.1243132 -48.04 0.0009465608    1.750    0.428
        62 -10.8170     99.5830     72.7014   3.7531599446e+01   4.9369960746e+01    0.3723959    0.2628223  67.03  0.000978561    1.704    0.413
        63 -11.5569     16.0815     59.3897   6.9229686714e+01   6.5366571370e+01    0.4534788    0.2710311 -35.73   0.00187173    1.657    0.397
        64 -11.4863     25.0000     55.9664   6.3510652599e+01   6.5434002391e+01    0.5744985    0.2475461 -71.78  0.002169498    3.032    0.670
        65 -11.9251     22.5867     58.7164   6.5599994268e+01   6.5002992025e+01    0.3897182    0.2772043 -84.16  0.001305458    1.653    0.395
        66 -10.4084     99.0280     61.2627   3.3692953645e+01   5.1833821378e+01    0.3689017    0.2034133 -58.90  0.001381707    2.425    0.588
        67 -10.3795     86.4681     61.1919   3.7848849843e+01   5.4596743775e+01    0.3702368    0.2493564 -18.54   0.00156523    2.084    0.520
        68 -12.1075     66.1119     59.0514   4.4854504025e+01   5.9031420950e+01    0.6651021    0.4666688 -78.62  0.002933315    2.195    0.544
        69  -9.7097    114.2361     60.8288   2.9069329212e+01   4.8364026698e+01    0.2021465    0.1807384  19.53 0.0004372433    1.291    0.226
        70 -10.5473    228.6010     57.8006   8.6718120772e+00   2.1723544151e+01    0.3546858    0.1109426 -43.91  0.001408013    2.468    0.595
        71 -10.1122    106.2551     58.1404   3.0361886886e+01   5.0763123019e+01    0.2865419    0.1997082  84.38  0.001217053    1.999    0.500
        72 -10.3168    136.5147     55.9690   2.1948908133e+01   4.3728665284e+01    0.2329383    0.1480434 -37.18  0.001029482    1.581    0.368
        73  -9.7931     51.7992     56.1312   5.0070093125e+01   6.2052562992e+01    0.1972353    0.1621573 -13.27  0.000872569    1.313    0.239
        74 -11.3047    119.6155     54.1371   2.5279261281e+01   4.8261588338e+01    0.5363622    0.3208271  74.00  0.002155574    2.134    0.531
        75  -9.5307     99.2885     55.3315   3.1414074549e+01   5.2906591506e+01    0.1504272    0.1198368   7.61 0.0003765011    1.623    0.384
        76 -11.1806    248.7219     53.7915   5.9006046994e+00   1.8342584632e+01    0.3930038    0.1943832 -54.93  0.002032909    1.787    0.440
        77  -9.5781    149.2164     54.0151   1.8724499803e+01   4.0846405759e+01    0.1950742    0.1193675 -36.51 0.0003523367    1.626    0.385
        78 -11.6476    127.3143     51.1220   2.2352386251e+01   4.6857007249e+01    0.5126535    0.2877934  60.36  0.001651986    1.761    0.432
        79 -10.9684     86.8347     50.3269   3.3535643856e+01   5.6625521120e+01    0.4853592    0.3318229 -44.30  0.002314155    1.482    0.325
        80  -9.8784     45.6769     52.6909   5.1707325328e+01   6.3712780762e+01     0.144638    0.1023127 -19.17 0.0004528079    1.649    0.394
        81 -11.2110     34.7114     51.3825   5.6815630919e+01   6.5444552791e+01    0.3818127    0.3134562  -1.53  0.001891704    1.284    0.221
        82 -11.6618     21.0191     62.2520   6.7380244163e+01   6.4284873295e+01    0.3945159    0.2289106  18.60  0.001970339    1.923    0.480
        83 -11.2169     94.0937     48.2186   3.0289055882e+01   5.5384013392e+01    0.3677712    0.2108539 -33.69  0.001578047    1.848    0.459
        84 -11.1084     51.5716     46.6324   4.6437570875e+01   6.4092191061e+01    0.3713115    0.2988258  41.05  0.001413194    1.323    0.244
        85  -9.3434    172.6896     47.3131   1.2742549990e+01   3.6000685630e+01    0.1545656   0.09915871 -65.39 0.0007029333    1.630    0.386
        86 -10.6021    249.1430     44.7624   3.9140435534e+00   1.9480351551e+01    0.3136692     0.173059 -56.62  0.001755251    1.541    0.351
        87 -11.1960    119.7371     43.7063   2.1459120311e+01   4.9954618151e+01    0.5468188    0.3095532 -55.36  0.001013012    2.092    0.522
        88 -10.4340      5.7770     46.4021   7.1685271265e+01   6.9104692538e+01    0.3096699    0.1247825 -24.72  0.001004134    3.121    0.680
        89 -10.6967     38.8644     43.8187   5.1699241156e+01   6.6550051750e+01    0.3000588      0.25731  43.41  0.001551894    1.336    0.252
        90 -10.7487    158.9224     39.4155   1.2428765203e+01   4.0602095412e+01    0.2616298     0.218137 -53.59 0.0002768009    1.132    0.116
        91  -9.7494     96.1248     38.1204   2.5546203984e+01   5.6588247477e+01    0.1865418    0.1661803 -85.24 0.0003411543    1.234    0.190
        92 -10.3920     12.4149     36.1943   6.4378219609e+01   7.0975581796e+01       0.2382    0.1916838  80.58   0.00143639    1.676    0.403
        93 -11.1810     39.4561     35.7203   4.7858966156e+01   6.8094623613e+01    0.4354372     0.225365  39.05  0.002049219    2.040    0.510
        94 -10.4455    119.0887     35.0590   1.8366670697e+01   5.1407219400e+01    0.2132167    0.2045848  70.41 0.0004298473    1.041    0.040
        95  -9.5129    130.5611     34.4684   1.5729379276e+01   4.8565185153e+01    0.1446183    0.1354702  87.17 9.452165e-05    1.015    0.015
        96  -9.4855    139.3501     33.2836   1.3663528320e+01   4.6466551615e+01      0.14735    0.1067178  38.39 0.0007017771    1.654    0.395
        97 -10.1872     48.4780     32.4724   4.1579134176e+01   6.7298763754e+01    0.1364611    0.1202646  -4.66 0.0008086822    1.069    0.064
        98 -11.4344      4.1054     31.4697   6.8292682553e+01   7.2551434642e+01    0.2966093    0.2084646  31.48  0.001275564    1.672    0.402
        99 -10.3474     92.3864     30.8003   2.3532393813e+01   5.8561856823e+01    0.2183231    0.2150564  15.48 0.0002458676    1.044    0.042
       100  -9.9863     17.6767     31.0696   5.8922844712e+01   7.1614964530e+01    0.1794276    0.1403378 -42.97 0.0004746704    1.132    0.117
       101  -9.7813     59.1964     29.8015   3.5188825282e+01   6.5841746665e+01    0.1921228    0.1536513   6.03  0.001063523    1.338    0.253
       102 -11.1329    153.3656     27.7686   9.5603698929e+00   4.3578713784e+01    0.2536474    0.2279636 -81.03 0.0002746823    1.012    0.012
       103 -10.1178    103.9930     28.2729   1.9266225699e+01   5.6112091054e+01    0.1982689    0.1708394  60.52 0.0003094351    1.096    0.087
       104 -10.7897    161.0888     26.9239   8.2167483668e+00   4.1712818438e+01    0.2987084    0.1874211  66.99 0.0007998195    1.523    0.343
       105 -10.7915     47.6453     26.0295   3.8745268638e+01   6.8544368007e+01     0.418436    0.2579624  -5.56  0.001398905    2.427    0.588
       106 -10.2773    120.5007     25.8392   1.4538344152e+01   5.2278236126e+01    0.3881484    0.1468707  48.98  0.001408403    2.701    0.630
       107 -10.9706     83.0710     25.9494   2.4222467417e+01   6.1399241252e+01    0.2137482    0.2010625  25.19  0.000835149    1.042    0.040
       108 -10.2452     88.0548     25.0563   2.2257067290e+01   6.0369871627e+01    0.2211916    0.1659303 -65.26  0.001122804    1.674    0.403
       109 -10.5318    136.3422     23.9626   1.0924273513e+01   4.8434617282e+01    0.1975607    0.1813077 -59.43 0.0006212351    1.095    0.087
       110  -9.5244    128.9500     24.0210   1.2230851790e+01   5.0334539476e+01    0.1692926    0.1534249  83.54 0.0003626979    1.014    0.014
       111 -10.8679     98.4764     22.7318   1.8312210661e+01   5.8177490805e+01    0.2477221    0.2311835  64.11 0.0004917824    1.023    0.023
       112 -10.8192     38.7427     22.8516   4.1810672204e+01   7.0523837478e+01    0.2630663    0.1740774  40.09 0.0009131834    1.571    0.363
       113 -10.6545    244.0013    180.0637   3.2513443580e+01   1.2253698888e-01    0.1710542    0.1385288 -50.22 0.0007687857    1.703    0.413
       114  -9.6126     20.6684    175.2760   8.2842642857e+01   3.4775626185e+01    0.1419859   0.07810075  58.95 0.0003620487    1.598    0.374
       115 -11.0448    224.1647    172.9137   3.4353971084e+01   3.9594002452e+00    0.1872776    0.1613279 -35.71 0.0009506178    1.257    0.205
       116 -11.4320     50.1182     19.3513   3.3902315323e+01   6.9148913913e+01    0.3821347    0.2159807  36.91  0.001563103    1.730    0.422
       117  -9.5694    109.5184     19.4815   1.4314966036e+01   5.5827500466e+01    0.1400532    0.1290203  63.13 0.0001104318    1.027    0.026
       118 -10.4749     70.6417     18.4520   2.4785405822e+01   6.5155974647e+01    0.2272879    0.2146085 -24.92 0.0006579034    1.135    0.119
       119 -11.7069     14.2785     17.6790   5.4954976556e+01   7.4560510902e+01    0.3200768    0.1966264  17.68  0.001368977    1.663    0.398
       120 -10.2963     21.5297    169.9979   8.2239997819e+01   3.6009114467e+01    0.2000441    0.1631531  48.66 0.0006039119    1.199    0.166
       121 -10.2180     85.6567     15.7612   1.8603729983e+01   6.2080540512e+01    0.3192027    0.1401986  56.77  0.001354765    2.033    0.508
       122 -10.4906     20.0037     16.2102   4.9981265998e+01   7.4211671093e+01    0.2328536    0.1475644   7.91  0.000784972    1.717    0.418
       123 -11.7154    183.0368     14.5462   2.1221832576e+00   3.7702810476e+01    0.2826203    0.1567527  78.70  0.001030129    1.705    0.413
       124 -11.4269      6.7620    159.6769   8.5581855304e+01   3.9896731007e+01    0.3323869    0.1600542 -54.97 0.0008722006    2.307    0.567
       125  -9.9825      3.3112    156.3297   8.6343425137e+01   4.1006329792e+01    0.1285886    0.0878657 -53.71 0.0005131049    1.669    0.401
       126  -9.5008     39.8407    147.5996   7.4846631139e+01   3.9922643006e+01    0.1952786    0.1169125  45.56 0.0004162249    1.606    0.377
       127 -10.0386     25.3828    146.3213   7.9129830897e+01   4.1759360543e+01    0.2473658    0.1630059  33.19 0.0007649117    1.584    0.369
       128 -10.8994      7.1008    142.8932   8.4390081982e+01   4.4188821413e+01    0.2524907    0.1548915 -76.08 0.0008113287    1.402    0.287
       129 -10.9308    246.0198    138.0134   2.4125240103e+01   6.1337453441e+00    0.1582884    0.1256054 -29.74   0.00101378    1.010    0.010
       130 -10.2900     28.6528    138.1218   7.7249808004e+01   4.3629536691e+01    0.2151431     0.176643  59.28 0.0003405364    1.174    0.148
       131  -9.2882     51.5257    136.5148   6.9671060262e+01   4.1494539810e+01    0.1488964    0.1333365  89.06 0.0002561532    1.003    0.003
       132 -10.4283     11.2058    133.7893   8.2403269151e+01   4.6281771229e+01    0.1838957    0.1436131 -59.27   0.00090038    1.313    0.238
       133 -11.9383    235.8777    130.0720   2.3925563846e+01   8.9985882294e+00    0.4875924    0.1508776 -33.15  0.001749503    3.195    0.687
       134 -10.4542     17.6631    132.1545   8.0166819465e+01   4.6212829383e+01    0.2250854    0.1673431  53.16 0.0004756602    1.322    0.244
       135  -9.2490     58.2932    129.7314   6.6356578978e+01   4.2428090593e+01     0.151094    0.1067641  67.42 0.0006919518    1.512    0.338
       136 -11.0609    135.0148    124.8240   4.2328503256e+01   2.9788219971e+01     0.283595    0.2223399 -49.08 0.0004648588    1.246    0.198
       137 -10.7436    245.0000    119.9812   2.0556201791e+01   9.1034273169e+00    0.2214355   0.06008245 -37.08 0.0008052254    2.962    0.662
       138  -9.7388    103.2198    119.9444   4.9951412304e+01   3.7462137600e+01    0.2152236    0.1998444 -65.85  0.001095855    1.044    0.042
       139  -9.9471     13.9165    117.0773   7.9868527016e+01   5.0541175710e+01    0.2265302    0.1402619 -46.02  0.001128045    1.733    0.423
       140 -10.3471      2.7740    117.6282   8.3825361931e+01   5.1121976749e+01    0.1764078    0.1136266  37.48 0.0006621115    1.654    0.395
       141  -9.8450     91.6985    116.0722   5.2576651296e+01   4.0636209450e+01    0.2204296    0.1965521 -62.04 0.0004184827    1.082    0.076
       142  -9.4105     96.1692    111.7716   5.0107785692e+01   4.0881603308e+01     0.210526    0.1828725 -29.85 0.0004801241    1.306    0.234
       143 -10.8143      1.7953    105.0547   8.3039883848e+01   5.4496757258e+01    0.3681688    0.1321858 -66.02   0.00129771    2.179    0.541
       144 -10.0748     13.1167    106.1025   7.8886900808e+01   5.3534802076e+01    0.2026317    0.1617734 -58.74 0.0003536975    1.188    0.158
       145 -10.9921    118.4212    102.8304   4.1081434673e+01   3.8463221626e+01    0.3493951     0.246368  75.07  0.001449133    1.870    0.465
       146 -11.2565    246.4100    101.8159   1.6534738875e+01   1.1694849619e+01    0.1861053    0.1048011 -28.87 0.0005262247    1.684    0.406
       147 -10.6774    210.4845     99.9841   2.0957715634e+01   1.8704193676e+01    0.2138673   0.09863933 -54.22 0.0008104627    2.590    0.614
       148  -9.0861    107.7011    100.7200   4.3617784465e+01   4.1260597992e+01    0.1532114     0.128415  -6.98 0.0002211331    1.541    0.351
       149  -9.4545    159.3106     98.6685   2.9835193167e+01   3.0102306594e+01    0.1614302    0.1183971 -74.48 0.0006498744    1.672    0.402
