#   1 NUMBER                 Running object number                                     
#   2 MAG_AUTO               Kron-like elliptical aperture magnitude                    [mag]
#   3 X_IMAGE                Object position along x                                    [pixel]
#   4 Y_IMAGE                Object position along y                                    [pixel]
#   5 X_WORLD                Barycenter position along world x axis                     [deg]
#   6 Y_WORLD                Barycenter position along world y axis                     [deg]
#   7 A_WORLD                Profile RMS along major axis (world units)                 [deg]
#   8 B_WORLD                Profile RMS along minor axis (world units)                 [deg]
#   9 THETA_WORLD            Position angle (CCW/world-x)                               [deg]
#  10 FWHM_WORLD             FWHM assuming a gaussian core                              [deg]
#  11 ELONGATION             A_IMAGE/B_IMAGE                                           
#  12 ELLIPTICITY            1 - B_IMAGE/A_IMAGE                                       
         1 -13.9651      3.5548    135.8477   1.4283828411e+02   4.6110615107e+01     2.701491    0.5590066 -80.00   0.01100061    4.112    0.757
         2 -14.9070    152.3540    103.7942   1.0326569883e+02   3.1319058344e+01     3.069079     1.113368 -45.44   0.01102153    2.874    0.652
         3 -14.0345    159.6653     98.3454   1.0036786179e+02   3.0706368117e+01     2.373096    0.4591576 -43.31  0.006126242    5.360    0.813
         4 -15.3789    180.7609     95.6258   9.5461824663e+01   2.6440266961e+01     3.544349     3.305716 -35.10   0.02019424    1.095    0.087
         5 -10.8012     73.1678      2.8377   8.8834437408e+01   6.4880424500e+01    0.3091086     0.198018  12.02  0.001570292    1.880    0.468
         6 -12.4156      4.8520    246.3276   1.4716577298e+02   2.7506760334e+01     0.676044    0.4258365  74.69  0.006541878    1.194    0.163
         7 -12.2928    244.8861    246.4225   1.1237621806e+02  -2.9701819029e+00     1.016527    0.4699624  31.36  0.006945312    1.619    0.382
         8 -12.2401      3.8596    228.7261   1.4680444933e+02   3.0088587408e+01    0.6830868    0.2118531  77.01  0.004138312    2.939    0.660
         9  -9.8183    138.5023    143.9989   1.1463496844e+02   2.6837704733e+01    0.1899125    0.1280057 -51.91  0.001036158    1.604    0.377
        10 -12.2826    173.5441    130.0586   1.0494098140e+02   2.2411285472e+01     0.383533    0.3091557  55.35  0.001745885    1.232    0.188
        11  -9.7853      3.6655    211.3271   1.4628261466e+02   3.2736810119e+01    0.1555814   0.06375051  63.62  0.001105427    1.714    0.416
        12 -10.3591    133.5286     69.1888   9.8089359853e+01   4.1712712819e+01    0.4549593    0.1989034 -35.40  0.001708264    2.356    0.576
        13 -10.2753    123.9943    205.9957   1.2608133360e+02   1.9256584333e+01    0.1570825    0.1219098  54.73            0    1.002    0.002
        14 -10.6777    127.4420     74.7758   1.0121509730e+02   4.1989073431e+01    0.4039139    0.1856898 -33.20  0.001508158    2.541    0.607
        15 -11.3074    139.5414     73.2657   9.7906358214e+01   3.9645550961e+01    0.4847569    0.2097913 -38.01   0.00165267    2.277    0.561
        16 -11.7507    141.4370    105.7772   1.0611201469e+02   3.3233212202e+01    0.4924575    0.3152852 -25.67    0.0022267    2.099    0.524
        17  -8.6438    105.0000     69.9477   1.0556243872e+02   4.7418056360e+01    0.2391596   0.07595482 -45.11 0.0008049047    2.960    0.662
        18 -12.1765    142.6646     90.8636   1.0210993332e+02   3.5743539375e+01    0.8127353     0.294533 -34.91  0.002670015    3.361    0.702
        19  -9.8002    100.9937    175.9842   1.2680039749e+02   2.7406451213e+01    0.1632966    0.1329626  64.51  0.001150483    1.006    0.006
        20  -8.8143    128.3838     68.7602   9.9195243463e+01   4.2909642325e+01    0.2094436    0.1359505 -29.71 0.0005959615    1.669    0.401
        21  -9.7217    128.4330     98.1602   1.0723185639e+02   3.7304252415e+01    0.2713264    0.1345705 -41.13  0.001136168    2.095    0.523
        22 -11.0512    121.6056     99.0039   1.0904906994e+02   3.8475206031e+01    0.4969757    0.1584529 -44.30  0.001705638    3.189    0.686
        23  -9.4439    115.9673    122.7596   1.1550346412e+02   3.4838678066e+01    0.2976749    0.1812024 -45.05  0.001468746    1.781    0.439
        24 -10.7066    134.2823     97.0868   1.0561076079e+02   3.6331074507e+01     0.334172    0.2622629 -14.12  0.001332646    1.663    0.399
        25 -10.2147    137.7003     92.6748   1.0370696431e+02   3.6457851716e+01    0.2904468    0.1924342 -25.28  0.001284233    1.911    0.477
        26 -10.6807    112.8577     95.0937   1.1023321928e+02   4.0907897785e+01    0.3305565    0.2257752 -37.40  0.001656282    1.620    0.383
        27 -11.7453    172.2075    137.1810   1.0667064112e+02   2.1539444560e+01     0.331666    0.2489081  59.21  0.001390336    1.389    0.280
        28 -11.1514    156.3119    136.6560   1.0966530095e+02   2.4752431476e+01    0.2781823    0.2136686  83.50  0.001480038    1.679    0.404
        29  -8.7650    107.3997    104.7646   1.1380220505e+02   3.9939447605e+01    0.1919881    0.1225889 -43.68 0.0009075564    1.657    0.396
        30 -11.5283    129.3162     87.4454   1.0428948315e+02   3.9189886297e+01    0.6113063    0.2433141 -39.79  0.002258278    2.608    0.617
        31  -8.5192    108.0000     61.9360   1.0230889666e+02   4.8397941215e+01    0.2360305   0.07691797 -42.55 0.0007943333    2.887    0.654
        32 -10.3899    121.9388     87.2840   1.0602558694e+02   4.0712145442e+01    0.3412088    0.2058707 -45.71  0.001594249    1.614    0.381
        33 -10.4891    130.8308    102.6169   1.0775116245e+02   3.5968950752e+01    0.2841773    0.2038513 -55.07  0.001395785    1.431    0.301
        34 -10.6912    133.9364     83.1986   1.0204853481e+02   3.9031563355e+01    0.3349436    0.2046445 -37.22  0.001524105    1.669    0.401
        35  -9.4150    115.6230     83.0034   1.0645632149e+02   4.2795644035e+01    0.3127952    0.1301214 -45.70    0.0012138    2.314    0.568
        36  -9.0083    121.4621     62.5339   9.8977502696e+01   4.5534887317e+01    0.2696798    0.1369932 -29.04  0.001034597    2.398    0.583
        37 -10.2986    133.6935     75.8783   1.0003586977e+02   4.0449277826e+01    0.4517086    0.2046952 -37.38  0.001751197    2.238    0.553
        38 -11.3486    146.5255    131.3226   1.1059012553e+02   2.7571018834e+01    0.2722096    0.2319358 -42.89  0.001111832    1.264    0.209
        39 -10.8241    140.6102    117.7348   1.0900722074e+02   3.1182541817e+01    0.2399656    0.1748897 -57.37 0.0009110233    1.473    0.321
        40 -11.1999    137.0422    103.6099   1.0657555523e+02   3.4533953338e+01    0.4427015    0.1890498 -35.68  0.001618759    2.944    0.660
        41  -9.5914    118.5530    104.7710   1.1112031985e+02   3.7914275566e+01    0.2657315    0.1300723 -45.13  0.001144935    2.078    0.519
        42  -8.8134    118.4939     79.0468   1.0464899169e+02   4.3006942393e+01    0.2254653    0.1357696 -44.04  0.000885496    1.602    0.376
