#   1 NUMBER                 Running object number                                     
#   2 MAG_AUTO               Kron-like elliptical aperture magnitude                    [mag]
#   3 X_IMAGE                Object position along x                                    [pixel]
#   4 Y_IMAGE                Object position along y                                    [pixel]
#   5 X_WORLD                Barycenter position along world x axis                     [deg]
#   6 Y_WORLD                Barycenter position along world y axis                     [deg]
#   7 A_WORLD                Profile RMS along major axis (world units)                 [deg]
#   8 B_WORLD                Profile RMS along minor axis (world units)                 [deg]
#   9 THETA_WORLD            Position angle (CCW/world-x)                               [deg]
#  10 FWHM_WORLD             FWHM assuming a gaussian core                              [deg]
#  11 ELONGATION             A_IMAGE/B_IMAGE                                           
#  12 ELLIPTICITY            1 - B_IMAGE/A_IMAGE                                       
         1 -12.2632    196.8788     42.9436   4.3103362373e+01   3.0716929947e+01    0.9071491     0.823002 -63.69  0.003308022    1.069    0.065
         2 -12.4198    205.4374     34.2066   3.9924350269e+01   2.9875266493e+01    0.7178562    0.6816562  -4.82  0.001381637    1.342    0.255
         3 -12.1694    230.2245      7.5506   3.1701223498e+01   2.7511304260e+01    0.8166131    0.6613143 -72.46   0.00437696    1.031    0.030
         4 -11.5669     42.5081     10.4789   6.8961507136e+01   6.8204523704e+01    0.5462577    0.1801597  34.40  0.002330554    2.971    0.663
         5  -9.9480     49.0089      3.3154   6.2717092117e+01   6.7945639855e+01    0.1763752    0.1349389  23.98  0.001186606    1.070    0.066
         6 -10.5943    150.5539    227.9154   9.3837815690e+01   5.5365977835e+00    0.3600622    0.2827845  -8.35  0.002077138    1.489    0.328
         7  -9.5059    140.9096    250.2736   9.8964055668e+01   3.1818563893e+00    0.2926802    0.1261433  39.24  0.001220539    1.914    0.477
         8  -9.3370    107.1740    250.1868   1.0577654183e+02   8.2060896536e+00    0.1832947    0.1543091  31.78  0.001042475    1.182    0.154
         9 -17.0522      8.0241    246.4201   1.2440832778e+02   2.1188598785e+01     4.580934     4.041542  12.95   0.01644101    1.775    0.437
        10 -10.3195    108.3141    204.6660   9.9751686385e+01   1.6988144111e+01    0.3039229    0.2341627  65.41  0.001572259    1.381    0.276
        11  -9.7225    111.2987    203.6489   9.8908867752e+01   1.6726227841e+01     0.203804    0.1824742 -66.22 0.0005365807    1.185    0.156
        12  -8.9503     32.3925    203.6827   1.1693151740e+02   2.7500286593e+01    0.2260074    0.1889868 -82.22 0.0007797694    1.156    0.135
        13  -9.6127    122.6791    199.3370   9.5589222122e+01   1.5770255875e+01    0.2946288    0.2391628  66.60 0.0008719969    1.358    0.263
        14  -9.0860    121.3272    196.6712   9.5476118140e+01   1.6570822641e+01    0.2417995    0.1769143  50.02 0.0007866344    1.343    0.255
        15 -10.0928     61.2152    198.5250   1.0993797366e+02   2.5247612591e+01    0.2814079    0.2414846 -64.10 0.0005111127    1.239    0.193
        16  -9.6376    194.3697    196.7759   7.9299002069e+01   3.8659955726e+00    0.2907564    0.1647458 -50.49  0.001328791    2.141    0.533
        17 -16.4656      1.8583    224.6858   1.2446345319e+02   2.6032110474e+01     23.31817          nan -75.91   0.01306303   18.713    0.947
        18  -9.0007    147.6560    187.7153   8.7756972472e+01   1.3865705213e+01    0.2774102    0.1827507 -74.26  0.001167991    2.421    0.587
        19  -8.0659     72.1718    188.2066   1.0606567290e+02   2.6159466606e+01    0.1895338    0.1436733  75.95 0.0003875211    1.338    0.253
        20  -7.9904     69.8204    184.1858   1.0610865881e+02   2.7431435245e+01    0.1750282    0.1552116 -48.08  0.000397527    1.271    0.213
        21  -8.7637     99.2589    180.9883   9.8286271128e+01   2.3767194912e+01     0.240967    0.2059794  38.10 0.0006242889    1.167    0.143
        22  -9.5591    119.6514    211.9804   9.8227596198e+01   1.3620932647e+01    0.1831752    0.1781226 -89.70  0.000539774    1.104    0.094
        23  -9.4948    186.8691    175.1960   7.6603190472e+01   9.1910787331e+00    0.3511173    0.2895553 -42.73   0.00113978    1.251    0.201
        24  -8.5836    163.3140    210.9883   8.8390441679e+01   6.5305446849e+00     0.193251    0.1795681  -6.28  0.001175429    1.089    0.082
        25 -10.8718     97.8130    169.1186   9.6653038781e+01   2.6808879921e+01    0.7401248    0.2303449  46.59   0.00227943    3.624    0.724
        26 -10.7452     71.7222    171.3139   1.0380964025e+02   3.0256212653e+01    0.4136598    0.3051445 -35.44  0.001653807    1.674    0.403
        27 -10.5499     75.8229    166.9420   1.0206449556e+02   3.0737496949e+01    0.3746967    0.3191539 -40.42  0.001492093    1.308    0.236
        28  -9.0174     47.4341    171.8711   1.1013997147e+02   3.3239932676e+01    0.2418891    0.1818046  -3.03 0.0008965048    1.928    0.481
        29  -8.5258     89.3098    210.9639   1.0497484578e+02   1.8561374409e+01    0.1812696    0.1599422 -88.69 0.0008460882    1.136    0.120
        30  -9.8104     32.3973    165.1738   1.1318471777e+02   3.6500602146e+01    0.2859379    0.1612449 -61.76  0.001012261    1.588    0.370
        31 -11.7607     53.7161    148.6318   1.0522593928e+02   3.8226012858e+01     0.772818    0.6915387  18.73   0.00457436    1.296    0.228
        32 -10.9338     83.8133    159.4191   9.8674729173e+01   3.1389493281e+01    0.6318504    0.5384325 -66.35  0.003441158    1.131    0.116
        33 -13.0207     68.6807    144.0541   1.0018220509e+02   3.7419515305e+01      2.06787     1.116557  76.56  0.003323392    3.806    0.737
        34  -7.6636     48.5034    160.4958   1.0838902204e+02   3.5899463026e+01    0.1362768    0.1214684 -79.44 -8.390091e-05    1.026    0.025
        35 -10.4828     90.8223    151.6866   9.5342327639e+01   3.2181535662e+01    0.6567361    0.4354891 -28.42  0.002160732    2.036    0.509
        36 -12.0844     72.5721    153.2325   1.0069097187e+02   3.4584975211e+01    0.5679511    0.4840679 -89.37 0.0009296334    1.181    0.153
        37  -9.9488    134.0234    145.6618   8.2503052140e+01   2.5756192832e+01     1.133151    0.2968219 -54.13  0.002674239    5.535    0.819
        38  -9.9864     40.8006    147.1524   1.0864483112e+02   4.0068092061e+01    0.3179355    0.2212789 -62.75  0.001044122    1.272    0.214
        39  -8.2865    110.7661    149.5496   8.9462569079e+01   2.9269470517e+01    0.2224156    0.1399651  49.86 0.0009522184    1.698    0.411
        40  -9.3604    103.7449    137.8996   8.8898477895e+01   3.3336418959e+01    0.4848668     0.295345 -20.51  0.001750783    2.878    0.653
        41 -10.6242     91.5361    137.4611   9.2280280405e+01   3.5555917680e+01    0.2861095    0.2581055 -31.02 0.0001373287    1.166    0.143
        42 -11.8413     42.7752    128.4939   1.0516434249e+02   4.4505278846e+01     0.809142    0.4633467 -83.25  0.003626164    2.086    0.521
        43  -9.8113     43.9850    138.9624   1.0650976981e+02   4.1765432703e+01    0.2989366    0.1619969 -54.01 0.0009597989    1.663    0.399
        44 -10.7194     70.7132    134.2971   9.7752550132e+01   3.9564805588e+01    0.4860867    0.2449835  47.90  0.001978528    2.276    0.561
        45  -8.8255    135.6717    128.1689   7.7970643981e+01   2.9396727375e+01     0.323042    0.1414399 -53.56  0.001083558    2.608    0.617
        46  -9.5333    112.7687    128.9183   8.4310285597e+01   3.3807168962e+01    0.3374084    0.2570304  13.47  0.001037374    1.626    0.385
        47  -9.0919    106.2621    130.9214   8.6612248728e+01   3.4553459310e+01    0.3669188    0.2853729 -58.59  0.001652136    1.302    0.232
        48  -9.2749     99.8416    124.8753   8.7044941562e+01   3.7165020673e+01    0.3070456    0.2373942   9.56  0.001007054    1.600    0.375
        49  -9.8928    117.0075    124.0041   8.1940306454e+01   3.4132292658e+01    0.2446246    0.2411972   7.82  0.001312224    1.026    0.026
        50 -11.3608     44.8749    114.6168   1.0196677669e+02   4.7704601534e+01    0.7469491    0.2762172  39.95   0.00288561    3.006    0.667
        51 -10.8694     45.5143    109.6284   1.0075400558e+02   4.8849262249e+01    0.4016325    0.3336052  35.23  0.002207714    1.346    0.257
        52 -10.1819     41.6827    109.6539   1.0204099908e+02   4.9256920178e+01    0.3665314    0.1712454 -51.15  0.001626148    1.833    0.454
        53  -8.3820    108.8080    118.3482   8.2849381700e+01   3.7036529713e+01    0.2114821    0.1893419  32.38  0.000609785    1.147    0.129
        54  -8.9060    231.1531    113.9729   5.4987265656e+01   1.2072444607e+01    0.2112915    0.2086739  58.34 0.0008706343    1.148    0.129
        55 -10.2185    114.9921    109.5548   7.8805938369e+01   3.7825585535e+01    0.5290055     0.187416 -42.27  0.001686277    2.895    0.655
        56 -10.9576     53.6865    109.1181   9.7913746899e+01   4.8019415888e+01     0.489542    0.2910228 -65.64  0.002281361    1.700    0.412
        57  -9.7869    119.9156    104.1825   7.5971736518e+01   3.8001799260e+01      0.39893     0.231796 -29.27  0.001407432    2.154    0.536
        58  -8.8933    134.1953    100.8622   7.1223576908e+01   3.5649226972e+01    0.3332721    0.1836429 -61.39  0.001161464    2.762    0.638
        59  -8.5827    128.9561     96.2716   7.1309804719e+01   3.7746833061e+01    0.2248634    0.1988947  37.43 0.0008762671    1.137    0.121
        60  -8.5407    205.9872    110.2726   5.8266506369e+01   1.7824227162e+01    0.1952857    0.1925004  80.06 0.0005533056    1.088    0.081
        61  -8.5945    142.6583    221.3143   9.4529770765e+01   8.0269900453e+00     0.136554    0.1000022  63.11 0.0007047484    1.705    0.414
        62  -8.7475    156.9383     88.9917   6.2458780613e+01   3.2827358892e+01    0.2508543    0.1870274 -74.99  0.001130308    1.749    0.428
        63 -11.7165    184.9812     52.3003   4.7183491893e+01   3.2222612983e+01    0.7245273    0.5449049 -12.67      0.00138    1.733    0.423
        64 -10.1755    101.6206    244.8685   1.0631875633e+02   9.9734591906e+00    0.3497272    0.1495773 -62.53  0.001634085    2.776    0.640
        65  -9.8104     41.8405    207.9130   1.1524492586e+02   2.5510088860e+01    0.4002291    0.2153894  79.47  0.001747989    2.000    0.500
        66 -10.1834     29.3991     31.0970   8.4361536408e+01   6.7013819141e+01    0.2230932    0.1506835 -51.65  0.001302716    1.863    0.463
        67 -10.9063    120.1493    245.5955   1.0260666605e+02   7.1065138168e+00    0.2900726    0.2043796  50.90  0.001386367    1.314    0.239
        68  -8.2557    168.1695    232.9325   9.0929652105e+01   1.8730311576e+00    0.1873865    0.1633984  45.26 0.0004914678    1.269    0.212
