#   1 NUMBER                 Running object number                                     
#   2 MAG_AUTO               Kron-like elliptical aperture magnitude                    [mag]
#   3 X_IMAGE                Object position along x                                    [pixel]
#   4 Y_IMAGE                Object position along y                                    [pixel]
#   5 X_WORLD                Barycenter position along world x axis                     [deg]
#   6 Y_WORLD                Barycenter position along world y axis                     [deg]
#   7 A_WORLD                Profile RMS along major axis (world units)                 [deg]
#   8 B_WORLD                Profile RMS along minor axis (world units)                 [deg]
#   9 THETA_WORLD            Position angle (CCW/world-x)                               [deg]
#  10 FWHM_WORLD             FWHM assuming a gaussian core                              [deg]
#  11 ELONGATION             A_IMAGE/B_IMAGE                                           
#  12 ELLIPTICITY            1 - B_IMAGE/A_IMAGE                                       
         1 -14.5526     10.2050     17.5945   1.2275388743e+02   7.0473633326e+01     3.182301     1.016433 -52.56   0.01565435    2.158    0.537
         2 -11.1382    119.0000     17.9937   8.3135025305e+01   5.3253751270e+01    0.3799645    0.1191533 -23.83  0.001186132    3.536    0.717
         3 -14.6397    234.3714    246.3864   1.1382198562e+02  -1.5378755786e+00      4.36524    0.8243752  43.23   0.01938974    3.662    0.727
         4 -14.5290     20.7105    220.5434   1.4402558363e+02   2.9751222687e+01     1.457382    0.8345155  48.01   0.01197529    1.428    0.300
         5 -13.7085      8.4228    208.2972   1.4543990824e+02   3.2791899933e+01    0.6635569     0.595695  46.38  0.006366189    1.678    0.404
         6 -15.0393    125.4329    247.2670   1.2980536303e+02   1.3658965676e+01      4.72589    0.7305847  42.24   0.01771761    5.087    0.803
         7 -15.6091     33.4121    245.0228   1.4316177340e+02   2.4956856588e+01     6.926969     1.324507  36.73   0.02749165    6.889    0.855
         8 -10.5223     29.4922    187.0487   1.4094961699e+02   3.4305516982e+01    0.1467909   0.08080874 -83.79  0.001035425    1.597    0.374
         9  -9.9673     55.7983    184.1984   1.3605262154e+02   3.1946706631e+01    0.1939222   0.07775729  66.61 0.0009550521    2.847    0.649
        10 -12.9009     13.8510    163.2843   1.4241761722e+02   4.0025388372e+01    0.6066923    0.2221397  62.97   0.00338813    2.407    0.585
        11 -12.1535     53.9382    171.2226   1.3532327441e+02   3.4472531500e+01    0.3864236    0.2071319 -87.45  0.002372951    1.820    0.451
        12 -13.6328     43.6847    161.7382   1.3650936839e+02   3.7384680088e+01    0.6596099    0.3581973  52.14  0.004254999    1.581    0.368
        13 -12.1237     75.8360    160.2217   1.2989946225e+02   3.3777606203e+01    0.3338969    0.2663175  39.88  0.002312454    1.436    0.303
        14 -12.5803     43.6127    150.3052   1.3550576978e+02   3.9582712469e+01    0.3818595    0.1901365  66.30   0.00217118    1.962    0.490
        15 -11.6349     78.8906    147.2271   1.2768032310e+02   3.5843880942e+01    0.4789437    0.2286889  77.89  0.001871092    3.950    0.747
        16 -12.0113     53.5284    148.0131   1.3318872123e+02   3.8915376680e+01    0.3125801    0.1919736 -89.96  0.001949436    1.507    0.337
        17 -11.9605     28.5303    145.3314   1.3823261650e+02   4.2100679473e+01    0.3709623    0.1447814 -88.50  0.001826176    2.688    0.628
        18 -12.7441     67.8740    143.5649   1.2959305410e+02   3.8032644991e+01      0.55103    0.3084478  63.09  0.002407216    1.791    0.442
        19 -12.6004     55.1091    129.4974   1.3069825868e+02   4.2457266996e+01    0.3999562    0.2779792 -68.19  0.002578954    1.322    0.244
        20 -11.5883     41.8910    128.0837   1.3359797447e+02   4.4231059898e+01    0.2181029    0.1376596 -70.35  0.001384037    1.389    0.280
        21 -10.8170     52.0029    108.8363   1.2859519271e+02   4.7166630052e+01    0.2103517    0.1170035  64.67  0.001097516    2.049    0.512
        22 -10.8730     60.1501     99.8352   1.2497489582e+02   4.8123447192e+01    0.2630276    0.1200894  56.25  0.001167632    2.741    0.635
        23 -11.2064     32.0261    190.5250   1.4071252546e+02   3.3454848133e+01    0.1606731    0.1078634  85.56  0.001262561    1.226    0.185
        24 -10.8108    109.6059     41.1994   9.4752270529e+01   5.1832404582e+01    0.2135425    0.1313741 -25.48 0.0009591195    1.739    0.425
