#   1 NUMBER                 Running object number                                     
#   2 MAG_AUTO               Kron-like elliptical aperture magnitude                    [mag]
#   3 X_IMAGE                Object position along x                                    [pixel]
#   4 Y_IMAGE                Object position along y                                    [pixel]
#   5 X_WORLD                Barycenter position along world x axis                     [deg]
#   6 Y_WORLD                Barycenter position along world y axis                     [deg]
#   7 A_WORLD                Profile RMS along major axis (world units)                 [deg]
#   8 B_WORLD                Profile RMS along minor axis (world units)                 [deg]
#   9 THETA_WORLD            Position angle (CCW/world-x)                               [deg]
#  10 FWHM_WORLD             FWHM assuming a gaussian core                              [deg]
#  11 ELONGATION             A_IMAGE/B_IMAGE                                           
#  12 ELLIPTICITY            1 - B_IMAGE/A_IMAGE                                       
         1 -16.4151    134.0411     36.9006   6.3286656794e+01   4.7180814699e+01     16.65703     10.51157  75.81   0.07110168    2.161    0.537
         2 -15.0389    242.7903    140.0077   7.1383530986e+01   4.1564843718e+00      4.79475     2.725349 -49.32   0.02122688    2.234    0.552
         3 -15.6204    218.7382     69.0919   5.7613531434e+01   2.0949262565e+01     3.145681    0.6968762 -43.01  0.008461805    4.443    0.775
         4 -16.3457    241.0630     89.2087   5.9497246151e+01   1.2622988878e+01     3.243697     1.177256 -38.46   0.01205897    2.398    0.583
         5 -15.2221    226.0394     24.9033   4.5006093583e+01   2.5291689600e+01     2.180183    0.9102817 -20.51  0.008244527    3.074    0.675
         6 -16.3619    223.5826     47.9567   5.1301841776e+01   2.2894719695e+01     3.965469     2.011546  -7.86    0.0127877    4.202    0.762
         7 -14.6385    249.3084     23.3292   4.2387998368e+01   2.0033650523e+01    0.9146594    0.3579783 -27.39  0.003660074    2.610    0.617
         8 -16.7097    242.6734     66.6494   5.3650481467e+01   1.5715557359e+01     5.719707     2.002118 -54.03   0.01563307    5.293    0.811
         9 -17.0436    247.2728     46.3326   4.8092103232e+01   1.7554851806e+01     3.404552    0.9201494 -36.27   0.01214892    2.923    0.658
        10 -15.5027    237.1518     23.2991   4.3494267373e+01   2.2833282970e+01     1.022246    0.7438955 -36.32  0.005768178    1.308    0.236
        11  -8.7392    163.7681     18.8628   5.1284786387e+01   4.1865550950e+01    0.4010348     0.206133 -37.38  0.001110662    1.993    0.498
        12  -9.4293    166.9165     14.8923   4.9510928907e+01   4.1470693765e+01    0.3813936    0.2236999 -25.75 0.0009991688    1.801    0.445
        13  -9.6851    186.2736     19.3214   4.8154196615e+01   3.5970940949e+01    0.4126082     0.247797  27.33  0.001015978    2.313    0.568
        14 -10.5993    191.5366     15.3437   4.6311556074e+01   3.5045731426e+01    0.3797211    0.2270567 -19.15  0.001335745    1.905    0.475
        15  -9.7197    192.6119     10.2997   4.4729547859e+01   3.5296425758e+01    0.2585396    0.1918329  27.07  0.001351426    1.663    0.399
        16 -10.6013    174.4026     17.4871   4.9237100539e+01   3.9253414729e+01    0.2979834    0.2316508   8.42 0.0006343373    1.540    0.351
        17  -8.7160    181.4099     17.1269   4.8147984007e+01   3.7472241720e+01    0.3628184    0.2041037 -23.68  0.001449756    1.915    0.478
        18  -9.8197    186.5585     12.7113   4.6157980453e+01   3.6606138949e+01    0.2075744    0.1714942  63.21 0.0003415185    1.149    0.130
        19  -8.8506    171.3178      9.0769   4.7035244359e+01   4.0912180773e+01    0.1943061     0.167707  15.19 0.0007911835    1.308    0.235
        20  -9.9041    236.4235      6.2220   3.9429651057e+01   2.4929195667e+01    0.2588809    0.1441937 -28.29  0.001314801    1.831    0.454
        21  -9.8312    178.6108      6.8574   4.5400750803e+01   3.9239600843e+01    0.2129597    0.1930439 -75.77 0.0004398054    1.092    0.084
        22  -8.8038    160.0620      3.4570   4.6791408518e+01   4.4331497644e+01     0.337543    0.1827375 -28.22 0.0008276075    1.941    0.485
        23 -11.0737    243.5383      3.8572   3.8326098306e+01   2.3538143610e+01    0.4356138    0.1746791  88.77  0.001775019    2.956    0.662
        24  -8.0832    166.0330      5.7103   4.6690539665e+01   4.2593788450e+01    0.2429754    0.1919586   1.45 0.0009921157    1.469    0.319
        25  -9.8857    202.6942      2.6916   4.1532041600e+01   3.3487627159e+01    0.1771452    0.1595547 -15.06 0.0002900398    1.288    0.224
        26  -7.8384    210.5237      2.1434   4.0639819419e+01   3.1586636939e+01    0.1349336   0.07965126 -84.69 0.0003532402    1.733    0.423
        27  -8.3431    233.5587      1.3755   3.8501729291e+01   2.6102176232e+01    0.1248493    0.1101242 -83.36 0.0007931381    1.078    0.072
        28 -10.0621    228.9610      1.3253   3.8851042265e+01   2.7191629712e+01    0.1388125    0.1087433  77.24 0.0008255206    1.223    0.182
        29  -9.6624    216.3633      1.6133   3.9977447562e+01   3.0200445637e+01    0.1717818    0.1140783  70.49 0.0007896132    1.413    0.292
        30  -8.3543    181.3545      1.1794   4.3372453567e+01   3.9056261193e+01     0.136334   0.08412117  54.88 0.0006640726    1.531    0.347
        31  -9.1006    175.1701      1.4041   4.4168560557e+01   4.0625328337e+01    0.1897708    0.1215187  71.49 0.0006541326    1.417    0.294
        32  -8.7674    214.0822    156.7292   8.0281086200e+01   7.0998254282e+00     0.328239    0.2240311  18.18  0.001571747    1.675    0.403
        33  -8.9921    215.3176    162.0533   8.1206397091e+01   5.9684149531e+00     0.307394    0.2341327 -45.43 0.0009251209    1.492    0.330
        34  -7.9277    227.5105    159.5068   7.8398273054e+01   4.0156530761e+00    0.2486246    0.1715521   4.90 0.0008318949    1.667    0.400
        35  -8.4791    223.3309    158.0824   7.8850747173e+01   5.0515809505e+00    0.2409537    0.2266207 -14.71 0.0004334002    1.141    0.124
        36  -7.6037    212.3418    214.6709   9.1933059164e+01  -1.4514908027e+00    0.1158938   0.09919053  67.30 -7.482734e-05    1.743    0.426
        37  -8.0459    187.2945    139.9268   8.1782459511e+01   1.5722261469e+01    0.2404238     0.215294  78.59 0.0007970689    1.336    0.252
        38  -9.5084    184.1599    132.1352   8.0576619953e+01   1.7905166340e+01    0.6416582    0.3073327 -29.89  0.001909348    2.518    0.603
        39  -8.7065    198.1688    149.9931   8.1881281258e+01   1.1533677561e+01    0.9016944     0.549695 -31.06  0.004063316    1.698    0.411
        40  -7.9201    201.2593    143.4399   7.9766579227e+01   1.2064223299e+01    0.3192534    0.1866069 -53.76 0.0008596601    2.250    0.556
        41  -8.3094    188.2554    127.0613   7.8475417688e+01   1.7962290812e+01     0.758748    0.3482261 -52.74  0.002520654    3.030    0.670
        42  -9.9224    196.8983    136.1413   7.8920356228e+01   1.4337510499e+01     0.714159    0.4393177  66.50  0.001948366    2.462    0.594
        43  -8.8517    191.4746    141.4628   8.1278758922e+01   1.4526242198e+01    0.3409796    0.2711257 -63.68 6.341848e-05    1.584    0.369
        44  -9.1225    196.7202    142.6689   8.0494005575e+01   1.3173683588e+01    0.4031458     0.265161   9.25 0.0001915874    2.226    0.551
        45  -9.1687    194.9454    140.2051   8.0276595336e+01   1.4009984837e+01    0.3298006    0.2443425  47.98  0.001220223    1.379    0.275
        46  -8.0557    144.2551    155.3670   9.4696113421e+01   2.1682762496e+01    0.2126501    0.1329444  51.77 0.0009458843    1.626    0.385
        47 -10.4769     58.9635    150.3272   1.1428178742e+02   3.6994439343e+01    0.4473492     0.228269  52.19  0.002160431    2.054    0.513
        48  -7.9142    205.0162    148.6899   8.0231142693e+01   1.0336002817e+01     0.205881    0.1689738  37.67 0.0004066688    1.203    0.169
        49  -8.0845    104.1303    146.3066   1.0248245838e+02   3.1203467440e+01    0.2410623    0.1884203 -49.28 0.0006215401    1.312    0.238
        50  -7.3543     88.3194    150.3258   1.0710811351e+02   3.2872029576e+01    0.1352589    0.1079048 -29.08 0.0007046304    1.679    0.404
        51  -8.4756    142.3174    146.1415   9.3204106092e+01   2.4029800128e+01    0.2473268    0.1966289 -26.24  0.001213627    1.475    0.322
        52  -9.2149     69.4693    146.2459   1.1110217396e+02   3.6571730208e+01    0.2565579    0.1721683  18.66   0.00128102    2.180    0.541
        53  -9.3350    206.7119    142.7690   7.8541759424e+01   1.1028276792e+01    0.4162235    0.2717822 -52.92  0.001137282    1.893    0.472
        54  -9.8836     56.0399    142.9515   1.1395181888e+02   3.9072535777e+01    0.4016495    0.1854756 -59.98  0.001884642    1.882    0.469
        55  -9.1093     65.7104    143.8942   1.1167460191e+02   3.7625628487e+01    0.2181107    0.1491956 -54.30  0.001180052    1.437    0.304
        56  -8.4467    150.9939    142.6149   9.0404105956e+01   2.2991063343e+01    0.2776461    0.2021152 -30.22  0.001288801    1.563    0.360
        57  -8.8671    132.8769    142.3746   9.4635764814e+01   2.6742871800e+01    0.3246796    0.2126133  70.10  0.001352901    2.129    0.530
        58  -8.2060    159.1437    139.9533   8.7927027823e+01   2.1821499473e+01    0.2353537     0.207848 -84.60 0.0005680696    1.308    0.235
        59  -7.7812    208.5499    136.5120   7.6719023633e+01   1.1747703338e+01    0.2063381    0.1389069 -45.14 5.458599e-05    1.563    0.360
        60  -9.7622    206.0477    132.1370   7.6155380653e+01   1.3070680030e+01    0.3542199    0.2975346   2.12  0.001830969    1.252    0.201
        61  -7.2061    187.3074    135.3013   8.0681584767e+01   1.6600197180e+01    0.1546544    0.1180328   7.55 0.0004275335    1.599    0.375
        62  -7.2443    213.4757    134.4213   7.5286485348e+01   1.1062124406e+01    0.1500058    0.1345957   2.31 0.0004451087    1.079    0.073
        63  -8.1207    172.2846    132.5771   8.3239976669e+01   2.0458041438e+01    0.2493198    0.2288468  86.22 0.0005943623    1.241    0.194
        64 -10.3578    239.7144    205.3605   8.5405700128e+01  -4.7268424238e+00    0.2914594    0.2685311  25.13  0.002012264    1.365    0.267
        65  -9.1098    176.6840    130.1073   8.1678586775e+01   1.9969895653e+01    0.3685209    0.2781503  76.70 0.0005720059    1.810    0.448
        66  -9.3155    198.6664    129.4375   7.6947428891e+01   1.5186577928e+01    0.3210825    0.2364352  34.65  0.001076117    1.408    0.290
        67  -8.7397    195.7222    127.0111   7.6939645697e+01   1.6293343089e+01    0.2335584    0.2210749  57.64 0.0004305262    1.147    0.128
        68  -8.7571    165.7596    127.6159   8.3479232663e+01   2.2913028218e+01    0.4149367     0.211612 -44.16 0.0007084826    1.965    0.491
        69  -8.2282    145.5157    125.8447   8.7766020123e+01   2.7731879185e+01    0.2899999    0.2212458  45.53 0.0008097765    1.320    0.242
        70  -9.5386    134.2432    121.8020   8.9543460718e+01   3.1004055308e+01    0.3337929    0.2440302 -34.74  0.001045516    1.461    0.316
        71  -9.4707    123.9933    205.9879   1.0767800485e+02   1.5286488031e+01    0.1828083    0.1570123  56.37            0    1.006    0.006
        72  -9.1238    164.3539    118.1554   8.1407025045e+01   2.5163074009e+01    0.6208329    0.2545485 -47.25  0.001863943    2.582    0.613
        73  -9.6005    150.8925    118.0948   8.4528987524e+01   2.8210186796e+01    0.3667817    0.3552081  -6.78 0.0005098431    1.054    0.051
        74  -9.3183    139.4815    120.2653   8.7856236470e+01   3.0233513517e+01    0.3119895    0.2689439 -21.60  0.001558358    1.278    0.218
        75  -9.0466    169.7302    112.7069   7.8773688945e+01   2.5025450879e+01    0.4329101    0.4036668  79.11  0.001351872    1.174    0.148
        76  -8.9518    176.1848    110.6793   7.6822307141e+01   2.3917859261e+01    0.4998539    0.4483548  -0.12  0.001413898    1.189    0.159
        77  -8.5668    181.0716    105.3153   7.4344456839e+01   2.3800842721e+01    0.2640722    0.2421809 -14.64 0.0002638169    1.105    0.095
        78  -8.3506    177.5432    105.4352   7.5123339263e+01   2.4617268930e+01    0.2955162       0.2189  13.45 0.0004358917    1.759    0.432
        79  -9.3209    229.3753    201.2001   8.6455478204e+01  -2.4824353046e+00    0.1899138    0.1694703  71.10  0.000912682    1.771    0.435
        80  -9.4037    149.9529    111.0953   8.2922432099e+01   2.9895853729e+01    0.3586998    0.2638048  57.97  0.001321341    1.483    0.326
        81  -8.0595    157.5035    108.0516   8.0313559472e+01   2.8804548072e+01    0.3534488     0.204848  34.28  0.001363731    2.055    0.513
        82  -8.9924    155.7807    103.7990   7.9554532056e+01   3.0073165993e+01    0.3660088    0.2132469 -40.41  0.001483865    1.687    0.407
        83  -7.8179    170.0155    107.0470   7.7195605306e+01   2.6084806440e+01    0.2517856    0.1916773   4.51 0.0007676675    1.710    0.415
        84  -8.2557    166.0516    107.0481   7.8080517107e+01   2.7016991812e+01    0.2335479    0.2245592 -60.05 0.0004570274    1.077    0.072
        85 -15.8225    226.3990     87.8831   6.1378965540e+01   1.6135739458e+01     2.148121     1.481216 -34.41   0.01041865    1.339    0.253
        86  -8.5372     72.5846    103.6676   1.0214363838e+02   4.6199716612e+01    0.2585626    0.1967958 -41.86 0.0006449892    1.293    0.227
        87  -9.5322    160.7953    102.2515   7.7959899929e+01   2.9213789537e+01     0.297967    0.2791495 -63.37 0.0004853777    1.122    0.109
        88  -7.9807     44.1162     95.2012   1.0901264142e+02   5.1680724681e+01    0.1932293    0.1561765 -48.17  0.000489993    1.145    0.126
        89  -9.8162    163.3071     86.6836   7.2934373064e+01   3.1653879374e+01    0.3963031    0.2974824  55.21 0.0007220083    1.377    0.274
        90  -8.0804    213.5074    199.5334   8.9031183979e+01   4.7322954043e-01     0.132166    0.1110405  17.78 6.015584e-05    1.008    0.008
        91  -8.0304    168.7015     79.1024   6.9508140036e+01   3.1728550912e+01    0.2324232    0.2032288 -51.42 0.0005084262    1.176    0.149
        92 -15.6696    231.5912     70.4044   5.6089884264e+01   1.7693371474e+01     1.462563    0.9567578 -46.77   0.00629197    1.457    0.314
        93  -7.3507     14.1998     76.4081   1.1503396451e+02   5.8473310805e+01    0.1351818    0.1118247  43.81 0.0003758801    1.531    0.347
        94  -8.7078    168.0178     74.6731   6.8319736949e+01   3.2691645280e+01    0.2594716    0.2448734 -31.03 0.0003619377    1.047    0.045
        95 -10.3119    103.8433     72.5640   8.3945134006e+01   4.7790991008e+01    0.5418382    0.4988576 -80.30  0.002967993    1.292    0.226
        96 -10.0603    242.7519    195.9492   8.3117997506e+01  -3.9971924219e+00    0.2366151    0.2152474  10.55  0.001009432    1.256    0.204
        97 -14.8572    230.2036     49.2196   5.0797184118e+01   2.1123745561e+01     1.022212    0.5202479 -22.46  0.004229691    2.266    0.559
        98  -9.6079    250.5741    192.0505   8.1030956859e+01  -4.7559073580e+00    0.8245807    0.1703777 -39.89  0.002389672    6.481    0.846
        99  -8.3602    244.0991    161.5937   7.5927644747e+01   6.0514466290e-01    0.2767168    0.2020656  -7.58 0.0008257023    1.322    0.244
       100 -10.0883    248.4142    180.0177   7.9019842761e+01  -2.7883097572e+00    0.6026436    0.3868031 -49.29  0.003057241    2.329    0.571
       101  -9.2482    242.9202    177.8142   7.9516150977e+01  -1.5440558298e+00    0.2615207    0.1761392 -17.96 0.0008664723    1.409    0.290
       102  -9.7608    179.1303    152.2641   8.6316605228e+01   1.5114896292e+01    0.6774096    0.4646097 -51.57  0.002558831    1.634    0.388
       103 -10.2162    177.5396     25.9774   5.1418485792e+01   3.7477146313e+01    0.3284872    0.2186636  56.18 0.0005178974    1.425    0.298
       104  -9.1717    177.7300     32.0006   5.3259397207e+01   3.6691269354e+01    0.2687146    0.2197134   7.14 0.0002786372    1.432    0.302
       105  -9.4195    180.2845     29.0674   5.1957141534e+01   3.6390280540e+01     0.185689    0.1781996 -60.22 0.0003339438    1.054    0.052
       106  -9.5450    170.0320     30.1494   5.3921806140e+01   3.8926642939e+01    0.2471569    0.2093054 -10.38 0.0005340895    1.293    0.226
       107  -9.4538    162.1214     25.9199   5.3876827798e+01   4.1491758246e+01    0.3532862    0.2382736 -52.02  0.000589409    1.665    0.399
       108  -8.9765    167.2463     23.8099   5.2337584919e+01   4.0409122941e+01    0.2717428    0.2273931 -27.09 0.0008345094    1.256    0.204
       109  -8.5992    247.4348    164.2378   7.5923239127e+01  -3.8073302269e-01    0.2282522    0.2075756 -46.77 0.0006506384    1.447    0.309
       110  -9.8929    250.0703    173.5789   7.7427959605e+01  -2.1743146883e+00    0.4200573    0.3342686 -35.42  0.001431788    1.410    0.291
       111  -7.5846    195.4277     13.2051   4.5231049304e+01   3.4274241310e+01    0.1690181    0.1018583  75.94 1.838793e-05    1.600    0.375
       112  -9.0807    247.4979    168.0315   7.6711769245e+01  -9.4177555456e-01    0.3350345    0.2189737 -16.32  0.001021771    1.476    0.322
       113 -10.4033    233.5173    194.7216   8.4500122851e+01  -2.2963956695e+00    0.3390811    0.2526428  38.82  0.001462087    1.357    0.263
       114 -12.5021    238.4628    185.6620   8.1867055472e+01  -1.8824403961e+00     1.692781    0.9148586  40.77  0.008594041    1.791    0.442
       115  -9.1363    241.0182    172.5083   7.8757443770e+01  -4.5032802349e-01    0.2617734    0.2167527  10.05 0.0005763205    1.064    0.060
       116  -9.5633    237.1030    172.1579   7.9369864456e+01   2.9742028459e-01    0.3233143    0.2350307  -3.85 0.0006065562    1.359    0.264
       117 -11.1798    228.8369    178.4954   8.2145462509e+01   8.4264473674e-01    0.7189626    0.3769345  28.94  0.003297793    2.030    0.507
       118  -8.0178    203.3619    188.8258   8.8936997193e+01   3.9167467019e+00    0.1842457    0.1214108 -22.87 0.0009382635    1.682    0.405
       119 -10.6388    229.2723    170.0298   8.0322862118e+01   2.0418696422e+00     0.684207    0.5017745   8.60  0.002469697    1.391    0.281
       120 -10.1938    212.1082    182.3825   8.6018627101e+01   3.3097164440e+00    0.3775125    0.2337547   1.15  0.001700677    2.276    0.561
       121 -10.5979    210.4154    177.0928   8.5280922307e+01   4.4639806042e+00    0.3552507    0.3365912 -51.36  0.001200499    1.323    0.244
       122  -9.4974    204.2437    179.3296   8.6914815556e+01   5.2720597103e+00    0.2832009    0.1587778  27.69  0.001263682    1.974    0.493
       123  -9.8557    191.9682    178.4053   8.9141042201e+01   7.7789906869e+00     0.445659     0.270246  15.39  0.001890784    2.399    0.583
       124 -11.0796    204.4687    171.0901   8.5197607691e+01   6.5878883085e+00     1.034055    0.6033203   8.19  0.003057008    3.020    0.669
       125  -9.3961    220.3443    175.8170   8.3154662380e+01   2.8037839776e+00    0.3016321    0.2039933 -42.19  0.001019251    1.659    0.397
       126  -9.2341    216.4289    172.9187   8.3289721784e+01   3.9931009503e+00    0.4382088    0.2640569  -8.11  0.001924163    2.292    0.564
       127  -7.7067    220.4917    169.9780   8.1919865340e+01   3.6911260854e+00    0.1985905    0.1258794 -21.08 0.0009639515    1.668    0.400
       128 -11.0083    202.4651    163.0547   8.3899142735e+01   8.3478876650e+00     2.184619      1.36665   7.96   0.00912442    2.417    0.586
       129 -11.2863    197.5059    165.8999   8.5484234486e+01   8.8467738484e+00     1.289666    0.4899202  38.18 0.0003109656    2.742    0.635
       130  -8.0513    239.9014    162.6713   7.6881624723e+01   1.2062653192e+00    0.2186349    0.1662092 -10.18 0.0005026765    1.231    0.188
