#   1 NUMBER                 Running object number                                     
#   2 MAG_AUTO               Kron-like elliptical aperture magnitude                    [mag]
#   3 X_IMAGE                Object position along x                                    [pixel]
#   4 Y_IMAGE                Object position along y                                    [pixel]
#   5 X_WORLD                Barycenter position along world x axis                     [deg]
#   6 Y_WORLD                Barycenter position along world y axis                     [deg]
#   7 A_WORLD                Profile RMS along major axis (world units)                 [deg]
#   8 B_WORLD                Profile RMS along minor axis (world units)                 [deg]
#   9 THETA_WORLD            Position angle (CCW/world-x)                               [deg]
#  10 FWHM_WORLD             FWHM assuming a gaussian core                              [deg]
#  11 ELONGATION             A_IMAGE/B_IMAGE                                           
#  12 ELLIPTICITY            1 - B_IMAGE/A_IMAGE                                       
         1 -14.8935    162.9144     47.7540   7.4623605853e+01   3.8050003453e+01     1.355045     1.155415 -23.53  0.003825868    1.253    0.202
         2 -15.0621    176.8449     17.5228   6.2880122811e+01   3.8177193910e+01     1.328262     1.130611 -24.54  0.004628239    1.277    0.217
         3 -14.7612    190.2357     14.9051   6.0720641423e+01   3.4965834411e+01     1.611716    0.6975521 -74.60  0.005884707    3.047    0.672
         4 -10.9622    163.3066    244.4832   1.1755754417e+02   4.2306087201e+00    0.2392596    0.1470999  18.93 0.0009203888    1.381    0.276
         5 -20.3427     73.6371    178.8051   1.3016600296e+02   2.8525568303e+01     15.32105     7.243104 -70.22   0.06866284    2.376    0.579
         6 -11.4662    225.1455    175.2010   9.5045316608e+01   4.6514440270e+00    0.1562592    0.1412213  -5.65 0.0006058294    1.323    0.244
         7 -11.6357    203.2258    173.7111   9.8733514342e+01   8.2636646702e+00    0.2853868    0.1703695 -48.66  0.001397604    2.391    0.582
         8 -12.7021    177.0019    169.4454   1.0319629973e+02   1.3351219451e+01    0.4275059    0.2321962 -56.26  0.001727886    3.196    0.687
         9 -12.0137    195.2363    172.5771   1.0006282000e+02   9.7414818422e+00    0.3389297    0.2851775 -43.17  0.001406104    1.512    0.339
        10 -11.3421    207.7459    171.6375   9.7490038689e+01   7.8413410948e+00    0.3154968    0.2008921 -47.68 0.0008217221    2.170    0.539
        11 -12.1295    230.3140    166.8958   9.2593358679e+01   4.9909592593e+00    0.2727872    0.1390801 -40.60  0.001367515    2.229    0.551
        12 -12.3202    162.4976    167.7826   1.0605726053e+02   1.6204326523e+01    0.3059933    0.2159274  47.94  0.001337508    1.521    0.342
        13 -11.4584    192.3672    165.1555   9.9199629299e+01   1.1388442816e+01    0.3020362    0.2602729 -54.66  0.001771411    1.613    0.380
        14 -10.1147      3.6218    158.2413   1.4766386385e+02   4.0509011613e+01    0.1479862     0.100997 -81.17 0.0002779539    1.388    0.280
        15 -12.6432    189.1592    154.6734   9.7735965365e+01   1.3660481188e+01    0.5411317    0.4343745  18.69  0.002272993    1.142    0.124
        16 -10.7804     22.9571    156.0965   1.4219480200e+02   3.9541065025e+01    0.1930767    0.1662194  65.55 0.0004819507    1.044    0.042
        17 -12.5936    165.8566    154.0209   1.0258952524e+02   1.8093496584e+01    0.3644862     0.293441  62.51  0.001119969    1.619    0.382
        18 -12.3618    207.8217    225.1651   1.0654305067e+02   7.3253206371e-01    0.1982449    0.1444872  -5.24 0.0008597052    1.234    0.190
        19 -11.1862     16.9005    153.8969   1.4379224722e+02   4.0569016064e+01    0.3900639    0.2450888 -20.23  0.001980368    2.462    0.594
        20 -11.7397    174.3194    148.9096   9.9646722578e+01   1.7416794990e+01    0.3331964    0.2676677 -56.39  0.001321917    1.592    0.372
        21 -12.1968     27.2707    145.8531   1.4022592763e+02   4.1667219310e+01     0.365887    0.3610367 -23.53  0.001587056    1.243    0.196
        22  -9.8143    135.6895    229.2949   1.2132357746e+02   1.0144785780e+01    0.1625566    0.1247843  10.87 0.0004657875    1.330    0.248
        23  -9.9478    137.4942    226.5148   1.2061069266e+02   1.0314616313e+01    0.2208084    0.1535615  26.34 0.0007602767    1.162    0.139
        24 -11.0543      6.5636    229.3584   1.4883388808e+02   2.5529489517e+01    0.1297954    0.0890012  43.98 0.0002885825    1.143    0.125
        25 -10.5529    133.2335    221.9902   1.2097101005e+02   1.1633951963e+01    0.1751419    0.1394254  42.10 0.0003596749    1.200    0.167
        26 -10.9946    139.4512    248.3754   1.2269402710e+02   6.8776946791e+00    0.2724755    0.1229585 -56.63  0.001436361    3.431    0.709
        27 -10.7097    217.5586    217.9531   1.0370472494e+02   3.1677370172e-01     0.158207    0.1007346 -24.86 0.0007125472    1.586    0.370
        28 -12.7813    160.3721    127.9091   9.8095723909e+01   2.4167661951e+01    0.4850336    0.3347602 -49.47  0.001802217    1.602    0.376
        29 -10.9501     19.4064    215.4970   1.4579580306e+02   2.6967271348e+01    0.1594926    0.1282703 -79.13 7.038934e-05    1.471    0.320
        30 -13.7934     11.6299    205.9984   1.4719677010e+02   2.9526152552e+01    0.5322589    0.3280154  16.81  0.002427547    1.953    0.488
        31 -11.2501     19.5625    203.2587   1.4532806105e+02   2.9372391991e+01    0.1567984    0.1397265 -65.52  0.001090161    1.467    0.318
        32 -11.8735    139.4688    202.3721   1.1700727993e+02   1.3945833902e+01    0.3836979    0.3007414 -11.98  0.001811719    1.493    0.330
        33 -11.0974    231.2612    113.7198   8.1303874517e+01   1.2331069413e+01    0.2380834    0.2014431  -4.19 0.0007811321    1.119    0.106
        34 -10.9360    133.9395    198.3562   1.1769135661e+02   1.5512780963e+01     0.363174    0.2354387   8.87   0.00179718    1.974    0.493
        35 -10.9311    167.7421    112.7460   9.2678469150e+01   2.5502346418e+01    0.3030353    0.2267553 -81.59  0.001317744    2.077    0.519
        36 -12.0514    121.0414    197.2863   1.2054899345e+02   1.7724045266e+01    0.2422323    0.2057828  37.52 0.0003201577    1.047    0.045
        37 -11.8640    219.9794    197.4920   9.9935459918e+01   2.4886250538e+00    0.1988211    0.1562482 -30.50 0.0005689962    1.534    0.348
        38 -11.1501     19.5167    197.0390   1.4510125647e+02   3.0653596958e+01    0.1644125    0.1529355  28.38 0.0004781138    1.350    0.259
        39 -11.0230    204.8572    110.2793   8.4741475958e+01   1.7966101629e+01    0.3878678    0.1850438  46.56  0.001330174    2.186    0.543
        40 -11.3818    114.5116    250.6739   1.2792189497e+02   9.8201857257e+00    0.1178753   0.08043907  31.28 0.0001630836    1.099    0.090
        41 -11.1018    140.1070    241.2510   1.2178390322e+02   7.7790899702e+00    0.2085065    0.1600761 -33.37  0.001165828    1.667    0.400
        42 -12.4833    135.0376    238.5363   1.2251553262e+02   8.8578737727e+00    0.2894523    0.2770706  38.97  0.001361086    1.335    0.251
        43 -10.5175    145.2106    231.9675   1.1965961522e+02   8.4089527531e+00    0.2244163   0.09561741 -45.83  0.001124131    2.971    0.663
        44 -12.0288    185.5031    169.0086   1.0133698040e+02   1.1949943024e+01    0.4137021    0.2641326 -42.85  0.001286168    1.777    0.437
        45 -13.1954    189.2371    178.4120   1.0234478222e+02   9.8299448944e+00     0.454044    0.3443195  38.10  0.001282373    1.349    0.259
        46 -14.3758    151.5183     62.2927   8.1643733968e+01   3.8755140007e+01     1.326024     1.088673  25.38 0.0009487253    1.407    0.289
        47 -12.0202    188.3909    174.1739   1.0172889561e+02   1.0632967899e+01    0.2992367    0.2652139 -46.30  0.001062364    1.487    0.327
        48 -13.4209    167.3908     39.4326   7.1161285326e+01   3.8034401400e+01    0.5016524    0.4642007 -30.27 0.0009158046    1.139    0.122
        49 -11.1726     13.5796     59.9080   1.3604270087e+02   6.4929125122e+01     0.219608    0.1909445  31.59 0.0004427709    1.302    0.232
        50 -11.2722    127.9608    246.2982   1.2478294235e+02   8.6896883636e+00    0.1536651    0.1341204  20.71 0.0003605638    1.220    0.180
