#   1 NUMBER                 Running object number                                     
#   2 MAG_AUTO               Kron-like elliptical aperture magnitude                    [mag]
#   3 X_IMAGE                Object position along x                                    [pixel]
#   4 Y_IMAGE                Object position along y                                    [pixel]
#   5 X_WORLD                Barycenter position along world x axis                     [deg]
#   6 Y_WORLD                Barycenter position along world y axis                     [deg]
#   7 A_WORLD                Profile RMS along major axis (world units)                 [deg]
#   8 B_WORLD                Profile RMS along minor axis (world units)                 [deg]
#   9 THETA_WORLD            Position angle (CCW/world-x)                               [deg]
#  10 FWHM_WORLD             FWHM assuming a gaussian core                              [deg]
#  11 ELONGATION             A_IMAGE/B_IMAGE                                           
#  12 ELLIPTICITY            1 - B_IMAGE/A_IMAGE                                       
         1 -14.4271    159.8165    103.7962   3.4813025599e+01   2.9407073611e+01     6.295044     3.549879 -40.79   0.01178337    1.768    0.435
         2 -15.1223    244.7918     42.5409   7.5216650059e+00   2.0727130334e+01     5.114756     2.331102 -80.01   0.02166582    3.271    0.694
         3 -16.7636    240.9794    103.9379   2.0571659313e+01   1.2102584518e+01     6.328372     5.890352  71.05   0.03763321    1.221    0.181
         4  -8.4856     96.1311      6.1320   1.9310612942e+01   5.8317751440e+01    0.1501784    0.1403381 -89.28  0.000308926    1.286    0.222
         5  -8.2492    250.8085      4.9817   3.5994685427e+02   2.4110700949e+01    0.1289705   0.07388303 -42.35            0    1.621    0.383
         6  -9.5536    118.7655      3.5603   1.3748578350e+01   5.3528963454e+01    0.1924072    0.1746512  -5.67 0.0005292263    1.295    0.228
         7  -9.2937    112.9441      4.0480   1.4997859010e+01   5.4802239415e+01    0.1931759    0.1611925  54.01 0.0007159729    1.015    0.014
         8  -8.5829    237.7207      1.3263   1.1040503797e-01   2.7074842180e+01    0.1391924   0.08654855  75.81 0.0003027654    1.486    0.327
         9 -14.6246    247.1005     71.2374   1.3049831536e+01   1.6173296762e+01     2.602879     1.170025 -58.12   0.01147886    2.414    0.586
        10  -8.6603    225.0212    207.8010   4.4140228826e+01  -3.2127944404e+00    0.1735511    0.1688671  17.10  0.001140221    1.353    0.261
        11 -10.2828    250.0000    244.0921   4.5985975481e+01  -1.1826144720e+01    0.4607085    0.1294609 -35.61  0.002003887    3.320    0.699
        12  -8.9722    107.9589    204.8130   6.8829726066e+01   1.6833093034e+01    0.1867566    0.1833082  -8.84 0.0004122092    1.143    0.125
        13 -10.5200    204.2873    201.9379   4.7016745710e+01   9.9027712994e-01    0.4106441    0.3535648 -62.62  0.001165635    1.562    0.360
        14 -11.0601    192.9772    195.0275   4.7991781972e+01   4.1258387246e+00     0.983817    0.5164986 -63.30  0.003197773    4.709    0.788
        15  -8.6236    250.3306    198.2603   3.7931339624e+01  -5.2999285453e+00    0.1478105    0.1366268 -32.42  0.000736939    1.357    0.263
        16  -8.5522    157.6908    193.5113   5.5321551861e+01   1.0646645538e+01    0.2279459     0.177284 -76.59 0.0006805351    1.735    0.424
        17  -8.9405     16.0438    246.2218   9.2598887522e+01   2.0204723124e+01    0.1819697    0.1306366  83.80 0.0003256247    1.172    0.147
        18 -12.8274    215.4320    181.0714   4.0850431744e+01   2.8890842672e+00     1.220664     1.063475 -50.70  0.007250459    1.318    0.241
        19 -14.1683    193.6471    104.4155   2.8158581483e+01   2.1707817863e+01     3.009397     1.112675  49.34  0.009654609    2.829    0.647
        20  -8.5959    250.7866    222.9062   4.2268233512e+01  -9.0300754970e+00    0.1538538   0.08158379 -32.39 0.0008553637    1.663    0.399
        21  -8.3265    192.9686    223.4982   5.3128822677e+01  -9.4811756708e-01    0.1968323    0.1182257  35.49  0.001017357    1.560    0.359
        22  -7.8897    110.3510    167.2621   6.1906947305e+01   2.5171235971e+01    0.1485884    0.1197046  -6.19 0.0004248576    1.612    0.380
        23  -8.0414     18.2971    166.6768   8.6140178131e+01   3.7719618234e+01    0.1336201   0.08322991  70.19 0.0002690928    1.623    0.384
        24  -9.9818      7.4394    165.7093   8.8756776566e+01   3.8859163461e+01    0.2473514    0.1049298 -81.29  0.001133625    2.103    0.525
        25 -13.7745    238.1878     85.6816   1.7099049904e+01   1.5650757338e+01     1.236295    0.5344511 -32.31  0.005097282    2.666    0.625
        26  -7.8083    125.2971    160.3380   5.6669109592e+01   2.4083530757e+01    0.1560875    0.1212094 -16.16 0.0007031943    1.656    0.396
        27  -9.1959    220.2852    155.6492   3.4786238375e+01   6.7031432089e+00    0.2696981    0.2062817  79.01  0.001184145    2.020    0.505
        28 -11.4094    173.2013    149.1423   4.2747186644e+01   1.7064342473e+01    0.6466768    0.4110593 -38.40  0.002881166    1.573    0.364
        29 -10.3538      4.4936    153.0247   8.8331696357e+01   4.2128233272e+01    0.3313257    0.1415842  40.09  0.001616146    2.439    0.590
        30  -9.8651    210.6232    151.0585   3.5581369123e+01   9.3295201352e+00    0.4216389    0.3264745 -75.97  0.001796223    1.808    0.447
        31 -10.5041    209.4601    144.8359   3.4459303239e+01   1.0736321305e+01     0.487862    0.2874107 -40.08  0.002267087    1.565    0.361
        32  -9.1658     61.1235    149.3291   7.2194581288e+01   3.7352590728e+01    0.2941076    0.2332867 -36.32   0.00113953    1.412    0.292
        33 -13.5845    227.5115    167.8888   3.6007821405e+01   3.2334979189e+00     2.267213     1.574352  32.61  0.001383442    1.571    0.364
        34 -10.8120     69.8053    145.5914   6.9033007531e+01   3.7098460315e+01     0.423479    0.3822881  88.05  0.001518043    1.109    0.098
        35 -11.4362     66.3885    143.2006   6.9592982495e+01   3.8179628538e+01    0.9722403    0.4078181 -57.21  0.001752583    2.147    0.534
        36  -9.3356    157.0829    141.6781   4.4717346734e+01   2.1997039411e+01    0.2652285    0.2144183 -57.98 0.0006442507    1.296    0.228
        37 -10.6273    245.1614    185.0545   3.6325876278e+01  -2.4649970311e+00    0.2226774    0.2098745 -21.20 0.0003936906    1.245    0.197
        38 -13.5169      4.1180    127.8180   8.5750516009e+01   4.8237889046e+01     1.982096     1.598229 -16.10   0.01290559    1.522    0.343
        39 -13.2791     50.1565    124.0434   7.0958905341e+01   4.5050417848e+01     1.481458     1.080678  21.13  0.002013677    1.564    0.361
        40 -13.8081     41.9902    122.5858   7.3282798217e+01   4.6333570630e+01     2.702362     1.368072  19.88  0.003299021    2.420    0.587
        41  -8.1545     51.7316    186.7636   8.0016237145e+01   2.9270795606e+01    0.1171662     0.101159 -38.69 -0.000275831    1.424    0.298
        42 -12.2653     33.6459    123.8382   7.6150055240e+01   4.6877797666e+01     0.780203    0.4622553  12.85  0.001062443    2.144    0.534
        43 -11.1950    148.6465    110.5975   3.9143237427e+01   3.0523159122e+01     0.682864    0.3716656  39.11  0.002535566    2.013    0.503
        44 -10.8938    122.2265    103.2491   4.3944514091e+01   3.7821580228e+01    0.8679384    0.5950455 -87.55  0.003403319    2.525    0.604
        45  -8.9507    108.5034    107.2080   4.8866230792e+01   3.9760937452e+01    0.3169655    0.2331157  -0.83  0.001065874    1.903    0.474
        46 -10.2987    113.8113    104.5982   4.6647140539e+01   3.9273228682e+01    0.3979655    0.3305966  10.48  0.001559794    1.400    0.286
        47 -10.8232     33.8634    128.0657   7.6783511710e+01   4.5814663437e+01    0.3536569    0.2571366 -36.60  0.000412949    1.470    0.320
        48 -10.3049    143.0851    101.6425   3.8135764587e+01   3.3612254565e+01     0.333549    0.2899614  85.76 0.0007356247    1.295    0.228
        49  -8.1446    108.4477    100.3759   4.7040823297e+01   4.1268842567e+01    0.1475975    0.1440704  22.42 9.197593e-05    1.027    0.026
        50  -9.9169    127.3288     90.4807   3.9044652078e+01   3.9354729940e+01    0.2930075     0.250787 -34.52 0.0005624361    1.197    0.165
        51 -12.7152    176.1548     97.7039   2.9828578414e+01   2.6875134184e+01    0.8813066    0.6337373  -4.32 0.0009465525    2.209    0.547
        52  -8.4032    151.2097    180.4453   5.4335807576e+01   1.4612457695e+01    0.1959745    0.1374584  51.04 0.0004942534    1.519    0.342
        53 -10.8061    184.9718    170.1684   4.4726372103e+01   1.0402655982e+01     0.667082    0.4937274 -66.27  0.003199997    1.785    0.440
        54  -8.6722    132.1962     66.8526   3.0926154795e+01   4.2591249819e+01    0.1954965    0.1693719  14.26 0.0004202364    1.307    0.235
        55 -10.1664    139.2774     60.7125   2.7465508212e+01   4.1950425194e+01    0.3390082     0.177782 -35.21  0.001454629    2.028    0.507
        56 -11.4859    177.4798     48.9055   1.7042167576e+01   3.4647214141e+01    0.5110502    0.2848353  48.02  0.002375114    1.948    0.487
        57 -10.0487    183.2288     57.3663   1.8307956465e+01   3.2069510880e+01    0.2386352    0.1930773 -35.59 0.0005417619    1.334    0.250
        58 -11.9604    185.3109     52.9302   1.6870479054e+01   3.2234107300e+01    0.7486789    0.3703487 -47.77  0.003083209    2.012    0.503
        59  -8.6677    116.9981     56.9423   3.1650797828e+01   4.7629317495e+01    0.2273854     0.167959  14.94 0.0009948678    1.688    0.407
        60 -10.9439    188.4815     57.3873   1.7505169639e+01   3.0841989855e+01    0.5106384    0.2548765 -30.72  0.002048745    2.321    0.569
        61  -9.1634    134.4759     49.4676   2.5147164364e+01   4.4766206927e+01     0.241437    0.1303993  57.35 0.0005935701    1.731    0.422
        62  -9.4648    170.9380     50.3204   1.8458202526e+01   3.5996481645e+01    0.1941654    0.1652494  71.76 0.0002302581    1.093    0.085
        63 -10.7039    191.9157    144.2542   3.7717442109e+01   1.4287900603e+01     0.327084    0.2805692 -30.51 0.0003930887    1.137    0.121
        64  -9.9334    201.3843     46.9335   1.3183012769e+01   2.9380373178e+01    0.2657347    0.1542238  49.90  0.001307015    1.972    0.493
        65 -11.1800    140.0688     42.5519   2.1883308715e+01   4.4410581773e+01    0.5811597    0.3393197   1.84  0.002186818    3.626    0.724
        66 -10.7002    145.6550     42.7612   2.0847962373e+01   4.3060849265e+01    0.2954482    0.2191318  76.10  0.001571702    1.378    0.274
        67 -11.9647    191.5947    153.9385   3.9908937958e+01   1.2405672962e+01    0.8201072    0.5781811 -53.50   0.00301923    1.511    0.338
        68 -10.0290    179.0453     41.4541   1.4893273770e+01   3.5294948810e+01    0.2273951    0.2123448  89.88 0.0003729265    1.084    0.078
        69  -9.8064    121.1058     40.4811   2.5341613709e+01   4.9087129917e+01     0.373899    0.2205663 -20.22  0.000999826    2.115    0.527
        70  -9.7649    135.5073     40.4901   2.2187649518e+01   4.5755973627e+01    0.2505671    0.1141386 -44.24  0.001041085    2.458    0.593
        71  -9.5057    196.5578     38.5409   1.1813859601e+01   3.1607660105e+01    0.3145876    0.2075065  67.08 0.0005525559    1.423    0.297
        72  -9.6690    190.3205     36.8993   1.2211570702e+01   3.3255172155e+01    0.4057496    0.2126255 -50.08  0.001300662    1.887    0.470
        73  -9.3426    182.2695     35.1924   1.2855848293e+01   3.5346944620e+01    0.2516368    0.2012859   7.16 0.0008596563    1.834    0.455
        74 -10.3018    148.2823     34.5936   1.7981623766e+01   4.3484327931e+01    0.2799183     0.185542  37.12  0.000833375    1.754    0.430
        75 -10.1518    149.7006     30.6411   1.6593908920e+01   4.3623802780e+01     0.226303    0.1728866  -7.70 0.0007024979    1.707    0.414
        76  -8.0103    187.2710     24.3243   9.5428095229e+00   3.5495079334e+01    0.1184623   0.09553619  39.79  0.000310497    1.574    0.365
        77  -9.0448     44.5321     18.0468   4.0926479179e+01   6.6669663466e+01    0.1675829      0.10676 -26.47 0.0004650204    1.538    0.350
        78 -12.6147    192.9970    164.2414   4.1822707962e+01   1.0078124514e+01    0.8144925    0.5863696 -41.73  0.001445446    1.332    0.249
        79 -11.5435    200.1914    164.6604   4.0463388863e+01   8.6526475419e+00    0.5585339    0.4422844 -35.56   0.00133585    1.188    0.158
        80 -11.0038    177.3493    169.2314   4.6164240441e+01   1.2038352281e+01     0.617951    0.3037812 -57.02  0.002255723    2.765    0.638
        81  -9.4841     18.6233    222.1778   9.0633056094e+01   2.4894084768e+01    0.1605472   0.09306115 -68.90 0.0003656396    1.662    0.398
        82  -8.7357    239.7566    221.5822   4.3947511483e+01  -7.4140556738e+00    0.1578406    0.1087088  39.78 0.0007743972    1.741    0.426
        83  -8.6860    226.4657    215.5628   4.5275896665e+01  -4.6645179312e+00    0.1856514    0.1409325 -15.92 0.0004924093    1.168    0.144
        84 -10.2482    222.0037    212.7959   4.5605883592e+01  -3.5772598922e+00    0.2653252    0.2314097  46.29 0.0006571611    1.516    0.340
        85  -8.8591    187.7807    210.5495   5.1923214999e+01   2.1432336289e+00    0.1854571    0.1224876  45.23  0.000826692    1.638    0.389
