#   1 NUMBER                 Running object number                                     
#   2 MAG_AUTO               Kron-like elliptical aperture magnitude                    [mag]
#   3 X_IMAGE                Object position along x                                    [pixel]
#   4 Y_IMAGE                Object position along y                                    [pixel]
#   5 X_WORLD                Barycenter position along world x axis                     [deg]
#   6 Y_WORLD                Barycenter position along world y axis                     [deg]
#   7 A_WORLD                Profile RMS along major axis (world units)                 [deg]
#   8 B_WORLD                Profile RMS along minor axis (world units)                 [deg]
#   9 THETA_WORLD            Position angle (CCW/world-x)                               [deg]
#  10 FWHM_WORLD             FWHM assuming a gaussian core                              [deg]
#  11 ELONGATION             A_IMAGE/B_IMAGE                                           
#  12 ELLIPTICITY            1 - B_IMAGE/A_IMAGE                                       
         1  -8.8940    135.2672     11.9862   5.1353446834e+01   5.0210940108e+01    0.2081717    0.1925315 -13.75 0.0003753711    1.092    0.085
         2  -9.6870    200.4007      3.8050   3.9904148533e+01   3.2996921026e+01    0.2082463    0.1372843  -1.48 0.0009586829    1.720    0.418
         3  -8.5854    174.6098    222.0309   9.4500788239e+01   1.0040274593e+01    0.2024139    0.1263663 -42.54  0.001303913    2.203    0.546
         4 -12.1514    203.2131    229.1883   9.0888758509e+01   5.1557081570e+00      3.63764    0.9696387 -28.79   0.01419264    7.638    0.869
         5 -12.6047    213.5954    239.2332   9.0573079075e+01   2.8393700657e+00     2.075411    0.7728986 -24.00   0.01128076    4.275    0.766
         6 -12.9877    225.7521    173.9849   7.9251915165e+01   7.0671642985e+00      2.82221     1.159815 -19.04    0.0128858    3.337    0.700
         7 -12.4847    227.7448    197.3320   8.2737011666e+01   4.4642670226e+00     2.107348     1.093767 -23.15   0.01305837    2.200    0.545
         8 -14.7039    244.3086     20.0972   4.1008863757e+01   2.0417191604e+01     6.783397     3.204468 -11.48    0.0287172    2.290    0.563
         9 -11.3954    227.9389    222.5419   8.6338687295e+01   2.2285713502e+00    0.8377528    0.3919244 -32.36  0.005414709    2.719    0.632
        10 -12.9596    235.4731    197.3833   8.1589874874e+01   3.2938976960e+00     3.104278    0.5456869 -27.11   0.01009325    8.258    0.879
        11 -11.7804    238.4401    218.8488   8.4311369925e+01   1.0617569268e+00    0.5042111    0.2867997 -16.28  0.003124941    1.974    0.493
        12 -15.2345    245.6439    115.3862   6.4738723989e+01   9.8430420998e+00     7.888065     2.881271 -21.33   0.03219413    2.844    0.648
        13  -9.2887    163.7212    245.8226   9.8831642730e+01   9.1211097065e+00    0.2041934     0.173669 -44.17  0.001836589    1.729    0.422
        14  -9.6202    156.4972    247.6678   1.0013148451e+02   9.9257315941e+00    0.2972114    0.2095958 -25.94  0.002362353    2.215    0.549
        15  -9.9535    140.4615    247.4877   1.0261912171e+02   1.2127605197e+01    0.3113301    0.2327502  -3.41   0.00239376    2.280    0.561
        16  -9.8366    124.6987    248.2750   1.0517321920e+02   1.4150735401e+01    0.2538721    0.1474947 -41.76  0.001810241    2.891    0.654
        17  -9.5401    112.8051    245.5677   1.0685289003e+02   1.6033469258e+01    0.2275898    0.1470744 -43.34  0.001709097    2.579    0.612
        18  -9.4201     87.8461    249.3754   1.1110290183e+02   1.8725121445e+01    0.2272036    0.1410804  23.94  0.001536379    2.525    0.604
        19  -8.9374     73.7731    250.1113   1.1337351161e+02   2.0317803519e+01    0.2207956    0.1006411  34.18  0.001414867    2.189    0.543
        20  -9.4350     49.2225    249.6745   1.1720687961e+02   2.3141697166e+01     0.319437   0.09321942  34.82   0.00165096    3.417    0.707
        21  -8.7233      2.6988    250.4245   1.2432488928e+02   2.7612196758e+01    0.1609241   0.05054657  41.25  0.001050036    1.992    0.498
        22  -9.5399    176.8920    234.5822   9.5589884345e+01   8.4023035901e+00    0.3803398    0.1768833 -34.41  0.002374638    3.144    0.682
        23  -9.1225    174.1316    228.1078   9.5290931770e+01   9.4645635714e+00    0.2140764     0.157213 -28.54    0.0016634    1.857    0.461
        24  -9.8338    180.5056    222.2566   9.3578459366e+01   9.1409220581e+00    0.4754712    0.1380119 -44.96  0.002209109    5.146    0.806
        25  -9.0945    179.2513    216.4675   9.3066175333e+01   9.9458907257e+00    0.1799485    0.1622835  -2.35 0.0009393594    1.362    0.266
        26  -8.9385    186.3145    210.1808   9.1105202491e+01   9.5486196239e+00    0.2141731    0.1686981   2.34  0.001086985    1.457    0.314
        27 -10.0997    176.8558    244.3236   9.6656310517e+01   7.4530809711e+00     0.343783    0.2468525  -0.42  0.002190505    1.902    0.474
        28  -9.7226    183.5643    238.4569   9.4988674767e+01   7.0775868153e+00    0.3110199    0.2257192 -18.69  0.002058089    1.869    0.465
        29  -9.3573    184.9047    228.8570   9.3674171780e+01   7.8218887144e+00    0.3930198    0.1731967 -48.91   0.00220735    3.906    0.744
        30  -9.5683    185.8120    219.1047   9.2338929632e+01   8.6795389821e+00    0.5062174    0.1470551 -41.06  0.002421572    4.651    0.785
        31  -9.9074    190.8007    234.3111   9.3402549916e+01   6.4483070448e+00    0.4434439    0.3291317 -34.02  0.003261494    1.863    0.463
        32  -8.9782    190.5241    225.2240   9.2354654956e+01   7.3638267657e+00    0.2500802    0.1792496 -20.35  0.001575635    1.804    0.446
        33  -9.4943     63.0226    247.6903   1.1494572299e+02   2.1874739208e+01    0.2433976   0.09620846  34.39  0.001447443    2.525    0.604
        34  -9.3268     18.7602    248.0989   1.2185687399e+02   2.6452726822e+01    0.2332139   0.08072176  38.96  0.001575812    2.083    0.520
        35  -9.2053     11.4608    247.9696   1.2296251363e+02   2.7154939722e+01    0.1878633   0.06616954  49.64  0.001371892    1.621    0.383
        36  -9.1236    134.9901    240.5003   1.0286147721e+02   1.3655955649e+01    0.2018853    0.1518455 -56.57  0.001674877    1.901    0.474
        37  -9.4601    148.5148    239.5588   1.0060395920e+02   1.1890227661e+01    0.2331252    0.1907047 -42.45  0.002003446    1.766    0.434
        38  -9.0422    151.6828    244.6692   1.0059534477e+02   1.0898990270e+01    0.1831204    0.1392326  18.38 0.0009618421    1.582    0.368
        39  -8.7029    154.6340    241.2327   9.9796064636e+01   1.0855858262e+01    0.2554595    0.1305786 -39.07  0.001701059    2.979    0.664
        40 -10.3584    118.5338    241.4206   1.0559971776e+02   1.5776302730e+01    0.3526267     0.188554 -62.27  0.002490154    2.654    0.623
        41  -9.6135    169.6101    240.7359   9.7395475703e+01   8.8139658416e+00    0.2462178    0.1872354  -1.35  0.001542407    1.783    0.439
        42  -9.5001     81.6560    243.3605   1.1172010948e+02   2.0249822505e+01    0.2480029   0.07618463  36.18   0.00124902    3.030    0.670
        43  -8.6963    108.0242    249.2172   1.0788905408e+02   1.6214877081e+01    0.1695273    0.1346572  19.84   0.00141057    1.804    0.446
        44  -9.8703    159.4637    237.7249   9.8676726463e+01   1.0552481300e+01    0.3180974    0.2105544 -46.81   0.00244872    2.175    0.540
        45  -8.6660     15.7913    239.5975   1.2209123465e+02   2.7916367294e+01    0.1381601   0.04769183  46.93 0.0009527312    1.716    0.417
        46  -8.7652     43.4792    243.4822   1.1785367225e+02   2.4593760204e+01    0.1578027   0.07777067  31.04  0.001034495    2.408    0.585
        47  -8.9853    139.1693    235.9478   1.0176255104e+02   1.3603326271e+01    0.2162765    0.1564356 -43.84  0.001712805    2.009    0.502
        48  -9.2206    132.9437    245.6738   1.0364724785e+02   1.3344592083e+01    0.2119437    0.1610566 -22.11  0.001677486    2.260    0.558
        49  -9.0896    170.6569    233.8711   9.6492081138e+01   9.3659385349e+00    0.2039174    0.1334728 -30.90  0.001326125    2.175    0.540
        50  -9.5240     94.4958    243.9653   1.0968370258e+02   1.8582152880e+01    0.1882302    0.1110625  34.59 0.0009702886    1.651    0.394
        51  -8.5984    152.8572    233.4837   9.9298243171e+01   1.1951717402e+01    0.1712338     0.131811 -11.31  0.001318601    1.963    0.491
        52  -8.3229    165.4573    232.9264   9.7214870770e+01   1.0210194524e+01    0.1173487    0.1051537 -31.81 0.0007109222    1.557    0.358
        53  -9.0563    144.7542    231.9058   1.0045635082e+02   1.3284953746e+01    0.2153974    0.1701713 -57.07  0.001591103    1.789    0.441
        54  -8.5114    143.6040    226.7502   1.0012235603e+02   1.4056712008e+01    0.1783999    0.1290258 -47.48  0.001365165    1.929    0.482
        55  -9.1897    122.6446    232.0965   1.0412630848e+02   1.6363030474e+01    0.2047612    0.1232694 -48.32  0.001453359    2.418    0.586
        56  -8.8647     99.6735    232.4803   1.0799854859e+02   1.9406207815e+01    0.1452744   0.09323292 -69.66  0.001096288    2.028    0.507
        57  -8.7568    133.5051    231.4754   1.0226628181e+02   1.4926916523e+01    0.1628168    0.1054932 -52.85  0.001203253    2.159    0.537
        58  -9.1987    113.5111    230.7626   1.0553674063e+02   1.7783213081e+01     0.200704    0.1040107 -65.76   0.00131822    2.694    0.629
        59  -8.5459    158.1089    230.6856   9.8154739788e+01   1.1510369455e+01    0.1475263    0.1334654  64.46 0.0008772764    1.390    0.281
        60  -8.5728    169.4423    228.0590   9.6036443746e+01   1.0153262459e+01    0.1568803    0.1022293 -31.33  0.001126006    2.164    0.538
        61  -8.4617    170.4407    224.0623   9.5415849825e+01   1.0437972694e+01    0.1607282    0.1032555 -31.75 0.0008887748    2.169    0.539
        62  -8.5254    152.3164    228.9663   9.8915448271e+01   1.2539711241e+01     0.136984    0.1142142  40.95 0.0007643234    1.170    0.145
        63  -9.2983    162.6504    226.0796   9.6912675354e+01   1.1362004113e+01    0.2814758    0.2446439 -80.43  0.002321878    1.688    0.408
        64  -8.6954    165.5055    220.9895   9.5863347358e+01   1.1510239096e+01     0.179728    0.1061434 -34.51 0.0008183775    2.389    0.581
        65  -8.3025    138.4938    227.9601   1.0109549861e+02   1.4645082441e+01    0.1236768     0.107152 -58.42 0.0008716478    1.599    0.375
        66  -8.8860    129.1284    224.3783   1.0231678039e+02   1.6426129983e+01    0.1517659    0.1448389  21.22  0.001315984    1.406    0.289
        67  -9.2740    148.0783    222.5398   9.8931616357e+01   1.3909674807e+01    0.2285032    0.1663572 -51.46   0.00173159    1.896    0.473
        68  -8.0708    135.3483    223.8452   1.0121057248e+02   1.5602015316e+01    0.1196075   0.09898892 -32.21 0.0009410684    1.769    0.435
        69  -8.4243    140.5487    221.3069   1.0006893165e+02   1.5163190189e+01      0.15467    0.1083163 -61.17 0.0008962444    1.993    0.498
        70  -7.7937    114.3262    222.3404   1.0465762577e+02   1.8778848175e+01   0.09785528   0.07543119  21.62 0.0006471234    1.732    0.423
        71  -8.7292    158.9092    218.6014   9.6679391359e+01   1.2770333127e+01    0.1787738    0.1442505  -2.41  0.001358744    1.660    0.398
        72  -9.3136    170.9477    216.0576   9.4376653168e+01   1.1248385482e+01    0.2514076    0.1662991 -34.50  0.001768356    2.031    0.508
        73  -8.1243    135.5085    218.5096   1.0063554984e+02   1.6253028034e+01    0.1101539    0.0810356  44.07 0.0003756112    1.039    0.037
        74  -9.7765    103.9261    242.7888   1.0807398987e+02   1.7527447404e+01    0.2219225    0.1530953 -39.77  0.001663676    2.602    0.616
        75  -8.7437    165.2007    215.4697   9.5259234885e+01   1.2186993375e+01    0.1607982      0.15349 -10.67 0.0009098794    1.372    0.271
        76  -8.6767    143.0901    215.3864   9.8997006329e+01   1.5529608157e+01    0.1595976    0.1458287  15.69    0.0011158    1.366    0.268
        77  -8.4399    154.2789    213.3782   9.6852542477e+01   1.4094460772e+01    0.1570847    0.1319712 -17.62 0.0006830321    1.617    0.382
        78  -8.6698    131.6197    214.2414   1.0086090255e+02   1.7379785198e+01    0.1220076    0.1045564 -36.38 0.0009483522    1.651    0.394
        79  -9.2976    176.9021    210.1368   9.2646241299e+01   1.1005412909e+01    0.2338898    0.1837711 -34.03  0.001346405    1.661    0.398
        80  -9.4443    192.8913    209.4830   8.9946643171e+01   8.6113822909e+00     0.220936    0.1764495 -40.73 0.0009516729    1.727    0.421
        81  -9.0361    160.9481    210.0779   9.5320113037e+01   1.3475997891e+01    0.2057842    0.1618539 -25.65  0.001211835    1.711    0.416
        82  -8.0111    149.2751    211.3262   9.7470862800e+01   1.5110162010e+01     0.102856   0.07592657  20.97 0.0004474962    1.586    0.369
        83  -8.0817    167.3679    207.8404   9.3949792102e+01   1.2750418712e+01    0.1323257     0.101987 -16.29 0.0009401375    1.735    0.424
        84  -8.2724    183.0834    206.4071   9.1131434311e+01   1.0464154434e+01    0.1707948    0.1374346  10.27  0.001274128    1.348    0.258
        85  -8.0123    171.4578    207.4549   9.3209359484e+01   1.2158898528e+01    0.1131313   0.08522771  39.37 0.0001285881    1.015    0.015
        86  -8.4207    156.3664    206.2779   9.5638598560e+01   1.4654133077e+01    0.1694135    0.1085943 -39.76  0.001041253    2.083    0.520
        87  -8.2264    126.0000    206.9754   1.0108202304e+02   1.9200075326e+01    0.1460201   0.06481398 -55.27 0.0008015017    2.936    0.659
        88  -8.1887    120.2142    207.0658   1.0213303731e+02   2.0043864130e+01    0.1214898   0.09081113 -61.16 0.0008732287    1.717    0.417
        89  -8.5810    150.1127    206.1570   9.6712066478e+01   1.5640300542e+01    0.1536703    0.1138377  56.47  0.001077997    1.310    0.237
        90  -9.4530    197.7196    203.5321   8.8345325168e+01   8.4898391992e+00    0.2677065    0.1888171 -18.58  0.001184175    1.717    0.418
        91  -9.2160    139.5767    204.6637   9.8394050586e+01   1.7462529419e+01    0.1806178    0.1099777 -43.85  0.001147934    2.220    0.550
        92  -8.7731    178.8303    203.3515   9.1427288396e+01   1.1479245749e+01     0.183702    0.1558702  -8.39 0.0009042444    1.416    0.294
        93  -8.5762    172.7519    203.1973   9.2432115672e+01   1.2458149983e+01    0.1583774    0.1428718 -36.94  0.001235356    1.453    0.312
        94  -8.3999    192.9456    201.6171   8.8849239003e+01   9.4441315816e+00    0.1603041    0.1464557 -31.11 0.0009008707    1.458    0.314
        95  -8.4122    191.3434    197.2269   8.8484602838e+01   1.0183581208e+01    0.1785536    0.1408552   6.55 0.0006892649    1.363    0.267
        96  -8.9747    194.2055    193.9437   8.7530519239e+01   1.0090250485e+01    0.1735486    0.1556995  14.94 0.0009467841    1.208    0.172
        97  -9.1927    164.4848    201.5366   9.3629228608e+01   1.3970143958e+01     0.226273    0.1685931   6.26  0.001516282    1.762    0.432
        98  -8.7987    131.4620    201.9608   9.9539772902e+01   1.9077796247e+01    0.1412552    0.1136421 -58.98 0.0006736958    1.597    0.374
        99  -9.2299    184.0099    196.1164   8.9549117383e+01   1.1491142257e+01    0.3085672    0.2014138 -11.59  0.001889952    2.158    0.537
       100  -8.7734    185.2820    190.0258   8.8444667774e+01   1.2000733568e+01    0.2611728     0.172505 -31.89  0.001679469    1.859    0.462
       101  -8.9407    176.2411    196.6894   9.0949279485e+01   1.2679201952e+01    0.2025232    0.1493377 -33.83 0.0009562553    1.710    0.415
       102  -8.5918    149.1115    197.3497   9.5796088902e+01   1.6957645086e+01    0.1715641    0.1578454  -7.05  0.001309307    1.383    0.277
       103  -8.2596    156.5403    196.9682   9.4421289191e+01   1.5821200588e+01    0.1420541    0.1167134 -45.31 0.0007973459    1.570    0.363
       104  -9.3365    186.6724    202.7837   9.0043781821e+01   1.0305376772e+01    0.2155647    0.1993776  88.90  0.001237177    1.582    0.368
       105  -9.5826    202.0768    196.5848   8.6636007186e+01   8.5391185056e+00    0.2385082    0.2023098  -5.10  0.001039745    1.315    0.239
       106  -7.6821    157.3115    193.3248   9.3798869047e+01   1.6177362998e+01    0.1138549   0.08117097  20.05  0.000568921    1.658    0.397
       107  -8.6222    162.0949    191.3875   9.2680004852e+01   1.5652222638e+01    0.1796526    0.1556526 -15.36  0.001301219    1.440    0.306
       108  -8.5463    170.0908    197.1357   9.2069203196e+01   1.3618135465e+01    0.1750681    0.1327636  29.03 0.0007251298    1.208    0.172
       109  -8.8281    205.1225    190.3926   8.5207195378e+01   8.7131422860e+00    0.2161371    0.1496335 -19.07 0.0007726756    1.672    0.402
       110  -8.9170    198.9059    190.1984   8.6191662843e+01   9.7445827382e+00    0.2300005    0.1761961  -9.27  0.001081945    1.475    0.322
       111  -8.9975    179.0301    188.9288   8.9353994818e+01   1.3168038062e+01    0.2121945    0.1655753 -24.73 0.0009769356    1.565    0.361
       112  -7.7159    139.6815    190.6582   9.6659965300e+01   1.9396734681e+01    0.1127453   0.08496595  17.56 0.0007049342    1.716    0.417
       113  -8.8719    192.9328    187.4657   8.6765306022e+01   1.1036714649e+01    0.2170868    0.1506652  19.32 0.0008174988    1.462    0.316
       114  -8.2843    156.5247    187.0229   9.3074277469e+01   1.7156740832e+01    0.1517738     0.119592 -40.64   0.00102952    1.595    0.373
       115  -9.7038    205.4308    160.3776   8.0126590043e+01   1.2094389151e+01    0.3761455    0.2786594  -1.16  0.002332657    1.452    0.311
       116  -9.8601    203.3200    182.5515   8.4267619395e+01   9.8713347251e+00    0.3128958    0.2163818 -28.12  0.001575771    1.683    0.406
       117  -9.5442    205.0979    176.3132   8.2954592199e+01   1.0278511506e+01     0.326367     0.190244 -16.77  0.001833078    2.153    0.536
       118  -9.3912    205.3346    168.5149   8.1588587765e+01   1.1141000560e+01    0.3587902    0.1877679 -32.04   0.00194843    2.166    0.538
       119  -8.9332    172.2790    190.1008   9.0699456108e+01   1.4140191631e+01     0.208195    0.1520685 -19.05   0.00127634    1.787    0.440
       120  -8.6432    189.5567    184.6370   8.6899106690e+01   1.1931946710e+01    0.1810142    0.1142471 -26.76 0.0009234925    1.938    0.484
       121  -8.3544    173.4410    184.5060   8.9673455238e+01   1.4660025687e+01    0.1998549     0.118747 -39.42 0.0008399211    2.080    0.519
       122  -9.1592    183.8681    182.2765   8.7508782780e+01   1.3178165033e+01    0.2616737    0.1685639 -26.09  0.001277235    1.931    0.482
       123  -8.6313    139.1881    184.3904   9.5930640337e+01   2.0391142351e+01    0.1796288   0.09013645  50.45 0.0009480803    1.718    0.418
       124  -7.4862    162.3654    183.2980   9.1478842151e+01   1.6688292189e+01    0.1219811    0.0824459  22.25 0.0003878122    1.724    0.420
       125  -8.7954    197.1933    181.6609   8.5141842792e+01   1.0999380794e+01    0.1985737    0.1564494  -9.03 0.0006943552    1.411    0.292
       126  -8.8482    176.6734    180.6789   8.8520191125e+01   1.4604840048e+01     0.229055    0.1421372 -37.82  0.001367339    1.965    0.491
       127  -8.6710    166.3391    185.5222   9.1087217775e+01   1.5721621470e+01    0.1998737    0.1518448 -31.73  0.001330808    1.645    0.392
       128  -9.1493    190.9997    178.2381   8.5640986505e+01   1.2458345497e+01    0.2458275    0.1763907 -23.12  0.001098629    1.638    0.389
       129  -7.8677    145.5054    179.4701   9.4055833078e+01   2.0072059975e+01     0.122271   0.09912289  43.70 0.0003414437    1.033    0.032
       130  -9.0749    197.7003    175.6895   8.4085539869e+01   1.1615255672e+01    0.2284972    0.1755824 -12.84 0.0009751468    1.456    0.313
       131  -8.1900    169.1730    176.8894   8.9276624289e+01   1.6395577273e+01    0.1640281    0.1296079  17.43 0.0009085809    1.373    0.272
       132 -11.9838    248.6921    180.6229   7.6954608625e+01   2.7868233493e+00    0.8396071     0.242246 -33.27   0.00380818    3.927    0.745
       133  -8.7175    182.6028    174.9990   8.6575412357e+01   1.4313435280e+01    0.2217659    0.1185404 -35.80  0.001202565    2.242    0.554
       134 -10.3838    101.0066    175.9925   1.0239090689e+02   2.7775964390e+01    0.1707253    0.1362189  57.26  0.001164037    1.002    0.002
       135  -8.1504    161.5054    174.5035   9.0314465585e+01   1.8055625625e+01    0.1241545    0.1013625  38.16 0.0008101469    1.050    0.048
       136  -8.7750    192.5530    172.5141   8.4434357126e+01   1.2891463026e+01    0.2063438    0.1190169 -32.21 0.0008560118    2.030    0.507
       137  -8.3661    187.4732    171.9886   8.5227217634e+01   1.3846476829e+01    0.1599651    0.1200371 -28.69 0.0006690495    1.551    0.355
       138  -8.3694    200.8168    171.1577   8.2799439136e+01   1.1615640590e+01    0.1612147    0.1224259   9.21  0.001032869    1.353    0.261
       139  -9.0669    211.9399    168.5648   8.0509410852e+01   9.9881097587e+00    0.2476022     0.186295 -30.53  0.001620586    1.538    0.350
       140  -9.3251    143.0245    170.4804   9.3222603520e+01   2.1854149548e+01    0.1946444    0.1036047  44.27  0.000553342    1.558    0.358
       141  -8.3079    197.3158    168.8528   8.2997909477e+01   1.2506491685e+01    0.1529696     0.106303 -15.02 0.0005891866    1.679    0.404
       142  -9.0041    178.8757    167.9674   8.6080263470e+01   1.5894356144e+01    0.2736461    0.1660259 -26.01  0.001496117    2.103    0.525
       143  -8.0230    170.0000    167.9734   8.7699247516e+01   1.7478775792e+01     0.176778   0.07220476 -41.18  0.000798837    2.918    0.657
       144  -9.4029    191.8811    164.4666   8.3174356392e+01   1.4021721900e+01    0.3216636    0.1821398 -26.83   0.00164481    2.120    0.528
       145  -9.1193    199.5459    163.7083   8.1719506637e+01   1.2742444477e+01    0.2909792    0.1407813 -32.70  0.001270076    2.350    0.575
       146  -8.8402    184.7784    164.5474   8.4440109187e+01   1.5290572997e+01    0.2222296    0.1555394 -11.80  0.001180813    1.800    0.444
       147  -8.1178    172.4952    163.0624   8.6414505953e+01   1.7719324927e+01    0.1691102    0.1260087 -36.29 0.0008550702    1.572    0.364
       148  -9.0348    146.3967    162.7713   9.1365920927e+01   2.2468195956e+01    0.1603124    0.1213739 -32.38 0.0009561791    1.673    0.402
       149  -8.2279    163.4808    160.9977   8.7754691438e+01   1.9659229860e+01    0.1653792    0.1090188  -9.26 0.0006418215    2.521    0.603
       150  -8.9873    176.5687    158.7795   8.4918071112e+01   1.7576100578e+01    0.2628358     0.124894 -40.85   0.00115746    2.447    0.591
       151  -8.3412    158.4735    159.4933   8.8460931602e+01   2.0798539679e+01    0.1283662    0.1093483  42.43 7.817679e-05    1.008    0.008
       152  -9.2289    196.9782    156.3983   8.0839083544e+01   1.4127207461e+01    0.3168671    0.1833325 -24.41  0.001300967    2.030    0.507
       153  -8.6811    127.3151    166.6603   9.5792555263e+01   2.5147001946e+01    0.1275556    0.0869969  70.28 0.0007047789    1.702    0.413
       154  -8.8214    140.4692    157.4642   9.1698594689e+01   2.4379508173e+01    0.1286944     0.109935  48.54 0.0008087628    1.011    0.011
       155  -8.8121    187.5366    155.2383   8.2287801983e+01   1.6028869593e+01    0.2706738     0.126262 -32.15  0.001268323    2.520    0.603
       156  -8.4601    113.3193    156.3248   9.7218426658e+01   2.9278890411e+01    0.1174743   0.09956467   7.57 0.0007045761    1.676    0.403
       157  -8.2346    154.6912    155.6718   8.8547446551e+01   2.2081573867e+01     0.126978    0.0959939  15.61 0.0004952992    1.660    0.398
       158  -8.9569    205.8718    153.5690   7.8792669209e+01   1.2846687245e+01    0.2452536    0.1680986   4.07  0.001076209    1.681    0.405
       159 -10.0070    144.1451    153.5286   9.0295501540e+01   2.4361279258e+01     0.212087    0.1780771  78.99  0.001304724    1.350    0.259
       160  -8.2726    192.5153    153.1116   8.1009196438e+01   1.5383747799e+01    0.1727449    0.1248085 -29.73  0.001015505    1.540    0.351
       161  -8.1994    171.5622    153.2125   8.4854407263e+01   1.9308488332e+01    0.1680093    0.1230133 -19.46 0.0009293197    1.687    0.407
       162  -9.3910    157.4080    152.2638   8.7415972262e+01   2.2110457051e+01    0.2216885    0.1274409 -37.49  0.001121913    2.080    0.519
       163  -8.3770    151.4044    151.8154   8.8531524117e+01   2.3301442840e+01    0.1659021    0.1247002 -28.43 0.0009442012    1.667    0.400
       164  -8.6564    202.4030    150.3937   7.8778061827e+01   1.3887380019e+01    0.2123717    0.1202265 -23.50 0.0007935998    2.033    0.508
       165  -8.7870    136.3167    151.3400   9.1541369505e+01   2.6151378239e+01    0.1261623    0.1002621  11.19 0.0004951206    1.707    0.414
       166  -8.7117    196.7648    149.1059   7.9504753476e+01   1.5113290330e+01    0.2807587    0.1694324 -18.24  0.001018381    2.036    0.509
       167  -8.8527    200.2613    144.5991   7.8020755370e+01   1.5039261916e+01    0.2440929    0.1771542 -15.87  0.001411569    1.504    0.335
       168  -9.0742    121.5059    150.5077   9.4556912222e+01   2.8928990636e+01    0.1299008    0.1118679  56.33 0.0008106083    1.007    0.007
       169  -8.3904    181.8318    149.1671   8.2191219924e+01   1.7943944616e+01    0.1752816    0.1414368  10.02 0.0005482776    1.341    0.254
       170  -8.1520    172.3584    148.7533   8.3882281766e+01   1.9814738493e+01    0.1694828     0.121862 -23.18 0.0006082123    1.674    0.403
       171  -9.3619    162.0952    148.3471   8.5786396688e+01   2.1836434287e+01    0.2191284    0.1788299 -24.30  0.001315095    1.442    0.306
       172  -8.2666    208.5689    148.5187   7.7374804341e+01   1.2971902134e+01    0.1701315    0.1149543 -14.40 0.0005113268    1.630    0.386
       173  -9.3737    208.0190    143.9990   7.6580687959e+01   1.3639117846e+01     0.448877    0.2626409  -4.06  0.002132761    2.410    0.585
       174  -8.3079    191.0379    147.5025   8.0206568481e+01   1.6415928523e+01    0.1953468    0.1601684 -25.38 0.0008785437    1.334    0.250
       175  -9.2173    132.4901    146.9959   9.1612329096e+01   2.7595692544e+01    0.1866237    0.1308114 -52.25  0.001040486    1.613    0.380
       176  -8.9657    176.5003    145.0251   8.2392302956e+01   1.9567391463e+01    0.2643205    0.1302336 -30.51   0.00115795    2.523    0.604
       177  -8.0643    166.7737    145.9711   8.4431216970e+01   2.1306607104e+01    0.1582323    0.1103869 -38.41 0.0006313612    1.626    0.385
       178  -9.9831    154.9714    143.3559   8.6278046389e+01   2.3994466134e+01    0.3077749    0.1901781 -39.91  0.001394472    1.855    0.461
       179 -10.5597    147.2687    142.5190   8.7700446258e+01   2.5609117787e+01     0.277225    0.2314944 -47.01  0.001540898    1.352    0.260
       180  -9.0921    214.1246    141.7333   7.5115364169e+01   1.2765074384e+01    0.2535324    0.1713252 -18.95 0.0009848808    1.551    0.355
       181  -8.5547    194.5243    142.7512   7.8657867296e+01   1.6389638540e+01    0.2177123    0.1274716 -26.88 0.0008269927    1.922    0.480
       182  -8.2999    171.5745    143.3066   8.2996341588e+01   2.0781578260e+01    0.1670122    0.1268426 -19.95 0.0009371234    1.562    0.360
       183 -10.2093    138.6324    142.3836   8.9490282995e+01   2.7266020899e+01    0.2551066    0.2326742  27.55  0.001094356    1.194    0.163
       184  -9.1284    181.5280    140.9718   8.0659786705e+01   1.9177816679e+01    0.2856341    0.2151031 -43.41  0.001355173    1.530    0.346
       185  -8.6538    166.7201    139.6006   8.3215243058e+01   2.2303229283e+01    0.2271379     0.165565 -22.99  0.001234912    1.661    0.398
       186  -9.1086    192.1921    137.5658   7.8028858593e+01   1.7557553316e+01    0.6729171    0.3020914 -17.19  0.002174047    5.030    0.801
       187  -8.7840    123.6888    139.6651   9.2260101247e+01   3.0511323775e+01    0.1265124    0.1052339   5.47 0.0004356141    1.681    0.405
       188  -9.1939    198.8280    136.3119   7.6599079099e+01   1.6418022262e+01    0.3173215    0.1874482 -19.76  0.001304154    2.003    0.501
       189  -8.9504    172.8797    136.8113   8.1462696353e+01   2.1512234361e+01    0.2811295    0.1871231 -26.26  0.001459493    1.780    0.438
       190  -8.3197    152.2902    138.3590   8.5874957082e+01   2.5337171239e+01    0.1327988    0.1032617   9.41 0.0007027043    1.689    0.408
       191  -9.5262    163.4814    134.7963   8.2899330347e+01   2.3707585605e+01    0.2631798    0.1956866 -19.06  0.001116207    1.675    0.403
       192  -8.7143    187.3847    134.3997   7.8246875863e+01   1.8962810915e+01    0.2418441    0.1650159 -36.17  0.001138558    1.597    0.374
       193  -9.5416    155.7849    134.6812   8.4434517628e+01   2.5261286869e+01    0.2179364    0.2076694 -50.37   0.00112313    1.167    0.143
       194  -9.3995    154.9816    129.7862   8.3608232943e+01   2.6241003730e+01    0.2878975    0.1785066 -17.14  0.001229352    2.743    0.635
       195  -8.6361    197.5401    131.7466   7.5872142925e+01   1.7294954432e+01    0.2918842    0.1706175  11.30  0.001235546    2.734    0.634
       196  -7.8310    168.3000    131.3334   8.1233689707e+01   2.3287895556e+01    0.1373698    0.1024544  14.56 0.0007033215    1.652    0.395
       197  -8.3019    160.4496    130.7766   8.2689734238e+01   2.4970707352e+01    0.1787169    0.1324572 -23.18 0.0008207953    1.641    0.390
       198 -10.0776    143.3821    129.8259   8.6072727010e+01   2.8553086613e+01    0.2598532    0.2118563   4.42  0.001422789    1.619    0.382
       199  -8.7108    125.6953    130.6913   9.0167243981e+01   3.1809320877e+01    0.1283004    0.1075103   8.38 0.0005729338    1.608    0.378
       200  -9.3217    211.5806    127.7607   7.2628296368e+01   1.5013651528e+01     0.305422     0.282203 -68.07  0.001238335    1.431    0.301
       201  -9.2451    192.8242    127.9943   7.5908560672e+01   1.8773734489e+01    0.3411383    0.2379121  -2.95  0.001756508    1.769    0.435
       202  -8.5284    186.2984    128.2203   7.7142647038e+01   2.0078906194e+01     0.226691     0.161808 -25.69  0.000849119    1.524    0.344
       203  -8.5527    171.9918    128.0434   7.9817437364e+01   2.3051102855e+01     0.223732    0.1589084  19.48 0.0006755381    1.715    0.417
       204  -8.3877    165.5802    127.2192   8.0909327225e+01   2.4503093215e+01    0.1776794     0.132567 -22.07 0.0006437844    1.590    0.371
       205  -8.8030    199.8102    125.5062   7.4135469251e+01   1.7691214732e+01    0.2564914    0.1688913  -8.84 0.0008270683    1.843    0.457
       206  -9.2226    179.2935    131.3011   7.9104032258e+01   2.1054776161e+01    0.3301429    0.2357812 -23.80  0.001436934    1.587    0.370
       207 -10.0601    134.7822    125.0769   8.7004020478e+01   3.1106444361e+01    0.2487119    0.2007805 -22.37  0.001355754    1.597    0.374
       208  -8.6259    152.2374    125.0372   8.3190717659e+01   2.7607611595e+01    0.1745503    0.1179802 -41.66 0.0005817362    1.616    0.381
       209  -9.2464    180.1428    122.8439   7.7121470461e+01   2.2160030369e+01    0.3346717    0.2380676  -9.90  0.001697711    1.757    0.431
       210  -9.3190    146.4828    123.9782   8.4196375910e+01   2.8964808938e+01    0.2007605    0.1387176 -42.27  0.000898549    1.583    0.368
       211  -9.2491    212.5781    121.7235   7.1145770767e+01   1.5591493977e+01    0.2892284    0.2136865 -14.25 0.0009344635    1.378    0.274
       212  -8.8346    188.0715    122.3093   7.5526367182e+01   2.0577125427e+01    0.2334279    0.1843855 -11.90 0.0008968374    1.380    0.276
       213  -8.0241    169.7217    123.6295   7.9311253216e+01   2.4221264368e+01     0.140178    0.1050189  10.00 0.0004409346    1.689    0.408
       214  -9.1514    117.3920    121.8328   9.0382854486e+01   3.5066082360e+01    0.1893229    0.1280214 -41.08 0.0009507637    1.747    0.428
       215  -8.7319    194.2391    120.0704   7.3912134193e+01   1.9607298217e+01    0.2598334      0.17976 -14.57 0.0008370048    1.646    0.393
       216  -9.1069    157.4503    118.6732   8.0711058534e+01   2.7616544000e+01     0.247619    0.1639151  30.85 0.0009728695    1.727    0.421
       217  -8.5255    208.9773    117.6609   7.0830933428e+01   1.6862007891e+01    0.1900914     0.164045  35.53 0.0006670359    1.093    0.085
       218  -8.3634    174.2913    118.0539   7.7172964962e+01   2.4142101027e+01    0.1924572    0.1802933   7.03 0.0007936275    1.089    0.081
       219  -8.6781    166.4893    118.9995   7.8930670625e+01   2.5650910616e+01    0.1850183    0.1231192  -5.95  0.000807272    2.351    0.575
       220  -9.2091    147.9247    116.0717   8.2161531234e+01   3.0070149716e+01    0.2239323    0.1730938  13.30  0.001129688    1.706    0.414
       221  -8.2805    203.4173    114.6776   7.1085377976e+01   1.8427846155e+01    0.1779471    0.1272265 -12.55 0.0006894614    1.509    0.337
       222  -8.7766    186.1328    113.9382   7.3980172595e+01   2.2231211300e+01    0.2824515    0.1827412 -12.11  0.001281361    1.994    0.499
       223  -8.0433    181.3742    114.7569   7.5058806269e+01   2.3134541048e+01    0.1877431    0.1314028 -18.50 0.0004849615    1.652    0.395
       224  -9.2301    134.3918    114.8188   8.4913578247e+01   3.3093453793e+01    0.1960868     0.134276 -34.65 0.0009544991    1.736    0.424
       225  -8.8018    129.3934    114.8041   8.6071174286e+01   3.4104376280e+01    0.1939136    0.1330112 -35.49  0.000946117    1.747    0.427
       226  -8.8713    194.9588    112.1093   7.1957092416e+01   2.0594407707e+01    0.2718692    0.1919661 -26.49  0.001341532    1.466    0.318
       227  -7.5889    191.3231    113.3170   7.2888651990e+01   2.1203240702e+01    0.1455311    0.1020102  19.00  0.000704325    1.667    0.400
       228  -8.1842    139.3027    111.3412   8.3007898484e+01   3.2731073881e+01    0.1409508    0.1130972   7.46 0.0007039015    1.676    0.403
       229  -8.0496    168.3356    110.3230   7.6556785764e+01   2.6674561281e+01    0.1482074    0.1081894  17.88 0.0003053337    1.711    0.416
       230  -8.7358    144.5164    110.4863   8.1637420099e+01   3.1792280035e+01    0.1419941    0.1337036  48.76  0.000153843    1.031    0.030
       231  -8.4462    176.8573    109.1889   7.4610145929e+01   2.4985194176e+01    0.1975144    0.1639681  12.28 0.0009086076    1.321    0.243
       232  -8.2600    150.3492    109.3042   8.0076079618e+01   3.0759433661e+01     0.146315    0.1109257  17.72 0.0003565718    1.699    0.411
       233  -8.2056    201.3828    107.8911   6.9842558956e+01   1.9802510823e+01    0.1949899    0.1275469 -12.94 0.0009332578    1.755    0.430
       234  -8.6545    189.8976    107.8787   7.1859407565e+01   2.2313492066e+01    0.2211437    0.1805933  17.10 0.0006094142    1.280    0.219
       235  -8.6016    124.4982    108.5086   8.5835744711e+01   3.6303681462e+01    0.1410111    0.1324969  65.77 0.0003793226    1.019    0.019
       236  -8.2686    196.3680    106.7794   7.0443676688e+01   2.1053021999e+01    0.1898839    0.1297694 -16.30 0.0005313149    1.617    0.382
       237  -8.0742    183.0057    107.5040   7.3037346151e+01   2.3889969844e+01    0.2040412    0.1086394  31.74 0.0008079505    2.374    0.579
       238  -8.3467    160.5294    106.9894   7.7354486252e+01   2.8945684803e+01    0.2002956    0.1283411  -9.54 0.0008096123    2.583    0.613
       239  -8.9528    134.4552    107.0360   8.3126703462e+01   3.4548735954e+01     0.193334    0.1277792 -18.43 0.0008082869    2.491    0.599
       240  -8.5238    205.8151    103.9025   6.8137662350e+01   1.9389828581e+01    0.2182678    0.1751628  12.77 0.0006009029    1.279    0.218
       241  -7.6553    190.2757    103.2924   7.0676961101e+01   2.2908776250e+01    0.1407803    0.1049228  17.55 0.0004519294    1.522    0.343
       242  -7.9828    176.3142    101.3270   7.2791206225e+01   2.6350365174e+01    0.1493861    0.1092465  17.53 0.0007043332    1.669    0.401
       243  -8.9988    150.5068    100.9747   7.8017613189e+01   3.2208218639e+01     0.219135    0.1442634 -40.70  0.001031905    1.587    0.370
       244  -8.7955    141.4964    100.5260   7.9923494096e+01   3.4267794011e+01    0.1442772     0.137591  59.86  0.000137992    1.004    0.004
       245  -8.8448    130.5055    100.5146   8.2497988881e+01   3.6623145222e+01    0.1430106        0.137  59.36 4.321921e-05    1.038    0.037
       246  -8.7908    209.4838     98.9118   6.6318046673e+01   1.9263217358e+01    0.2238355    0.1788688  16.41 0.0007474974    1.275    0.216
       247  -8.3734    167.4777     99.0022   7.3947990675e+01   2.8732241507e+01    0.2056894    0.1296806  -6.62  0.000809918    2.602    0.616
       248  -8.9899    160.3979     98.8533   7.5363963807e+01   3.0363646995e+01     0.206939    0.1399733 -22.30 0.0009452968    1.794    0.443
       249  -8.3482    203.2444     96.3896   6.6714380802e+01   2.0994331196e+01    0.2517522    0.1696176 -11.04 0.0007720744    1.670    0.401
       250  -7.7995    189.2839     97.3489   6.9371376350e+01   2.4015398004e+01    0.1482801    0.1074871  14.66 0.0004618993    1.652    0.395
       251  -8.2384    195.5222     95.9561   6.7916750828e+01   2.2799945742e+01    0.2149286    0.1390282 -26.42  0.001022906    1.579    0.367
       252  -8.1008    183.5337     94.5564   6.9704042915e+01   2.5756025565e+01    0.1443015     0.135649  24.77 0.0001578802    1.025    0.025
       253  -7.9468    171.2591     94.3910   7.2005305561e+01   2.8620880158e+01    0.1494671     0.112081   8.01 0.0006914056    1.694    0.410
       254 -12.8711    247.3485    159.5270   7.3428750756e+01   4.9578878382e+00     1.898101     0.581667 -18.51  0.006787547    5.038    0.801
       255  -7.9195    207.4398     93.4890   6.5295839742e+01   2.0450873765e+01    0.1424652    0.1279473  12.45 0.0002178943    1.064    0.061
       256  -7.7543    177.3558     92.2966   7.0273963488e+01   2.7540250735e+01    0.1540928    0.1092369  23.11 0.0006396847    1.697    0.411
       257  -7.8629    188.4871     91.4842   6.8004689319e+01   2.5073408694e+01    0.1460537    0.1348965  19.77  0.000149755    1.057    0.054
       258  -8.4201    210.0766     90.0151   6.3992111853e+01   2.0325695060e+01    0.2265196    0.1589014  18.57  0.001109021    1.622    0.383
       259  -8.2246    218.3671     88.7080   6.2383316887e+01   1.8639371522e+01    0.1924144    0.1261131 -13.08  0.000588186    1.598    0.374
       260 -11.6622    225.1182    244.5189   8.9551485336e+01   8.7826376065e-01       0.6312    0.2777545 -25.61  0.004244924    2.951    0.661
       261  -8.9061    218.0376     83.2456   6.1036126575e+01   1.9413989319e+01    0.4629065    0.1973637  29.92  0.001432472    4.290    0.767
       262  -8.1432    206.1234     83.7518   6.2993825218e+01   2.2075570968e+01    0.1981579    0.1568082  15.33 0.0005766394    1.346    0.257
       263  -7.9133    193.4481     81.5285   6.4483133612e+01   2.5367698261e+01    0.1475767    0.1351308  15.94 0.0001079477    1.083    0.076
       264  -8.4872    215.2502     78.8232   6.0294388892e+01   2.0618988076e+01    0.2009356    0.1549011  14.93   0.00093929    1.389    0.280
       265  -7.5324    206.3314     77.3166   6.1244627698e+01   2.2897552523e+01    0.1528436    0.1053744  22.55 0.0007046883    1.686    0.407
       266  -7.8006    201.3241     76.3481   6.1770222313e+01   2.4218264423e+01    0.1561515    0.1071071  20.62 0.0007049417    1.747    0.427
       267 -13.2303    245.6363    195.6309   7.9834325354e+01   1.9409208493e+00     1.120952    0.6179311 -22.32   0.00741969    1.948    0.487
       268  -9.7070    112.5619     72.0745   7.9362169074e+01   4.6053024093e+01     0.252829    0.2223088  57.13 0.0003126207    1.142    0.124
       269 -13.0798    247.6644    242.6762   8.6189324568e+01  -1.9060565758e+00    0.7921189    0.6410418  18.33  0.007380524    1.363    0.266
       270 -13.4501    248.0447    222.1703   8.3416572302e+01  -5.0482834875e-01     1.441106     0.371681 -28.48  0.007273133    4.433    0.774
       271  -9.0327    202.8954    249.8447   9.3366969681e+01   3.4128732320e+00    0.2250683    0.1437041  27.77  0.001814818    1.210    0.173
       272 -10.8934    192.0639    245.7668   9.4513188620e+01   5.2263696613e+00    0.4345234    0.3048323  13.54   0.00285299    1.539    0.350
       273 -12.4920    233.6967    231.2807   8.6669397177e+01   7.4067044997e-01     1.207796    0.5460907 -19.23  0.007728037    2.801    0.643
       274  -9.6011    167.8270    249.8745   9.8604711069e+01   8.1590057115e+00    0.3523921    0.1262806  36.55  0.001928549    2.156    0.536
       275  -8.7050    167.7812     13.9943   4.7007934750e+01   4.0997645595e+01    0.2072534    0.1979398 -31.19 -0.0006383859    1.049    0.047
       276  -9.9222    192.8717    218.0209   9.1077625654e+01   7.7353766282e+00    0.3829131    0.3099292 -81.05  0.002738824    2.371    0.578
