#   1 NUMBER                 Running object number                                     
#   2 MAG_AUTO               Kron-like elliptical aperture magnitude                    [mag]
#   3 X_IMAGE                Object position along x                                    [pixel]
#   4 Y_IMAGE                Object position along y                                    [pixel]
#   5 X_WORLD                Barycenter position along world x axis                     [deg]
#   6 Y_WORLD                Barycenter position along world y axis                     [deg]
#   7 A_WORLD                Profile RMS along major axis (world units)                 [deg]
#   8 B_WORLD                Profile RMS along minor axis (world units)                 [deg]
#   9 THETA_WORLD            Position angle (CCW/world-x)                               [deg]
#  10 FWHM_WORLD             FWHM assuming a gaussian core                              [deg]
#  11 ELONGATION             A_IMAGE/B_IMAGE                                           
#  12 ELLIPTICITY            1 - B_IMAGE/A_IMAGE                                       
         1 -11.3656    236.8898     31.1448   4.4654864597e+01   2.1072082400e+01    0.6562849    0.4206928 -15.61  0.003281774    1.512    0.339
         2 -10.6767    181.7579     28.4522   5.0143033769e+01   3.5528176907e+01    0.6778861    0.4093691  14.36  0.002698791    2.288    0.563
         3  -9.1843    197.1806     26.1329   4.7385308805e+01   3.1637832239e+01     0.222487    0.1952192  31.36 0.0006585018    1.215    0.177
         4 -10.2369     87.6622     18.7455   6.6224934323e+01   6.1190637567e+01    0.5022201    0.2781264 -52.94  0.001923465    2.306    0.566
         5  -9.8077    155.2617     16.6102   4.9822001634e+01   4.4194687367e+01    0.3798403    0.2508854   2.46  0.001105945    1.830    0.454
         6  -9.8540    102.4630     13.8934   5.9498604951e+01   5.8463437903e+01    0.2919896    0.2496396   3.49 0.0006536403    1.211    0.174
         7 -10.3949     21.3142     15.8063   9.5052572196e+01   7.2415952371e+01    0.4966446    0.2368321  33.20  0.001178795    2.446    0.591
         8  -9.2551     25.4779      8.1136   8.8802167206e+01   7.3535668238e+01    0.2287862    0.1777773 -23.10 0.0005528781    1.308    0.235
         9  -9.8086     16.9402      4.4638   9.2382086726e+01   7.5120807188e+01    0.2910762     0.245675 -66.55  0.002008159    1.296    0.228
        10 -10.9232     18.7219     10.6734   9.4327541937e+01   7.3712791164e+01    0.3773111    0.2533425  51.37 0.0005080096    2.038    0.509
        11 -10.8619     11.7372      7.0004   9.7211261030e+01   7.5060537778e+01     0.490639    0.3222815 -60.78  0.002824829    1.314    0.239
        12 -10.4186      6.7745      3.3868   9.9035964477e+01   7.6168469835e+01    0.2388777     0.219959  53.85 0.0007946665    1.386    0.278
        13 -10.1830     10.1183     15.6268   1.0184542047e+02   7.3368269152e+01    0.3439971       0.2277 -47.93  0.001996143    1.271    0.213
        14  -9.0359      8.0000     12.0975   1.0188437500e+02   7.4265978256e+01    0.3152134    0.1317841 -65.85  0.001561689    2.036    0.509
        15 -10.7476    182.3753     13.6616   4.5034163998e+01   3.6982502564e+01    0.6195236    0.4419323  56.38  0.002179202    1.400    0.286
        16  -9.4424    187.6350      8.7382   4.2766964435e+01   3.6017687014e+01    0.4142501    0.2307291  -7.92  0.001714604    2.044    0.511
        17  -8.8576    144.4001     14.2796   5.0686853539e+01   4.7456700003e+01     0.276429    0.1506051 -15.66  0.001004724    1.999    0.500
        18 -10.3804     57.0324     13.8099   7.5278640801e+01   6.8009129913e+01    0.3817309     0.324239  55.94  0.002303577    1.406    0.289
        19 -10.5119    121.3806     12.2441   5.4211263999e+01   5.3889770009e+01    0.5349512    0.3228157  38.72  0.002323999    1.789    0.441
        20  -9.3747     34.3831     14.6138   8.6979362131e+01   7.1227701549e+01    0.2685042    0.1731284 -35.23 0.0007963505    1.472    0.321
        21  -9.4907     93.5341     10.8886   6.0477056218e+01   6.0986251036e+01    0.3006132    0.2016994 -42.75  0.001459638    1.541    0.351
        22 -10.1019    209.9009      9.9334   4.0976541876e+01   2.9914875885e+01     0.413101    0.2950695 -39.37  0.001517016    1.306    0.234
        23 -10.2232    214.8993      7.7066   3.9866813113e+01   2.8816911907e+01    0.4572281     0.286109 -63.55  0.001608866    1.698    0.411
        24  -9.1278    219.3163      5.7001   3.8910950069e+01   2.7860015815e+01    0.1965954    0.1619323  37.27 0.0005760143    1.352    0.260
        25 -10.3445     41.6142      9.6364   8.0420506993e+01   7.1184902565e+01    0.4634356    0.3192727  51.07 0.0008939653    1.850    0.459
        26  -9.2642     37.8779      4.8488   7.9630968016e+01   7.2564797106e+01    0.1750261    0.1502342 -23.02            0    1.058    0.055
        27  -8.5579    250.5329      9.9578   3.7858139863e+01   1.9910329989e+01    0.1874731    0.1035394  12.49  0.000809381    2.528    0.604
        28  -9.3011    227.1486      8.2930   3.9060679755e+01   2.5649200121e+01    0.2852328    0.2142707 -20.21  0.001043408    1.274    0.215
        29  -9.8143    237.8536      8.5204   3.8337051232e+01   2.3008466486e+01    0.2822797     0.172886   3.45  0.001332869    1.965    0.491
        30  -9.2345     78.6008      7.4492   6.3308143676e+01   6.4799257806e+01    0.2752547    0.2287127   1.01  0.001047315    1.218    0.179
        31  -8.7031     73.5025      8.1129   6.5464684131e+01   6.5780712892e+01    0.2137624    0.1267492 -30.31  0.001027766    1.574    0.365
        32  -8.8265    158.8355      7.0791   4.5635462346e+01   4.4199638185e+01    0.2321846     0.192439 -59.11 0.0005273488    1.245    0.196
        33  -9.0081    127.2523      5.6270   5.0058256506e+01   5.3066018945e+01    0.2513945    0.1704799  55.20 0.0001970437    1.418    0.295
        34  -8.8867     49.8038      4.4779   7.3223565307e+01   7.0774563731e+01    0.3925803     0.261843  73.73  0.001495131    2.918    0.657
        35  -9.2062    175.0458      4.9557   4.2835701986e+01   3.9861095365e+01    0.2217381    0.2128184 -50.94 0.0005696479    1.027    0.026
        36  -9.6709     22.6639      3.5196   8.8033831253e+01   7.4722084727e+01    0.3108044    0.2249104  42.96   0.00150324    1.746    0.427
        37  -9.4032    246.4876      2.9429   3.6257360833e+01   2.1452098064e+01    0.2110262    0.1173875 -22.88  0.001035517    1.602    0.376
        38  -9.4985    190.6319      2.4842   4.0368217483e+01   3.5766439608e+01    0.3573863    0.1933624 -58.92  0.001479694    2.019    0.505
        39  -8.9594     89.6835      3.3637   5.7597997846e+01   6.2831531306e+01    0.1483685    0.1032701 -55.74 0.0007040745    1.768    0.434
        40  -8.8577     30.5177      3.1044   8.2834756538e+01   7.3867340581e+01    0.1917823    0.1053487 -45.16 0.0006527387    1.560    0.359
        41  -9.8594    242.0436      1.8658   3.6241385468e+01   2.2587105654e+01     0.206173    0.1830825 -37.13 0.0006608329    1.018    0.017
        42  -9.0844    104.4230      2.0997   5.3122888381e+01   5.9393533495e+01    0.3019978    0.1997121 -86.01  0.001353994    2.037    0.509
        43  -8.6407     42.1333      1.8963   7.5469783329e+01   7.2426146157e+01    0.1681236    0.1279955 -18.60 0.0004078934    1.261    0.207
        44  -8.3892    170.5532      1.3855   4.2051200937e+01   4.1439566948e+01    0.1459188    0.1395506  70.38 5.498164e-05    1.039    0.038
        45  -8.9377    137.2750      1.3881   4.6474514278e+01   5.0749317783e+01    0.2004772     0.140428  88.05 0.0003426468    1.561    0.359
        46  -8.4600     62.5586    111.5243   1.0282906566e+02   4.6185343645e+01    0.1280333    0.1118105  87.45 0.0001117667    1.046    0.044
        47 -10.0157    102.5062    248.7482   1.0873185736e+02   1.6975406202e+01    0.3031083    0.1627108  49.22  0.002256748    1.265    0.209
        48  -9.0406    127.8219    109.8684   8.5345399424e+01   3.5369478206e+01    0.2045404    0.1889658  16.11 0.0003532391    1.259    0.206
        49  -9.1835     27.6482    109.2062   1.1250634951e+02   5.0690391828e+01    0.2681111    0.1411368 -84.35  0.001463545    1.675    0.403
        50  -9.4572     34.8170    107.6543   1.1025097638e+02   5.0335793999e+01    0.2754096    0.1441295 -75.73  0.001267397    1.672    0.402
        51 -10.1769      6.9467    108.0732   1.1834920613e+02   5.2646868169e+01    0.2149651    0.1886503  30.83 0.0003862501    1.453    0.312
        52  -9.4501     71.9582    107.8958   9.9571973923e+01   4.5663916259e+01     0.194633    0.1714238  81.80 0.0003803433    1.016    0.016
        53  -9.0488    118.9229    107.4923   8.6971695341e+01   3.7612814542e+01    0.2090102    0.1333802  46.70 0.0004512653    1.505    0.335
        54 -10.2378     80.2415    103.4569   9.6397738308e+01   4.5377903953e+01    0.3022952    0.2951508 -22.57  0.001443122    1.286    0.222
        55  -9.8942      8.9522    103.5999   1.1743807370e+02   5.3489198481e+01    0.2773893    0.2155657 -29.49  0.001539622    1.879    0.468
        56  -8.6955      7.6908    100.2736   1.1755138655e+02   5.4317646369e+01    0.1670386    0.0841396  42.01 0.0002171568    1.916    0.478
        57  -9.8410    109.0453    103.0990   8.8484076052e+01   4.0418002061e+01     0.416394    0.2035458  39.65  0.001683836    2.185    0.542
        58  -9.4677    102.8164     99.7784   8.9371735315e+01   4.2281342256e+01    0.4340342    0.2186106 -69.47  0.001589297    3.105    0.678
        59 -10.0591     53.1830     99.5527   1.0362531655e+02   5.0088433470e+01    0.3798261    0.2098311 -66.92  0.001962882    1.637    0.389
        60  -9.6790     60.1492     99.8641   1.0158037572e+02   4.9116649396e+01     0.164457    0.1492364 -52.30 0.0002954204    1.293    0.227
        61 -10.0459     69.2639     96.4327   9.8206241759e+01   4.8611740099e+01    0.3289426    0.2094247  58.81  0.001163158    1.633    0.388
        62  -8.4215     97.5983     96.1457   8.9955356847e+01   4.4010015962e+01    0.1912815    0.1277847 -43.88 0.0008063702    1.645    0.392
        63  -9.6721     79.2373     95.2196   9.4993377803e+01   4.7353980243e+01    0.3004874    0.2386175 -74.90  0.001706705    1.198    0.165
        64  -9.1709     82.3109     91.9791   9.3374142854e+01   4.7570577567e+01    0.2378515    0.2004785  36.28 0.0008092398    1.342    0.255
        65 -10.5670     61.3567     96.0202   1.0051846227e+02   4.9822627959e+01    0.3390432    0.1808189  43.70  0.001481519    1.875    0.467
        66  -8.3570    147.2780     95.6530   7.7377877077e+01   3.3882899094e+01    0.1476952    0.1141887 -77.50 0.0007007774    1.635    0.388
        67  -9.9548     16.1233     95.1606   1.1450760181e+02   5.4842153349e+01    0.1801789    0.1611947  51.16 0.0007360774    1.284    0.221
        68  -8.5587     37.8225     94.1283   1.0753200310e+02   5.3093880606e+01    0.1588161    0.1322149 -57.35 0.0002343136    1.313    0.238
        69  -8.3912    153.4729     93.4095   7.5428079302e+01   3.2881906716e+01    0.1457289    0.1386808  64.15 3.306905e-05    1.041    0.039
        70  -8.2759      9.4670     93.4974   1.1643558550e+02   5.5711386716e+01    0.1189932    0.0909963  83.65 8.304833e-05    1.041    0.039
        71  -9.2933     89.0225     92.0569   9.1429005796e+01   4.6416427900e+01    0.2200359    0.1963739  82.06 0.0009486396    1.061    0.057
        72 -10.1729     56.7679     89.9730   1.0080234707e+02   5.1811465368e+01     0.248184    0.1755124  46.42 0.0007072311    1.451    0.311
        73  -9.4992     47.6937     89.4590   1.0361564602e+02   5.3062461485e+01    0.2533907     0.167963 -79.01  0.000665721    1.383    0.277
        74  -9.4944     43.5095     91.3874   1.0529151879e+02   5.3103396291e+01    0.2237848    0.1851431  60.99 0.0008452741    1.196    0.164
        75  -9.1018     31.7613     91.4660   1.0908490461e+02   5.4317736054e+01    0.2343385    0.1253473  25.82  0.001223763    2.290    0.563
        76  -9.6544      3.1651     90.2799   1.1815570009e+02   5.6852007215e+01    0.3166831    0.1464799 -52.23  0.001680332    2.418    0.586
        77 -11.0160    120.2725     86.6097   8.1467012736e+01   4.1512683413e+01    0.5394491    0.3438291 -72.32  0.002256184    2.264    0.558
        78 -10.6973    124.6888     85.7953   8.0118443720e+01   4.0729179994e+01    0.6120362    0.4202088  -0.18   0.00243746    2.812    0.644
        79 -10.1001    110.0930     89.0222   8.4788261923e+01   4.3118803390e+01     0.281121    0.2472714   1.75  0.001518921    1.464    0.317
        80 -10.3010     51.9806     91.2257   1.0255770020e+02   5.2136417291e+01    0.3625184     0.206105 -61.16  0.001082692    1.596    0.373
        81  -9.1538    132.3822     93.8436   8.0364462135e+01   3.7504970385e+01    0.2012201    0.1389945 -32.06 0.0005688614    1.681    0.405
        82  -9.6780    131.4292     87.6104   7.8941389053e+01   3.8906898371e+01    0.2458204    0.2383878 -66.15 0.0004884537    1.044    0.042
        83  -8.3123      9.6258     88.7574   1.1594403487e+02   5.6772411279e+01     0.107606   0.07965115 -47.06  0.000693433    1.626    0.385
        84 -10.0172     26.7099     85.1049   1.0985231098e+02   5.6254961723e+01    0.2541007    0.1903218 -56.32 0.0006098112    1.383    0.277
        85  -8.5692     66.1578     85.0735   9.6797867416e+01   5.1628177365e+01    0.1866142     0.144004  84.41 0.0005210702    1.327    0.246
        86 -10.0879     46.3893     84.5353   1.0315231948e+02   5.4349821066e+01     0.300474    0.2134687  51.45  0.001306076    1.441    0.306
        87 -10.2447    142.9840     81.9690   7.4635349709e+01   3.7344987504e+01    0.3632601    0.2828623  17.68 0.0007562416    1.639    0.390
        88  -9.7932    138.8456     83.3961   7.6000313567e+01   3.8036175142e+01    0.2883523    0.2433614   0.27  0.001057098    1.463    0.316
        89 -10.7349    135.0370     83.0275   7.6800396693e+01   3.8970695258e+01    0.3558863     0.297712  -1.75  0.001802652    1.504    0.335
        90  -9.6421     80.7893     82.2928   9.1538742027e+01   4.9962448447e+01    0.4052238    0.2424004 -62.90  0.001561188    1.665    0.399
        91 -10.2148     75.9640     83.2002   9.3262525048e+01   5.0550762511e+01    0.3207311    0.2428866  82.49  0.001506228    1.448    0.309
        92 -11.8934    104.9057     79.4421   8.3639050166e+01   4.6136898153e+01    0.5933754    0.5298608  27.30  0.001615441    1.294    0.227
        93  -9.7651    109.9006     71.6838   7.9979515612e+01   4.6695855085e+01    0.3045325    0.2040852 -33.47 0.0007512604    1.693    0.409
        94  -8.2237     70.5050     83.4809   9.5052173559e+01   5.1340527034e+01    0.1350098    0.1231851 -73.96 7.497406e-05    1.060    0.057
        95 -11.1236      6.3443     80.6526   1.1624608953e+02   5.8833420300e+01    0.2876181    0.2800259 -37.32  0.002240699    1.354    0.261
        96  -9.9293     51.1524     81.3590   1.0093841040e+02   5.4505577399e+01    0.2197001    0.1793762 -79.67 0.0004201428    1.078    0.073
        97  -9.2677     37.9589     81.0506   1.0537771592e+02   5.6094826257e+01    0.3185647    0.1575885  40.43  0.001608651    2.091    0.522
        98  -9.4869     21.9831     80.6716   1.1084635368e+02   5.7688141830e+01    0.2069201    0.1921019  73.63  0.001111078    1.196    0.164
        99 -10.0940     21.0384     75.6720   1.1046685681e+02   5.8922801195e+01     0.332668    0.1999974 -82.20  0.001089938    1.423    0.297
       100  -8.3239    130.2581     79.3451   7.6911270459e+01   4.0745279171e+01    0.1450927    0.1187633  -0.85 0.0002371923    1.593    0.372
       101  -9.5952     28.1892     78.1879   1.0830348220e+02   5.7721255060e+01    0.1983667    0.1628259 -76.71 0.0003623645    1.058    0.055
       102 -10.0286     83.6277     73.2043   8.8255391306e+01   5.1469449114e+01    0.4635849    0.3165518  29.64  0.002262854    1.844    0.458
       103 -10.1808     78.0853     75.1858   9.0564168178e+01   5.1983558361e+01    0.2479499    0.2325663  27.76 0.0008314244    1.248    0.198
       104  -9.6420     74.3224     75.6524   9.1904456033e+01   5.2496244201e+01    0.2898484    0.2506575 -78.56  0.001057726    1.092    0.084
       105  -9.9566     49.0464     77.0353   1.0076544020e+02   5.5761722355e+01    0.2082016    0.1976372 -41.08 0.0005100953    1.258    0.205
       106 -10.8339     55.9308     73.2269   9.7516251280e+01   5.5755461350e+01    0.7159882    0.3881579 -28.98  0.002636123    4.080    0.755
       107 -11.3471    157.9446     73.4391   6.8867819271e+01   3.5261896871e+01    0.5634887    0.3718231 -15.95  0.001951264    1.926    0.481
       108 -10.9949    162.5141     67.2991   6.6080815118e+01   3.5137698726e+01    0.6779485    0.3438538  57.34  0.002692159    1.970    0.492
       109 -10.7088    152.3395     73.8899   7.0191340461e+01   3.6551445040e+01    0.3569826    0.3132074 -27.19  0.001346952    1.182    0.154
       110 -10.9025     97.1149     69.8714   8.3127218070e+01   4.9671037415e+01    0.4538481    0.2364985 -50.07 0.0006624442    1.866    0.464
       111  -8.9995     42.5666     71.7894   1.0196112265e+02   5.7736831276e+01    0.1876865    0.1107907 -79.72 0.0008509948    1.707    0.414
       112  -8.8466     14.5438     72.5343   1.1238538426e+02   6.0146860032e+01    0.1215765   0.09636857 -88.29 0.0001116474    1.043    0.041
       113  -9.0467     75.0561     71.0086   9.0423977118e+01   5.3406873408e+01    0.2019124    0.1822136 -79.73  0.000290054    1.045    0.043
       114  -8.3257     38.4883     71.5093   1.0339098039e+02   5.8250838063e+01    0.1283483    0.1089944 -74.11 0.0008102679    1.034    0.033
       115 -11.3333    142.4351     69.2217   7.0971617818e+01   3.9760533484e+01    0.5130458    0.3556397  66.82  0.001871216    1.596    0.374
       116  -9.9234    104.7463     67.7975   8.0247092199e+01   4.8557196747e+01    0.4288639    0.2418727 -31.83  0.001738375    2.264    0.558
       117  -9.0179     27.5055     69.3434   1.0705709915e+02   5.9837552445e+01    0.2395171    0.1706799 -30.64  0.000930573    1.862    0.463
       118  -8.8172    197.2098     68.4443   6.0221328065e+01   2.6304213561e+01    0.2434789    0.1664677 -34.19  0.000858967    1.423    0.297
       119  -8.6732    120.4763     69.4651   7.6435901285e+01   4.4833965100e+01    0.1461858    0.1448292  10.76 0.0008080432    1.075    0.070
       120 -10.6859    152.2117     67.1058   6.8150763285e+01   3.7735349566e+01    0.3615719    0.2985155  70.11  0.001812387    1.280    0.219
       121  -8.9700     70.1748     67.8331   9.1189910371e+01   5.4896177330e+01    0.2162102    0.1804888 -89.86   0.00113487    1.244    0.196
       122  -9.8950     88.5636     65.5263   8.4439051953e+01   5.2221664658e+01    0.3129189    0.2266417   2.90 0.0005683338    2.368    0.578
       123  -9.8143     64.3932     70.9639   9.4017398659e+01   5.5079037389e+01    0.4602478     0.188854  46.22  0.001722451    2.631    0.620
       124  -8.6942    126.5826     65.2777   7.3536348876e+01   4.4233267920e+01    0.2132221    0.1454978 -26.84 0.0009475558    1.687    0.407
       125 -10.8107     44.1312     63.3255   9.9463660863e+01   5.9508614660e+01    0.4827338    0.3180866  53.55  0.002452267    1.684    0.406
       126  -9.9953     32.9371     63.4288   1.0381793481e+02   6.0696366764e+01    0.3724558    0.2412789  72.95  0.002035982    1.760    0.432
       127  -8.3238    187.4691     64.5564   6.0684996059e+01   2.9270239037e+01    0.1490072    0.1417866  17.27 6.043054e-05    1.051    0.049
       128 -10.0987    109.8580     63.5538   7.7438649455e+01   4.8320263125e+01    0.4333259    0.3152378  61.97  0.002100497    1.484    0.326
       129  -9.9459    111.7019     56.6280   7.4598794650e+01   4.9250461983e+01    0.4997998    0.3181146 -11.18  0.001666352    2.812    0.644
       130 -11.2881      3.0770     61.7676   1.1537081896e+02   6.3353153131e+01    0.4859423    0.1891115 -54.81  0.002167118    2.327    0.570
       131  -9.8602    131.9779     62.5218   7.1303485262e+01   4.3465354917e+01    0.4642991    0.2422522  62.35  0.001788333    2.212    0.548
       132  -9.3258     74.8682     62.8339   8.8130859970e+01   5.5230647416e+01    0.2185875     0.185272  29.02 0.0004741088    1.382    0.276
       133 -10.1416     66.8232     63.1512   9.1029727082e+01   5.6458801545e+01     0.203681    0.1707751 -79.52 0.0004500795    1.191    0.160
       134  -9.6542    172.5865     62.2608   6.2602057987e+01   3.3377170313e+01    0.3023444    0.2475909   8.31  0.001494574    1.391    0.281
       135  -8.8863    162.4682     60.4899   6.3968523226e+01   3.6230426592e+01    0.2556144    0.2043464  48.02 0.0008899123    1.250    0.200
       136 -10.7547    159.3054     57.4952   6.3632787356e+01   3.7508403621e+01    0.7097986    0.3816662 -17.07  0.002620627    2.495    0.599
       137  -9.5017    162.4669     53.4736   6.1706342007e+01   3.7311640269e+01    0.3940017    0.1837578 -30.84  0.001077615    2.125    0.530
       138  -9.2355    120.8116     60.7405   7.3534557923e+01   4.6411619165e+01    0.3069004    0.2348822  -3.54 0.0008752618    1.787    0.440
       139 -10.1446     50.1117     60.0496   9.6335220626e+01   5.9522316124e+01    0.2042734    0.1798838 -67.47 0.0003164113    1.015    0.015
       140  -9.7957     89.0356     60.2848   8.2627822909e+01   5.3230327103e+01    0.3254551    0.1904422  53.30  0.001463896    1.865    0.464
       141 -10.5808     95.7184     56.4777   7.9247104187e+01   5.2690888627e+01    0.5122019    0.3718551   1.00  0.002090584    2.232    0.552
       142  -9.3968     81.0607     59.9025   8.5118616151e+01   5.4786332787e+01    0.2843564     0.198195  38.58   0.00143215    1.589    0.371
       143 -10.3005     69.4051     56.6974   8.8147729220e+01   5.7464397743e+01     0.429729    0.2247912 -36.42  0.001412197    2.446    0.591
       144  -9.6412    200.4008     56.5052   5.6277243669e+01   2.7114015454e+01    0.4323445     0.273665  19.27  0.001248041    2.084    0.520
       145  -8.9308    206.4671     54.4864   5.4816779700e+01   2.5853724241e+01    0.2529943    0.2271118   8.03 0.0006811296    1.138    0.121
       146 -10.7830    204.6360     50.9309   5.4030546527e+01   2.6760173287e+01    0.6624845    0.3652056  54.89  0.002289315    1.808    0.447
       147  -9.1306     34.2207     57.7049   1.0202700260e+02   6.1889692297e+01    0.2138071    0.1495453 -78.20 0.0007166856    1.324    0.245
       148  -8.7805    105.0018     56.4298   7.6439679224e+01   5.0758078453e+01    0.2203163    0.2012117  -0.77  0.000712043    1.252    0.201
       149  -9.3730     78.4761     56.4075   8.4859271201e+01   5.5986717005e+01    0.3765689    0.2434191 -19.64  0.001573224    2.665    0.625
       150  -9.6578     81.5380     51.3685   8.2086443529e+01   5.6481615213e+01     0.368902    0.1324357 -51.43  0.001251173    2.841    0.648
       151 -10.0773     61.2837     56.9903   9.1221370141e+01   5.8662238826e+01    0.1916758    0.1650203 -59.49 0.0004856466    1.046    0.044
       152  -8.0175    126.9283     57.0000   7.0702858299e+01   4.5660798638e+01    0.2578685   0.08601316  53.99 0.0003392518    3.019    0.669
       153 -10.2622    174.1215     53.0121   5.9426461674e+01   3.4344710856e+01    0.4484471    0.2124038 -34.35  0.001733326    2.016    0.504
       154  -9.4653     86.6762     54.9135   8.1596847630e+01   5.4788680431e+01    0.2419191    0.2008353  59.38 0.0001762422    1.287    0.223
       155 -10.9484    179.0892     52.1385   5.8298012637e+01   3.3173523446e+01    0.5430073    0.2724892 -43.40  0.001025742    2.053    0.513
       156  -9.6454    135.5309     54.5064   6.7762851087e+01   4.4005911783e+01    0.2798687    0.2353896  56.31 0.0006010401    1.191    0.160
       157  -9.5133    134.6919     51.3254   6.6853087746e+01   4.4752290085e+01    0.2388387    0.1994653  61.17  0.001197229    1.213    0.176
       158 -11.6563     58.7514     48.3618   8.9438239212e+01   6.0925969190e+01     0.596903     0.520646  21.62  0.002087903    1.356    0.262
       159  -9.7921    145.0161     53.0548   6.5124113586e+01   4.1869039906e+01    0.2283601    0.2208674  -4.54  0.000366684    1.067    0.063
       160 -10.1920    233.8413     51.0136   5.0394930295e+01   1.9660162568e+01    0.2340071    0.2075721  13.00 0.0003044277    1.151    0.131
       161  -8.6075     29.4282     52.5807   1.0280191666e+02   6.3540309268e+01    0.1250404    0.1050384 -74.18 8.157796e-05    1.036    0.035
       162  -9.3107     14.7388     51.9983   1.0900976072e+02   6.4885965773e+01    0.1980734    0.1725343  -0.60 0.0003989045    1.478    0.323
       163 -10.2442     18.5076     51.0484   1.0717721125e+02   6.4828460571e+01    0.3730654    0.2532495 -20.16  0.002184907    2.021    0.505
       164  -9.9641    150.7524     57.8467   6.5499588503e+01   3.9633701751e+01    0.2647274    0.2573753  10.12 0.0002403754    1.059    0.056
       165  -9.6233    125.4709     49.8150   6.8545876276e+01   4.7275274273e+01    0.4837548    0.3408917  86.95  0.002110755    1.933    0.483
       166  -8.9180    116.0142     51.0649   7.1451608709e+01   4.9298601251e+01    0.2280333    0.1764648 -72.68  0.000377097    1.562    0.360
       167  -8.9447    106.7821     51.2011   7.4072841147e+01   5.1366919589e+01    0.2237039    0.1969725 -73.44 0.0007670153    1.218    0.179
       168  -9.6080     49.2127     49.8644   9.3758804658e+01   6.1927739769e+01      0.21343    0.1936128  -0.26 0.0004925535    1.334    0.250
       169  -9.3609     96.9924     48.6896   7.6075995187e+01   5.3955859315e+01    0.2868346    0.1961254 -40.29  0.001377679    1.415    0.293
       170  -8.2484     43.3126     49.3352   9.6044131686e+01   6.2786369744e+01    0.1357165    0.1175297 -69.15  0.000646161    1.048    0.046
       171  -9.2977     41.6479     45.7320   9.5664130667e+01   6.3790953615e+01    0.3144611    0.1969226 -63.07 0.0009024704    1.424    0.298
       172 -10.5106     44.9780     40.4500   9.2483261184e+01   6.4544563388e+01    0.3938067    0.2621012 -51.49   0.00168086    1.306    0.234
       173  -8.5362    220.8472     47.8656   5.1045068404e+01   2.3108154328e+01    0.1999771     0.156763 -51.95 0.0004442521    1.339    0.253
       174 -10.2148     34.9562     46.8922   9.8924336050e+01   6.4282456142e+01    0.3881041    0.2769414 -42.43  0.001091674    1.429    0.300
       175  -8.0441     11.3407     48.3073   1.0981153823e+02   6.5965850471e+01    0.1240234   0.07420623 -46.25 0.0002278709    1.686    0.407
       176  -9.9055     84.8159     46.9705   7.9375058513e+01   5.6749379891e+01    0.3362542    0.2082826  49.32  0.001584113    1.724    0.420
       177  -8.5663    186.6761     46.6706   5.5352502386e+01   3.1932681749e+01    0.1605516    0.1119908  26.54 0.0007049846    1.698    0.411
       178 -10.7009    142.7180     43.7945   6.2369193113e+01   4.3928515358e+01    0.6089076    0.4235302  10.24  0.002596685    1.975    0.494
       179  -8.9046     67.6977     46.5846   8.5362101127e+01   5.9901107379e+01    0.1732611    0.1315335  55.64 0.0005567523    1.487    0.327
       180 -11.0487    167.4936     43.4753   5.7457545342e+01   3.7443467319e+01     0.418077    0.3638934  50.75 0.0009305495    1.153    0.133
       181  -9.0456     20.4669     44.3200   1.0478659991e+02   6.6219111228e+01    0.2429406    0.1417854 -77.32  0.001326852    1.589    0.371
       182  -8.9387    160.6080     44.1144   5.8915694892e+01   3.9183126642e+01    0.2144482    0.1891562 -21.86  0.000586044    1.150    0.130
       183  -9.4747    108.2823     44.0089   7.0959478584e+01   5.2346433133e+01    0.3248983    0.2171653  51.62   0.00130578    1.531    0.347
       184  -7.9332      8.3176     43.2974   1.1024196693e+02   6.7303622298e+01    0.1212852    0.0728962 -47.66 0.0007017629    1.612    0.380
       185  -9.5770    205.3981     41.9005   5.1238514876e+01   2.7671801525e+01    0.3695157    0.1897078  62.21  0.001313213    1.964    0.491
       186 -10.1519     55.6810     41.8599   8.8409439482e+01   6.2773878909e+01    0.3286586    0.2110588  42.89  0.001330418    1.739    0.425
       187  -8.7230    118.2279     41.5755   6.7320564013e+01   5.0432838645e+01    0.2085592     0.138071  43.67   0.00053513    1.588    0.370
       188 -10.2647     31.8975     39.7929   9.8214544159e+01   6.6196012972e+01    0.3387522     0.150612 -56.61 0.0008730897    1.831    0.454
       189  -8.5758      4.6353     41.2958   1.1161295060e+02   6.7969348902e+01    0.1191624   0.07643171  66.71 0.0007031044    1.717    0.417
       190  -9.2924    149.4453     39.0875   5.9280681857e+01   4.2870916372e+01    0.4350153    0.1307459 -32.84  0.001350629    3.040    0.671
       191  -9.2148    149.8914     34.1651   5.7391714756e+01   4.3450907543e+01    0.2641593    0.2142336 -29.32 0.0005036877    1.227    0.185
       192 -10.8454    127.4587     37.3138   6.3375272236e+01   4.8844547694e+01     0.417915    0.3147321 -44.32  0.001538176    1.334    0.250
       193  -8.4791     74.2131     43.2029   8.1683292161e+01   5.9476605058e+01    0.2260548    0.1499618  -9.50  0.000938168    2.720    0.632
       194  -9.6211    157.3101     37.8657   5.7341567939e+01   4.0947823818e+01     0.330792      0.26144  55.42  0.001068254    1.256    0.204
       195  -8.7379     86.5054     34.5370   7.3847894618e+01   5.8781074381e+01    0.2008059    0.1349019  38.28 0.0009590948    1.651    0.394
       196  -9.8296     82.0076     37.0711   7.6451671317e+01   5.9214098063e+01    0.3922694    0.2794192 -42.36  0.001879275    1.315    0.239
       197 -11.1527     78.7978     31.1882   7.5077191440e+01   6.0933812001e+01    0.4946077    0.3362656 -44.96 0.0004921934    1.393    0.282
       198  -9.9906     81.2670     26.9987   7.2314263453e+01   6.1188785047e+01    0.4141562    0.2999072 -52.41  0.002115402    1.465    0.318
       199  -9.0744     75.2023     38.1499   7.9331392334e+01   6.0300298937e+01    0.1975472    0.1801705 -30.97 0.0004454842    1.085    0.078
       200  -8.8485    162.4814     37.4933   5.6280525532e+01   3.9609963009e+01    0.1509799    0.1504177 -47.22 5.786416e-05    1.004    0.004
       201  -9.4038    102.0926     36.7160   6.9849976854e+01   5.5033409020e+01    0.1981869    0.1920604  23.90 0.0005292646    1.067    0.062
       202 -10.0914     62.1670     36.3317   8.3633015862e+01   6.2919975240e+01    0.3415421    0.2276968  21.22 0.0009576996    2.069    0.517
       203  -8.2269     38.4850     37.4639   9.4388754185e+01   6.5987578685e+01    0.1298374    0.1100032 -51.88 0.0008089039    1.049    0.047
       204  -8.7684     27.6168     36.7851   9.9325463361e+01   6.7291715885e+01    0.1789434     0.105644 -71.71 0.0009435907    1.638    0.389
       205  -9.1640    246.6483     35.3240   4.4880700084e+01   1.8387661320e+01    0.3014874    0.2175907 -80.82  0.001620379    1.666    0.400
       206  -9.7910    192.7652     34.4037   5.0583577903e+01   3.1864181688e+01    0.4843997    0.2797237  23.85  0.001894301    2.398    0.583
       207  -8.4694    110.5033     36.4661   6.7357839832e+01   5.3132605058e+01     0.148019    0.1429554  -0.56 8.169085e-05    1.057    0.054
       208  -8.9828     94.0263     35.7133   7.1894189458e+01   5.6988570700e+01    0.2383566    0.1736834  46.84 0.0002561185    1.433    0.302
       209  -9.1246    215.7880     35.1942   4.7983724570e+01   2.5802610188e+01    0.2937294     0.183364  56.21 0.0007730974    1.641    0.391
       210  -9.8904     48.3120     36.7122   8.9664307609e+01   6.4908484411e+01     0.205668    0.1682134 -66.51 0.0005639503    1.210    0.174
       211  -9.4664     33.4594     34.7536   9.5834769182e+01   6.7144542028e+01    0.2422862    0.1894126  60.72  0.001476239    1.546    0.353
       212 -12.8559     76.5531    219.0455   1.1098316963e+02   2.4261029305e+01     1.658955    0.3846838  49.08  0.002616274    2.999    0.667
       213 -10.8263    238.4966     23.0133   4.2277215207e+01   2.1502250131e+01    0.3708043    0.3476828 -10.28  0.001174854    1.086    0.079
       214  -9.4256    203.2044     31.4424   4.8324781861e+01   2.9455002437e+01    0.5916125    0.2622032 -57.23  0.001997801    3.182    0.686
       215  -9.7158    184.8876     33.1422   5.1261384877e+01   3.4121642326e+01    0.2820062    0.2449197 -49.96  0.001196491    1.153    0.133
       216  -8.3605    155.3343    214.7123   9.6829253339e+01   1.3771995097e+01    0.1082522   0.07066151  58.21 0.0007017139    1.628    0.386
       217  -8.7687    162.0000     32.9496   5.4758478559e+01   4.0347187648e+01    0.2505311   0.08684286 -25.96 0.0004291623    2.879    0.653
       218  -9.7026    142.2037     32.3378   5.8218574686e+01   4.5757126472e+01    0.3588881    0.2956522  59.70  0.001536726    1.210    0.173
       219 -10.0365    111.7355     30.7466   6.4656287803e+01   5.3764520783e+01    0.6417288    0.3972187  89.90  0.002101286    2.790    0.642
       220  -8.9931    105.0854     29.0974   6.5766924809e+01   5.5610232298e+01    0.2704294    0.2054352  -0.82  0.001300805    1.597    0.374
       221 -10.2566     48.0230     28.8668   8.6668938547e+01   6.6579615901e+01    0.3870222    0.2182976  48.14   0.00190958    2.157    0.536
       222  -8.6035     11.9276     33.0000   1.0614576951e+02   6.9416854238e+01    0.1579162   0.06999421  20.05 0.0003230065    2.807    0.644
       223  -9.7766    223.5578     32.0244   4.6218237695e+01   2.4206819734e+01    0.2891751    0.2185585  70.21  0.001521045    1.413    0.292
       224  -9.0483    125.5292     30.1150   6.0962036359e+01   5.0427995235e+01    0.2435649    0.1970384  30.22 0.0005801475    1.343    0.255
       225  -8.7581     71.3818     30.2783   7.7425904886e+01   6.2506677972e+01    0.2407974    0.1242877  47.80  0.001065533    2.124    0.529
       226  -9.5019    215.4986     28.0331   4.5899429657e+01   2.6654309476e+01    0.2648765    0.1904662  44.77 0.0008119796    1.493    0.330
       227  -9.0313    119.2827     19.5942   5.7956817410e+01   5.3505847626e+01    0.2976751    0.1920537  42.54  0.001337664    1.612    0.380
       228  -8.7028    117.6815     23.3305   5.9969365865e+01   5.3400462553e+01      0.25335    0.1870841 -83.57  0.001168218    1.731    0.422
       229  -9.2880    117.4686     28.0382   6.2038521553e+01   5.2771198683e+01    0.2761349    0.1850994  34.17  0.001232387    1.707    0.414
       230  -9.3936    120.8472     26.1746   6.0428830031e+01   5.2193868194e+01    0.3238017    0.2250018  40.18 0.0008305793    1.525    0.344
       231 -10.4694     16.9818     27.0886   1.0174913015e+02   7.0368003017e+01    0.2769794    0.2099684 -47.50 0.0005111324    1.190    0.159
       232  -9.0040     31.3949     26.5371   9.3864387981e+01   6.9139897013e+01    0.1951713    0.1620213 -57.50 0.0004352573    1.063    0.060
       233  -8.5676    206.3449     26.3144   4.6378379961e+01   2.9199458815e+01    0.1557349    0.1053212  32.25 0.0007047501    1.713    0.416
       234 -11.3454     69.0548    218.2586   1.1224953903e+02   2.5305336856e+01    0.3708889    0.2188514  71.23  0.001621272    1.575    0.365
       235 -10.3810    228.4584     24.2823   4.3522427424e+01   2.3799714358e+01    0.5318632    0.2438998 -59.59  0.001478791    2.842    0.648
       236 -10.0844    223.0295     20.2770   4.2872567348e+01   2.5546682366e+01    0.3950735    0.2202013  33.21  0.001408587    2.280    0.561
       237  -8.8957     67.9784     25.0679   7.6371225657e+01   6.4088353451e+01    0.2008866     0.184424 -27.78 0.0003443786    1.029    0.028
       238 -10.8953    164.0713     22.4412   5.0630278447e+01   4.1086663772e+01    0.4757886    0.3006642  46.26 0.0008534611    1.631    0.387
       239  -7.9493     98.6646     24.2766   6.5464151343e+01   5.7862488307e+01    0.1448724    0.1130371 -71.13 0.0003661424    1.608    0.378
       240  -9.8486     29.7898     23.1743   9.3366851545e+01   7.0023209845e+01    0.2567466    0.1894095 -35.57  0.001567474    1.331    0.249
       241  -9.5282    178.8598     22.6581   4.8572768106e+01   3.6987235405e+01    0.3471051    0.2248709 -46.01  0.001556957    1.559    0.359
       242  -9.3540    222.0360     26.9115   4.4896377699e+01   2.5122683885e+01    0.2110909    0.1997214 -14.07 0.0003958542    1.057    0.054
       243  -8.8107      8.0685     23.0439   1.0552285956e+02   7.1885740419e+01    0.1847592    0.1282436  73.68  0.001130126    1.747    0.428
       244  -9.4623      2.2122     21.9193   1.0864073466e+02   7.2462091326e+01    0.2746755    0.1926191  65.00  0.001768242    1.702    0.412
       245  -9.0135    141.6888     21.9671   5.4265860485e+01   4.7278908172e+01    0.2792655    0.1945817  39.84 0.0008902141    1.520    0.342
       246  -9.3331    132.4786     21.4858   5.5884881292e+01   4.9810522450e+01    0.4045726    0.2464948 -56.51  0.001674947    1.990    0.497
       247  -8.7052     92.4388     22.5124   6.6526338740e+01   5.9549654343e+01    0.2298969    0.1424546  54.01 5.401777e-05    1.682    0.406
       248 -10.1886    131.2810    206.0168   1.0003010129e+02   1.8541183415e+01    0.2483009    0.1033191  34.66  0.001215797    2.462    0.594
       249  -8.5378     75.3044     22.3210   7.2249354143e+01   6.3184892699e+01    0.1403665    0.1065515   1.60 0.0003003777    1.634    0.388
       250  -8.6419    120.2370     32.3918   6.3161041207e+01   5.1421142091e+01    0.1974506    0.1464809  72.20 0.0003894765    1.506    0.336
       251 -10.3194    111.0398     19.3950   5.9859604496e+01   5.5613366356e+01    0.3281217    0.2977369  74.12 0.0007598394    1.174    0.149
       252  -9.2032     53.1475     20.4644   8.0470021849e+01   6.7457539921e+01    0.2734177     0.190499 -11.38  0.001326604    1.920    0.479
       253  -9.7775    149.5096     18.1553   5.1359843995e+01   4.5606240166e+01    0.3838882    0.2720652 -35.75  0.001121758    1.393    0.282
       254  -9.5650     28.8050     18.3809   9.1859441370e+01   7.1124073180e+01    0.2240206    0.1730477 -48.60 0.0006850334    1.080    0.074
       255  -9.3023    124.0405    206.0031   1.0133030128e+02   1.9628131696e+01    0.1588002    0.1204631  47.48  0.001152591    1.030    0.029
       256  -9.4499    102.3027     17.8455   6.1436154245e+01   5.7961004227e+01    0.4043415    0.2394127  71.78   0.00109361    2.131    0.531
       257  -8.8226    163.3562    192.7141   9.2639605234e+01   1.5272449640e+01    0.1153979   0.07982094  61.29 0.0007021974    1.673    0.402
       258  -9.7483      1.4417    185.4808   1.2308752262e+02   3.7756654359e+01    0.2714565   0.07814137 -84.26  0.001275468    3.104    0.678
       259 -11.1487      5.1504    168.5572   1.2182120338e+02   4.0489732617e+01    0.4262367    0.1154474  50.32  0.002299592    2.399    0.583
       260 -10.4628    216.6540    159.0993   7.8044949320e+01   1.0242949190e+01    0.3927496      0.20272 -36.58  0.002075584    2.228    0.551
       261 -10.5140     19.2332    159.8642   1.1845613770e+02   4.0894077713e+01    0.1765469    0.1532463  57.94   0.00141764    1.302    0.232
       262 -10.3150      6.6050    157.0928   1.2107378669e+02   4.2536895737e+01    0.1760059    0.1413599   4.36  0.001317218    2.044    0.511
       263 -11.5463      2.7994    153.4179   1.2175881349e+02   4.3556005558e+01    0.4357774    0.1994375 -67.60  0.001044534    2.273    0.560
       264  -9.0262     21.3716    142.0790   1.1691296478e+02   4.4231833815e+01    0.1606207    0.1384391  58.29 0.0007549134    1.253    0.202
       265 -10.6169      6.4900    140.3765   1.2035273511e+02   4.5852966016e+01    0.3517019    0.2218239 -30.97  0.001235932    3.141    0.682
       266  -9.5694    216.8615     15.6240   4.2068631578e+01   2.7567485246e+01    0.2957379    0.2229716  77.83   0.00154468    1.389    0.280
       267 -11.9948    231.4711    135.1714   7.1034137571e+01   1.0288591209e+01     1.288406    0.5230296  41.20  0.005873039    2.257    0.557
       268 -12.0604    233.5622    128.0250   6.9222188995e+01   1.0711375567e+01     1.015845    0.6136788  41.26  0.005578522    1.533    0.348
       269 -11.9909    214.1966    132.9913   7.3309122155e+01   1.3834733931e+01    0.9037192    0.7778566 -59.71  0.005529282    1.603    0.376
       270 -12.4318    220.0905    117.2960   6.8949342629e+01   1.4631415950e+01     2.391033     1.312592  21.94   0.01057287    2.377    0.579
       271  -8.9199      1.0000    136.9623   1.2149992909e+02   4.6965811700e+01    0.1695875   0.04940822 -83.36 0.0005164127    2.853    0.649
       272  -9.0841     27.5473    125.4983   1.1410207424e+02   4.7130500721e+01    0.1985625    0.1264782  85.43 0.0008117644    1.323    0.244
       273  -9.6346     32.9057    127.8341   1.1291356254e+02   4.6100685287e+01    0.2909077    0.1364196 -68.22 0.0009758724    1.949    0.487
       274  -8.7544     31.0006    124.2900   1.1308201907e+02   4.7054158977e+01    0.1608976    0.1285383  69.99 0.0005577764    1.070    0.065
       275 -10.8309     11.9811    124.9586   1.1812416667e+02   4.8616734326e+01    0.4771628     0.267274  81.92  0.002958992    1.462    0.316
       276  -8.8552     37.5102    126.8519   1.1161736464e+02   4.5833653640e+01    0.1704564    0.1017475 -79.56 0.0005943334    1.488    0.328
       277  -9.6481     23.8283    125.6267   1.1508737413e+02   4.7452349330e+01    0.1626815   0.08430672  47.20 0.0006636416    1.711    0.415
       278  -9.5599     92.1698    122.6997   9.6778598722e+01   3.9331202971e+01    0.4043491    0.1512608  47.21  0.001529148    2.505    0.601
       279  -9.1572     74.7755    122.4150   1.0122704999e+02   4.2094300109e+01    0.3489849    0.1369771  52.24  0.001435903    2.632    0.620
       280  -8.4565     76.4555    119.5417   1.0032519743e+02   4.2462006433e+01    0.2695499    0.2116416   2.79 0.0006790239    2.100    0.524
       281  -9.0277      2.5258    122.9366   1.2045348953e+02   4.9762054992e+01     0.222146    0.1510556  -4.26  0.001375959    2.518    0.603
       282  -9.6692     38.6674     17.8109   8.6256997001e+01   7.0057062096e+01    0.1959509    0.1754707  19.80  0.001286598    1.268    0.212
       283  -8.9754     30.9672    115.7488   1.1225005617e+02   4.8921064241e+01     0.160035    0.1279674  67.10            0    1.110    0.099
       284  -9.5221     20.2514    119.5962   1.1554229606e+02   4.9074184890e+01    0.2823781    0.1583713 -58.68 0.0008897523    1.927    0.481
       285 -10.3141     25.5684    116.4898   1.1381830270e+02   4.9273251783e+01    0.3587278    0.2435742  28.85  0.002155144    1.749    0.428
       286 -10.3234     69.7202    118.1085   1.0189632009e+02   4.3750704713e+01    0.3159623    0.2331776  81.38  0.001004789    1.300    0.231
       287  -9.0298     97.9155    117.9230   9.4443147095e+01   3.9358954344e+01     0.192984    0.1830081  18.52 0.0007332994    1.313    0.238
       288  -9.0179     57.8569    117.7815   1.0506887697e+02   4.5425689741e+01     0.177212    0.1674198 -77.29 0.0008251418    1.250    0.200
       289 -10.1512     11.3658    115.3068   1.1762859080e+02   5.0739084301e+01    0.2504962    0.2007046 -38.64  0.001011083    1.772    0.436
       290  -9.6931     28.6305    138.0731   1.1486734996e+02   4.4366558472e+01    0.1909879    0.1529514  45.84 0.0005991512    1.319    0.242
       291  -8.7448      1.8318    114.8503   1.2019740005e+02   5.1532504900e+01    0.1936788    0.1292382  83.79 0.0006127045    1.150    0.130
       292  -8.7923      1.3250    111.2902   1.2013256707e+02   5.2333877188e+01     0.153017   0.08046021  87.08 0.0009134074    1.513    0.339
       293  -9.7048     40.1820    114.2591   1.0950877232e+02   4.8297997620e+01    0.2769779    0.1636175  33.58  0.001559792    1.845    0.458
       294  -9.0276     90.3530    111.6474   9.5218872618e+01   4.1960898493e+01    0.2977965    0.1433537  53.80   0.00117921    2.178    0.541
       295  -9.0788     49.9720    112.0497   1.0646066001e+02   4.7671482265e+01    0.1924017     0.157782  79.97 0.0004395384    1.035    0.034
       296 -11.0544     15.8143    109.7109   1.1594937634e+02   5.1611800272e+01    0.6671571    0.2652703  26.44  0.002699897    2.877    0.652
       297 -10.4663     16.4028    104.7551   1.1534530161e+02   5.2663703924e+01    0.2292002    0.1936503  69.62 0.0006604161    1.143    0.125
