#   1 NUMBER                 Running object number                                     
#   2 MAG_AUTO               Kron-like elliptical aperture magnitude                    [mag]
#   3 X_IMAGE                Object position along x                                    [pixel]
#   4 Y_IMAGE                Object position along y                                    [pixel]
#   5 X_WORLD                Barycenter position along world x axis                     [deg]
#   6 Y_WORLD                Barycenter position along world y axis                     [deg]
#   7 A_WORLD                Profile RMS along major axis (world units)                 [deg]
#   8 B_WORLD                Profile RMS along minor axis (world units)                 [deg]
#   9 THETA_WORLD            Position angle (CCW/world-x)                               [deg]
#  10 FWHM_WORLD             FWHM assuming a gaussian core                              [deg]
#  11 ELONGATION             A_IMAGE/B_IMAGE                                           
#  12 ELLIPTICITY            1 - B_IMAGE/A_IMAGE                                       
         1  -8.5178     55.6274     10.2878   9.9290698046e+01   7.0124615303e+01    0.2153516    0.1973466 -50.73 0.0007032837    1.307    0.235
         2  -7.8900     47.6076      9.9044   1.0336081726e+02   7.1623007498e+01    0.1857534    0.1170637 -47.36 0.0009353479    1.778    0.438
         3  -7.7167     27.7727     10.0208   1.1628304521e+02   7.4478141830e+01    0.1666497   0.09431699 -47.77 0.0008662375    1.615    0.381
         4  -8.2895     90.6942      8.8041   8.4577615705e+01   6.2584902048e+01    0.2816234    0.1437786 -45.85 0.0009183083    2.373    0.579
         5  -7.6062    101.2601      8.0112   8.1233010545e+01   5.9989309628e+01    0.1761352    0.1269589 -19.78  0.000446515    1.464    0.317
         6  -7.7646     69.2019      7.8952   9.1612590582e+01   6.7708808177e+01    0.1802248    0.1054003 -29.80 0.0004657765    1.707    0.414
         7  -8.4823     33.4525      5.1256   1.0915906803e+02   7.4626635138e+01    0.3105206     0.197838 -65.25  0.001398556    2.951    0.661
         8  -8.5038     79.0283      4.0020   8.5610393545e+01   6.5953976015e+01    0.3427537    0.1572617 -38.79  0.001193608    2.370    0.578
         9  -7.4757     44.6579      3.2876   1.0069999459e+02   7.3158689664e+01    0.1186313    0.1059242 -81.16 0.0003728523    1.644    0.392
        10  -7.5928    115.3164      2.6490   7.5456558628e+01   5.6767836601e+01    0.1555184    0.1051413 -59.69 0.0007047111    1.734    0.423
        11  -8.3911     62.1677      1.5993   9.0613115972e+01   7.0010715103e+01    0.1919901    0.1637103  65.16 0.0005225523    1.380    0.275
        12  -7.4669     15.7035      2.7107   1.2149278845e+02   7.7137575136e+01    0.1246487   0.07804838 -26.40 0.0002767693    1.554    0.356
        13  -7.4485     39.4404      1.5188   1.0265160139e+02   7.4299620062e+01    0.1285137     0.111692  -6.73  0.000105373    1.009    0.009
        14  -8.9524    120.4481    245.6608   1.3330210643e+02   1.2722694987e+01    0.2929176    0.1535463  58.54  0.001693773    2.316    0.568
        15  -8.9466    241.0724    238.9433   1.1173019078e+02  -2.7786061149e+00    0.3815086    0.1767783  -2.66  0.002114675    2.934    0.659
        16  -8.7145    249.2602    249.2492   1.1189591064e+02  -4.5862393489e+00    0.2441504    0.1315195   2.86  0.001744314    1.731    0.422
        17  -9.6265    248.6037    242.1524   1.1103546562e+02  -3.9498467956e+00    0.2925087    0.1661451 -24.96  0.001402832    1.990    0.498
        18  -9.0684    247.5367    234.8168   1.1017532857e+02  -3.2212661172e+00    0.2293339    0.1688271  22.33 0.0009616163    1.276    0.217
        19  -9.5995    246.7523    228.6466   1.0941178460e+02  -2.6016001129e+00    0.4198226     0.194181 -18.58  0.002147872    2.279    0.561
        20  -9.4174    232.9515    247.1338   1.1408010563e+02  -2.4743285302e+00    0.2833827    0.1530271 -28.68  0.001738884    2.234    0.552
        21  -8.5689     93.8758    249.2527   1.3851635510e+02   1.5712351570e+01    0.2086458    0.1268821  71.39  0.001233103    2.000    0.500
        22  -7.4053     86.2930    250.6370   1.4000954676e+02   1.6468033251e+01    0.1115515   0.05769771  56.01  0.000702911    1.705    0.414
        23  -9.8249     10.7551    245.2277   1.5342151069e+02   2.5469506291e+01    0.4429307   0.07043964  55.25  0.002192432    3.190    0.687
        24  -8.5334    202.0112    243.5368   1.1858007397e+02   1.8072968077e+00    0.1522676    0.1459675   5.98 0.0007837097    1.645    0.392
        25  -8.5620    169.1426    242.9320   1.2415985451e+02   6.3485883034e+00    0.1790681    0.1609518 -16.42 0.0007767922    1.470    0.320
        26  -7.8047    139.3542    244.6419   1.2971893439e+02   1.0274722209e+01    0.1140071   0.06762055  54.55 -0.0003863304    1.864    0.464
        27  -9.3299    160.4608    240.7975   1.2546782962e+02   7.8070654428e+00    0.2854197    0.2124888  82.46  0.001543793    2.675    0.626
        28  -8.2736     88.3013    242.0684   1.3903804382e+02   1.7446219975e+01    0.1770346    0.1227009  84.54 0.0007882559    1.770    0.435
        29  -9.0282     77.6213    242.9711   1.4111459702e+02   1.8645557070e+01    0.1841059    0.1108592  71.63  0.001076476    1.820    0.450
        30  -8.9035    194.1795    240.0118   1.1945318979e+02   3.2171037794e+00    0.1882018    0.1528568 -45.42  0.001039125    1.978    0.495
        31  -9.2419    183.2958    240.3204   1.2136459634e+02   4.6781972647e+00    0.3331901     0.205157  55.23  0.001973344    2.552    0.608
        32  -7.7721    153.4112    242.1762   1.2689644547e+02   8.6279570310e+00    0.1209977    0.1055686  86.44 0.0008352143    1.759    0.432
        33  -8.5928    146.9435    240.5619   1.2790324997e+02   9.7315265951e+00    0.3063422     0.176811  62.15  0.001644886    2.923    0.658
        34  -8.2109    214.2881    240.9967   1.1623123127e+02   4.3332511256e-01    0.1483813    0.1076964  15.36 0.0008897017    1.113    0.102
        35  -8.4095    209.0331    238.7045   1.1679173980e+02   1.3463558073e+00    0.1493205    0.1324983 -22.13 0.0006786653    1.650    0.394
        36  -9.0360    135.6792    239.1581   1.2984316108e+02   1.1488870378e+01    0.2364823    0.1145826  46.29  0.001246777    1.700    0.412
        37  -8.0140    129.7152    239.1351   1.3095752614e+02   1.2323479696e+01    0.1806566   0.09345897  59.47 0.0009424179    2.739    0.635
        38  -9.4538    230.8942    237.2370   1.1307067893e+02  -1.3619392792e+00    0.1898589    0.1710546  10.59 0.0005135401    1.630    0.387
        39  -9.7191      8.3892    235.2777   1.5362954833e+02   2.7247309218e+01    0.3016471   0.07103273  45.82  0.001702396    2.190    0.543
        40  -8.9373     25.5248    236.8820   1.5055160788e+02   2.5380794859e+01    0.2169694   0.08575895  68.82  0.001295118    2.277    0.561
        41  -8.7129    203.0700    234.7384   1.1726355500e+02   2.5464635710e+00    0.1787943    0.1550581 -48.01 0.0009651194    1.983    0.496
        42  -9.5753    175.7839    233.4600   1.2184225063e+02   6.5008294910e+00    0.3304262    0.2059996 -55.25  0.002043544    2.822    0.646
        43  -8.3505    170.2635    235.6206   1.2309700759e+02   7.0344828568e+00    0.2074767      0.13798 -35.28  0.001066563    1.978    0.495
        44  -9.3078    109.2838    234.6569   1.3442609165e+02   1.5763747093e+01    0.4931477    0.1493737  46.33  0.002003527    2.610    0.617
        45  -7.7880     58.9901    237.0000   1.4428255324e+02   2.1778083589e+01    0.1781608   0.04568933  34.31  0.000743865    2.913    0.657
        46  -9.9915    214.9166    233.2780   1.1509491654e+02   1.0899690375e+00    0.3869705    0.3166294  80.19  0.002394036    3.567    0.720
        47  -8.1877    122.9683    234.2948   1.3176038220e+02   1.3925296628e+01    0.2012938    0.1214354  70.35 0.0009491185    2.601    0.616
        48  -8.2436     99.8352    234.6829   1.3625492787e+02   1.7033520797e+01    0.2037348    0.1141976  64.37   0.00112725    2.091    0.522
        49  -8.7697     79.0445    234.6144   1.4027941653e+02   1.9734215785e+01    0.2277559    0.1198242  60.34  0.001009968    1.812    0.448
        50  -9.2180     68.6367    232.7649   1.4217575203e+02   2.1304377251e+01    0.4181131    0.1242067  54.82  0.001856663    3.281    0.695
        51  -8.3969    194.3435    232.9191   1.1851169676e+02   3.9415297914e+00    0.1470706    0.1139451  19.02  0.000512963    1.119    0.107
        52  -8.5071    144.3663    232.7814   1.2753581841e+02   1.1093852629e+01    0.3145483    0.1314207  55.79  0.001171405    5.008    0.800
        53  -8.7065    139.9591    229.9768   1.2806057320e+02   1.2101962045e+01    0.1898422    0.1473779  78.30 0.0005795624    1.885    0.469
        54  -7.7817    132.7725    233.5536   1.2981338956e+02   1.2646135378e+01    0.1619499   0.07978518  43.46 0.0009322211    1.538    0.350
        55  -8.5140     92.7481    232.4061   1.3744670989e+02   1.8313480365e+01    0.2507284    0.1240216  58.93  0.001414127    2.100    0.524
        56  -9.6296    236.3067    229.8389   1.1118836953e+02  -1.3898354353e+00    0.3768743    0.1604234 -21.45  0.001071321    2.669    0.625
        57  -9.2733    186.5336    230.8548   1.1960274017e+02   5.2674122757e+00    0.2344027    0.1959616  68.47  0.001384689    2.071    0.517
        58  -9.0452      1.7947    231.0950   1.5473877530e+02   2.8500422402e+01    0.1995081   0.08866289  67.41 0.0009519764    1.719    0.418
        59  -9.8087    149.7648    226.3604   1.2578032374e+02   1.1157360597e+01    0.4710766    0.3081782  85.37  0.002350015    3.905    0.744
        60  -8.3249    229.7078    229.1306   1.1212598785e+02  -4.7227360592e-01    0.1403495     0.121813   0.11 0.0008004696    1.479    0.324
        61  -8.6881    162.3877    227.9281   1.2359865148e+02   9.1030631243e+00    0.2488669    0.1442623  49.81  0.001322839    1.818    0.450
        62  -8.7693    128.1584    227.5256   1.3006934132e+02   1.4143280205e+01    0.2457659    0.1466934  56.34  0.001295099    1.816    0.449
        63  -8.0868    120.0132    227.9395   1.3170187603e+02   1.5246915459e+01    0.1814671     0.111018  56.90 0.0006016844    1.697    0.411
        64  -8.0606    189.6357    237.2055   1.1987737368e+02   4.1368424030e+00     0.131034   0.09320399  -9.94 0.0005455173    1.616    0.381
        65  -7.9779    223.4522    227.4728   1.1289362365e+02   5.1093902151e-01    0.1259695   0.09708816 -24.69 0.0005542858    1.647    0.393
        66  -9.2454    225.1209    222.3418   1.1188456477e+02   7.8472697338e-01    0.2816272    0.1508643 -18.83 0.0009037986    2.054    0.513
        67  -8.9121    206.2237    226.0301   1.1554647598e+02   3.0121864501e+00     0.250952    0.1705589 -31.82  0.001338337    1.847    0.459
        68  -8.0010     49.2013    226.7571   1.4562486553e+02   2.4542519188e+01    0.1898856   0.06296277  57.49 0.0007849268    2.650    0.623
        69  -7.9909    200.0221    226.3287   1.1664765376e+02   3.8521173109e+00    0.1588047    0.1106114  29.36 0.0004465482    1.092    0.084
        70  -8.7558    216.5926    223.7594   1.1348700960e+02   1.8075429117e+00    0.2066575    0.1809717 -46.02 0.0009530447    2.006    0.502
        71  -8.6910    180.5791    224.5328   1.1983370976e+02   6.8537146780e+00    0.1765058    0.1659856  46.68 0.0007498314    1.486    0.327
        72  -8.8107    104.7658    223.6617   1.3430817325e+02   1.8030450404e+01    0.2838006     0.168295  66.99  0.001655284    2.083    0.520
        73  -8.6985     94.1279    224.3937   1.3650845626e+02   1.9370826212e+01    0.2979077    0.1494204  59.96  0.001627055    2.159    0.537
        74  -7.9123     38.4583    224.9408   1.4764085861e+02   2.6015551576e+01    0.1516995   0.05915685  65.74 0.0008075849    2.436    0.590
        75  -8.5962    173.0893    223.2877   1.2103385727e+02   8.1054419144e+00    0.1720982    0.1635968  37.98 0.0004794643    1.403    0.287
        76  -7.7615    114.1197    224.2012   1.3249171037e+02   1.6635437297e+01    0.1644078     0.105972  51.70 0.0006725168    1.357    0.263
        77  -8.0197     59.9785    223.5142   1.4330491796e+02   2.3842073848e+01    0.2355956   0.08071528  61.80 0.0008630814    3.460    0.711
        78  -7.2387    233.2919    223.6662   1.1076998197e+02  -4.3246207547e-01   0.09012687   0.07890821  30.25  0.000531358    1.635    0.388
        79  -9.2915    192.4770    221.3624   1.1727748275e+02   5.4852226146e+00    0.2414861    0.2170202  65.19  0.001072436    1.799    0.444
        80  -9.1785    160.2307    221.1729   1.2315977336e+02   1.0288223638e+01    0.4689272    0.1927465  51.59   0.00162974    3.454    0.710
        81  -7.9732    140.3302    222.6912   1.2716522785e+02   1.3049195712e+01    0.1723257     0.111945  56.32 0.0006011204    1.728    0.421
        82  -9.0168    239.1152    221.0441   1.0946938238e+02  -9.5153127038e-01    0.2382773    0.1374415 -18.23 0.0008029181    1.757    0.431
        83  -8.2703    202.8205    220.4406   1.1534120042e+02   4.0927479821e+00    0.1771349    0.1241917  10.20 0.0005455109    1.298    0.230
        84  -9.0902    120.5159    219.3130   1.3070902427e+02   1.6454491020e+01    0.3895747    0.1829049  56.41  0.001710459    2.627    0.619
        85  -8.4544     82.8075    220.6870   1.3849062202e+02   2.1468479838e+01     0.214037    0.1130967  63.83 0.0009921093    2.027    0.507
        86  -8.1658     72.9737    220.3278   1.4046640343e+02   2.2788435448e+01    0.2259603    0.1052164  68.28  0.001152063    2.647    0.622
        87  -8.2129     27.6138    221.2379   1.4960876515e+02   2.7758396827e+01     0.128801   0.08913475 -77.75 0.0009537403    1.685    0.407
        88  -9.3207    248.3666    216.5796   1.0737454221e+02  -1.7410286754e+00    0.3885927     0.255082 -33.29  0.002748532    2.076    0.518
        89  -8.3763    209.9728    219.1893   1.1393764711e+02   3.2069408223e+00    0.1592344    0.1264529  29.36 0.0004972692    1.257    0.205
        90  -8.0000    135.3539    218.6739   1.2767613907e+02   1.4360600541e+01    0.1894145   0.08681124  41.91 0.0008944874    1.659    0.397
        91  -8.8022    132.1302    215.2078   1.2791548597e+02   1.5352713869e+01    0.2612578    0.1911852  80.41  0.001135532    2.007    0.502
        92  -8.2531     61.9437    217.2928   1.4251090853e+02   2.4658486928e+01    0.2070094    0.1141959  61.82 0.0008042735    1.616    0.381
        93  -8.8820     51.6497    217.6036   1.4463402590e+02   2.5812241220e+01    0.2212794    0.1255922  65.85 0.0007108906    1.575    0.365
        94  -8.6187    169.4003    216.4106   1.2080780365e+02   9.5240586128e+00    0.2265587    0.1595535  64.28 0.0008617112    2.298    0.565
        95  -8.6832    143.0969    216.6032   1.2590016663e+02   1.3495042312e+01     0.224869    0.1640621  65.33  0.001146573    1.798    0.444
        96  -7.8028    111.7924    217.2146   1.3225546577e+02   1.8040523214e+01    0.1975348   0.09623088  60.03 0.0008338671    2.707    0.631
        97  -8.3815     18.5263    216.5340   1.5122675912e+02   2.9450567316e+01    0.1896424   0.08993978 -87.82  0.001088916    2.113    0.527
        98  -8.8065    232.3185    214.4253   1.0954579476e+02   5.8352864382e-01    0.2295548    0.1551464 -22.04  0.001096055    1.597    0.374
        99  -8.3081    185.6901    214.3056   1.1750304271e+02   7.3213959160e+00    0.1654175    0.1459248 -44.92 0.0007565701    1.645    0.392
       100  -8.1227    154.4000    215.1678   1.2350959894e+02   1.1976662066e+01    0.1367927    0.1164376 -74.66 0.0008819471    1.745    0.427
       101  -8.6625     93.2659    214.1583   1.3577688254e+02   2.1143526629e+01    0.3100176    0.1362503  53.24  0.001162188    2.120    0.528
       102  -7.6230    197.3099    214.3515   1.1542642839e+02   5.5795069678e+00    0.1205199   0.07366651  12.31 0.0007044391    1.719    0.418
       103  -9.2909     73.3467    212.2593   1.3978302768e+02   2.4110730775e+01    0.5420833    0.1576337  54.14  0.002119903    3.701    0.730
       104  -8.0648    224.6892    212.9236   1.1055129257e+02   1.7862274616e+00    0.1521454    0.1172545   7.71 0.0005077036    1.132    0.117
       105  -9.3504    214.0440    212.1273   1.1220236513e+02   3.3811107493e+00    0.3073684    0.2105353  46.93  0.001817637    1.811    0.448
       106  -8.6088    161.7413    212.5097   1.2174055076e+02   1.1212179654e+01    0.2025045    0.1718569  49.03 0.0007103485    1.326    0.246
       107  -7.9324    106.5104    213.0169   1.3291258463e+02   1.9468298199e+01    0.1475225    0.1188195 -76.63  0.001016207    1.554    0.356
       108  -8.7680    204.3582    211.2139   1.1372715708e+02   4.8954515743e+00     0.200296    0.1857047 -28.56 0.0008616861    1.572    0.364
       109  -9.4736    175.5657    210.2174   1.1879384065e+02   9.3794200417e+00    0.3499118    0.2493288  67.29  0.001348452    2.526    0.604
       110  -9.5296      6.6302    209.3341   1.5337226277e+02   3.1790544382e+01    0.4856139   0.09444723  63.42  0.002014875    4.103    0.756
       111  -8.1633    192.2559    210.5892   1.1577736186e+02   6.7783321681e+00    0.1668151    0.1438384 -42.50  0.000614799    1.667    0.400
       112  -8.6352    148.0084    210.4512   1.2415556085e+02   1.3625323635e+01    0.2231887     0.167659  66.39 0.0009308546    1.782    0.439
       113  -8.8084    116.3370    210.3016   1.3058328729e+02   1.8470959143e+01    0.3061164    0.1732636  61.18  0.001053066    2.146    0.534
       114  -9.1455     33.3034    210.9567   1.4804201082e+02   2.8976389533e+01    0.3723578   0.06043618  48.16  0.001571302    3.274    0.695
       115  -8.3826     85.7819    209.7363   1.3694925044e+02   2.2910507637e+01    0.2276952    0.1240353  68.04  0.001224266    2.171    0.539
       116  -9.2584    236.6454    207.6246   1.0780484089e+02   6.6191254283e-01    0.3346885    0.2038997 -21.34  0.001851034    1.671    0.402
       117  -8.3157    139.1275    208.1724   1.2564684655e+02   1.5338151729e+01     0.200376      0.14511  71.99 0.0008809139    1.959    0.490
       118  -7.9042     46.3101    209.6551   1.4528063484e+02   2.7811601772e+01    0.1240593   0.05942055  57.80 0.0007045171    1.703    0.413
       119  -9.3832    246.3079    207.3154   1.0625048341e+02  -6.1501034764e-01    0.2153498    0.1578899  -7.20 0.0005958223    1.263    0.208
       120  -7.9083    156.4081    208.1993   1.2219700017e+02   1.2637559868e+01    0.1365369    0.1195853 -72.11 0.0007652247    1.640    0.390
       121  -9.5385    124.2802    206.2827   1.2846866179e+02   1.7917174932e+01    0.2783364    0.1716572  60.83 -0.0001541599    1.914    0.477
       122  -9.0937     99.4630    206.0443   1.3368497260e+02   2.1636572873e+01    0.3240843    0.1737578  66.08  0.001456554    2.437    0.590
       123  -8.5588     57.0545    206.0846   1.4278685650e+02   2.7215104327e+01    0.3312931    0.1166814  57.58  0.001424897    2.759    0.638
       124  -8.6768     12.0069    206.9808   1.5223335977e+02   3.1740628871e+01    0.1341319   0.09428589  60.16   0.00066525    1.035    0.034
       125  -9.1178    183.7113    204.0348   1.1636904956e+02   8.9077022193e+00     0.267034    0.2003119  51.84  0.001010985    1.624    0.384
       126  -8.5004    131.4605    204.3922   1.2674427009e+02   1.7110014632e+01    0.2686449    0.1544856  61.65  0.001237398    2.383    0.580
       127  -7.9870    109.1881    205.2255   1.3152570264e+02   2.0358906338e+01    0.1710384    0.1179001  57.27 0.0006147341    1.384    0.277
       128  -7.7969     25.2804    205.6133   1.4946728136e+02   3.0747173619e+01    0.1216401   0.05447342  59.37 0.0007003685    1.734    0.423
       129  -9.4119    250.1122    202.0871   1.0483449783e+02  -6.2584653586e-01    0.2917894     0.142405 -24.86  0.001238355    2.031    0.508
       130  -9.3464    194.9089    203.5597   1.1424313560e+02   7.2238493661e+00    0.3664657    0.2440883  -3.09   0.00144012    1.705    0.413
       131  -9.0920    192.3704    197.4629   1.1375721613e+02   8.3805916802e+00     0.267156    0.2444126  88.43    0.0012932    1.793    0.442
       132  -9.5133    163.8064    203.0132   1.2002239062e+02   1.2197643987e+01    0.3508561    0.2041617  51.99  0.001106451    1.937    0.484
       133  -7.9301     41.3067    203.0052   1.4596521705e+02   2.9570993335e+01    0.1777418   0.06053488  73.06 0.0007010491    4.066    0.754
       134  -8.2523     17.4647    203.0397   1.5099098594e+02   3.1961723322e+01    0.1548014   0.08962353  85.39  0.001032775    1.605    0.377
       135  -9.3489    243.0101    200.7126   1.0570144573e+02   4.7061622972e-01    0.2622304    0.1464312 -22.87  0.000761155    1.783    0.439
       136  -8.2456    211.0013    201.8002   1.1112566050e+02   4.9757937585e+00    0.1714557    0.1494332 -36.08 0.0005682487    1.642    0.391
       137  -8.9267    140.5561    201.0428   1.2442838311e+02   1.6201407282e+01    0.3036015    0.1992995  64.41  0.001104586    2.087    0.521
       138  -8.5558     80.3536    201.5986   1.3738941331e+02   2.5071885511e+01     0.338725    0.1315706  54.60  0.001305777    2.557    0.609
       139  -8.3014     48.3210    202.1527   1.4440816325e+02   2.8948937600e+01    0.2607359   0.09199448  56.88  0.001229875    2.529    0.605
       140  -7.6090    222.2552    201.6134   1.0918749692e+02   3.3260008330e+00   0.09303026   0.09164466  -2.08 0.0004900057    1.676    0.403
       141  -9.3176    149.4392    198.6855   1.2228211923e+02   1.5137499495e+01    0.3273876    0.2346407  71.48   0.00117172    2.130    0.530
       142  -8.7970    123.8215    199.1485   1.2769536052e+02   1.9143425600e+01    0.2365817    0.1708797  88.49   0.00094743    1.973    0.493
       143  -9.1633    112.9378    198.6338   1.2997151120e+02   2.0907432077e+01    0.4008187    0.2185911  62.24  0.001501716    2.356    0.576
       144  -9.0472     88.6981    198.7959   1.3529209182e+02   2.4429725262e+01    0.3069264    0.1839138  69.56  0.001227112    1.913    0.477
       145  -9.1154    236.8764    198.0226   1.0622609867e+02   1.5985123925e+00    0.2574424    0.1656094 -28.34  0.001467785    1.719    0.418
       146  -8.3448    177.1225    198.9267   1.1684148333e+02   1.0626127690e+01    0.1797442    0.1442494  44.60 0.0005406713    1.311    0.237
       147  -8.3681    202.2261    197.5976   1.1199590001e+02   6.8142798882e+00    0.1951458    0.1561289 -19.08 0.0006764883    1.380    0.275
       148  -9.0146     61.5437    197.2585   1.4117383393e+02   2.8294454250e+01     0.351434     0.156071  58.40  0.001317505    2.111    0.526
       149  -8.8869     13.0783    197.8764   1.5173326642e+02   3.3315603200e+01    0.2675667   0.08214771  56.85  0.001362129    2.365    0.577
       150  -8.6953    215.8450    195.6234   1.0929900784e+02   4.9502122868e+00     0.193321    0.1590367 -24.95  0.000672401    1.464    0.317
       151  -8.9214    185.2248    194.9975   1.1469607540e+02   9.8448712720e+00    0.1999135    0.1989188  61.57 0.0007442129    1.432    0.302
       152  -8.0894    133.0257    196.0339   1.2533545164e+02   1.8197480550e+01    0.1909889    0.1339667  62.12 0.0005138028    1.665    0.399
       153  -7.7589     53.3586    196.6676   1.4294611556e+02   2.9390498243e+01    0.1329291   0.06338294  57.32 0.0007041725    1.799    0.444
       154  -8.5730    224.5064    194.4562   1.0764746488e+02   3.7775383519e+00     0.190439    0.1470803 -23.46 0.0006472871    1.460    0.315
       155  -8.8483    161.0045    194.5039   1.1933314759e+02   1.3874989397e+01    0.2565325    0.1838526  57.14 0.0009137754    1.681    0.405
       156  -8.7972     44.0756    193.6359   1.4480946736e+02   3.1027478825e+01    0.4144754    0.1355246  59.68  0.001782261    3.078    0.675
       157  -9.4370    245.6580    192.9319   1.0400789798e+02   8.7984232733e-01    0.3078405    0.1837828  -8.07  0.001584383    1.586    0.370
       158  -8.3068    230.8936    194.1813   1.0655278540e+02   2.8639617711e+00    0.1639042     0.140763  16.94 0.0009311434    1.289    0.224
       159  -8.6779     77.0956    193.9258   1.3741150049e+02   2.6914960464e+01     0.218099    0.1550203  61.77 0.0005470758    1.251    0.201
       160  -8.4568    172.3998    191.9826   1.1668537864e+02   1.2357881501e+01    0.2189407    0.1927718 -81.43  0.001336785    1.728    0.421
       161  -8.4118     23.6868    192.6827   1.4926295900e+02   3.3318977161e+01    0.2552807   0.06195656  46.46  0.001186239    2.568    0.611
       162  -8.1517    198.9571    191.9485   1.1166863521e+02   8.0282485969e+00    0.1676463    0.1466915  60.54  0.000608772    1.689    0.408
       163  -7.9640    179.0554    191.9436   1.1538646364e+02   1.1264389597e+01    0.1779346    0.1441049  60.94 0.0005422301    1.681    0.405
       164  -9.0890    139.4655    190.6058   1.2321872959e+02   1.8032918511e+01    0.3111955    0.2304148  80.69 0.0009735671    2.013    0.503
       165  -9.1320      6.9610    190.8394   1.5281665349e+02   3.5171721875e+01    0.3268504    0.1011575  68.05  0.001579701    2.773    0.639
       166  -7.5478    205.2601    191.6516   1.1048913858e+02   7.0624244423e+00    0.1008348   0.09591625  60.81 0.0004078331    1.603    0.376
       167 -10.3784     91.9371    188.6804   1.3350963334e+02   2.5817895854e+01    0.8649375    0.2091511  46.67   0.00304235    3.562    0.719
       168  -7.9035     90.5094    181.9835   1.3308895011e+02   2.7293988484e+01    0.2280373    0.1833523 -19.54  0.001349045    1.870    0.465
       169  -9.0662    216.6577    188.4973   1.0797259534e+02   5.6521004981e+00    0.2820815    0.1954241 -36.26 0.0009987392    1.780    0.438
       170  -8.4587    148.5339    189.6737   1.2117008315e+02   1.6679068288e+01    0.2262553    0.1766776  68.65 0.0007514449    1.671    0.401
       171  -9.1926    155.9997    187.4892   1.1928822698e+02   1.5768150120e+01    0.2849915    0.2080789 -56.83 0.0008515796    1.845    0.458
       172  -8.7727    129.2937    188.6352   1.2513376481e+02   2.0028152643e+01     0.261466     0.177096  61.89  0.001217198    1.714    0.417
       173  -9.8103    121.0035    186.7688   1.2670585742e+02   2.1694645162e+01    0.4876552    0.2839576 -81.00  0.002198865    3.172    0.685
       174  -8.6525     34.3115    188.2745   1.4668371852e+02   3.3113599067e+01     0.302532    0.1326658  69.07 0.0009779858    2.197    0.545
       175  -8.6757    242.6223    188.1607   1.0367061296e+02   1.7987512943e+00    0.1517712   0.09075944 -10.76  0.000933825    1.602    0.376
       176  -8.1138    237.0305    188.3378   1.0458108920e+02   2.5911787793e+00    0.1606435    0.1230804  15.28 0.0005771124    1.048    0.046
       177  -8.7331    191.4945    187.3521   1.1228178398e+02   9.8349294069e+00    0.2250608    0.1950542  81.69  0.001034442    1.928    0.481
       178  -9.0683    164.7568    186.6939   1.1737427645e+02   1.4408819476e+01    0.3231178    0.2358716 -50.70  0.001241013    1.785    0.440
       179  -9.0061     54.7671    187.1248   1.4193204867e+02   3.1057814594e+01    0.3570282    0.1509651  60.21  0.001516094    2.329    0.571
       180  -8.0552    230.4586    187.2575   1.0545456979e+02   3.6828672892e+00    0.1438673    0.1045654 -32.93 0.0009402114    1.681    0.405
       181  -9.0634    109.4363    186.1573   1.2922453461e+02   2.3640590294e+01    0.3274789    0.2022433  67.48  0.001137356    2.035    0.509
       182  -8.6959    249.2960    184.9115   1.0208578684e+02   1.1809571206e+00    0.2743206    0.1360534 -25.16 0.0009409146    1.945    0.486
       183  -8.7588    210.2120    184.6403   1.0843205042e+02   7.1337937493e+00    0.2235639    0.1518351 -24.82 0.0007399697    1.561    0.359
       184  -8.8669    182.9677    184.9373   1.1349524567e+02   1.1584201463e+01    0.2878354     0.180551 -39.20  0.001000512    1.889    0.471
       185  -8.6974    202.8135    184.4412   1.0971425919e+02   8.3558625136e+00    0.2358127    0.1625331 -49.04 0.0008300157    2.180    0.541
       186  -8.9973     66.6749    184.3048   1.3892615773e+02   3.0132314739e+01     0.345881    0.1614104  61.36  0.001007275    2.239    0.553
       187  -8.3025    224.1666    183.6085   1.0586287761e+02   5.0549970774e+00    0.1840322    0.1456071 -25.27 0.0006319212    1.437    0.304
       188  -8.7764    174.2554    183.6709   1.1498501188e+02   1.3240935387e+01    0.2354826    0.1957034  67.13 0.0008361721    1.674    0.403
       189  -8.1783      2.1064    183.8300   1.5367708394e+02   3.6916059699e+01    0.1990624   0.08766682  39.35  0.001195621    1.750    0.429
       190  -8.8321     44.5036    182.4834   1.4397981305e+02   3.3163576348e+01    0.3386791    0.1541543  58.56  0.001019504    1.934    0.483
       191  -9.0816    147.6465    180.7973   1.2000579320e+02   1.8258622446e+01    0.3166716    0.2180068  65.73 0.0009817316    2.000    0.500
       192  -9.4080     25.8737    179.5080   1.4814850740e+02   3.5698824427e+01    0.5306723    0.1646449  67.99  0.002144707    3.608    0.723
       193  -7.7017    240.4797    181.4690   1.0284644638e+02   2.8197855910e+00    0.1177118   0.09043391  10.94 0.0001273002    1.013    0.012
       194  -7.4468    235.2923    181.6536   1.0370123665e+02   3.5746111441e+00   0.09767089   0.09445745 -32.50 0.0007028845    1.664    0.399
       195  -8.4154    137.5453    179.3963   1.2198268545e+02   2.0225737626e+01     0.263342    0.1878303  72.28  0.001073654    1.956    0.489
       196  -9.4006    191.5908    178.4019   1.1073937346e+02   1.1027318066e+01    0.2671067    0.2196896  55.23 0.0006148496    1.554    0.356
       197  -9.4901    183.9631    176.9657   1.1194658483e+02   1.2539422084e+01     0.411151    0.3008111  74.42  0.001605373    2.636    0.621
       198  -8.1547    169.5034    178.9300   1.1514710849e+02   1.4763207591e+01    0.1690193    0.1300685 -38.90 0.0007149139    1.534    0.348
       199  -9.1176     35.9160    176.8735   1.4563584001e+02   3.5226061678e+01    0.4923642    0.1715575  70.74  0.001964594    3.602    0.722
       200  -9.4131    248.4919    176.5179   1.0073286727e+02   2.1683760639e+00     0.346348    0.2151852 -35.51  0.001974331    1.938    0.484
       201  -8.4873    250.5182    172.9206   9.9780720911e+01   2.2517302153e+00    0.1905272    0.1210241 -13.61 0.0004796886    1.413    0.292
       202  -8.1115    217.6623    177.3734   1.0586516690e+02   6.8236127823e+00    0.1868231    0.1408862 -34.85 0.0006865725    1.601    0.375
       203  -8.3735    205.1022    177.6574   1.0812108280e+02   8.8487514795e+00    0.1885061    0.1648255 -23.03 0.0006188326    1.338    0.253
       204  -8.5791    129.4359    177.4836   1.2349967627e+02   2.1938839897e+01    0.2865376    0.1789894  68.65  0.001227008    2.386    0.581
       205  -7.9819     97.7966    177.6657   1.3085311724e+02   2.7032173047e+01    0.1972661    0.1482564  28.12 0.0009239016    1.395    0.283
       206  -8.4485    231.1252    176.8026   1.0351354567e+02   4.7572117058e+00    0.1905212    0.1461921 -27.72 0.0007212235    1.473    0.321
       207  -8.6238     89.0172    177.1358   1.3287957304e+02   2.8455306457e+01    0.2428081    0.1413019  54.21 0.0007691242    1.568    0.362
       208  -9.8278     57.2861    173.2003   1.4018312702e+02   3.3554602390e+01    0.7626421    0.2878274  70.45  0.002574948    4.778    0.791
       209  -8.6397     12.7285    176.7038   1.5106610732e+02   3.7457585784e+01    0.2490843   0.09513861  58.00  0.001108647    2.043    0.510
       210  -9.2317    158.9461    175.0048   1.1666597920e+02   1.7227940808e+01    0.3505371    0.2739632  84.58  0.001313345    2.015    0.504
       211  -9.2704    104.3545    174.7990   1.2892671357e+02   2.6561819389e+01    0.4702048     0.213347  58.19  0.001719736    2.905    0.656
       212 -10.6064     75.9684    170.4563   1.3529328419e+02   3.1670856389e+01     1.082077    0.4303361 -82.45  0.003736659    4.694    0.787
       213  -8.5710     79.0924    158.4920   1.3307537938e+02   3.3732006024e+01    0.3522932    0.1311284  29.65  0.001316171    3.055    0.673
       214  -8.1445    224.4234    174.2814   1.0416437677e+02   6.1087687733e+00    0.1503362    0.1091598 -32.99  0.000707804    1.592    0.372
       215  -9.4930    175.7530    172.4016   1.1276415510e+02   1.4650417559e+01    0.2948254     0.251099 -28.89 0.0008415475    1.331    0.248
       216  -8.3102    142.9763    172.9282   1.1976606889e+02   2.0394844755e+01    0.2046523    0.1513428  64.68 0.0005889659    1.651    0.394
       217  -8.5329    134.8125    172.0881   1.2145483742e+02   2.1972855087e+01    0.2042298     0.167837  59.32 0.0007260515    1.269    0.212
       218  -9.4911    121.4443    170.6334   1.2430184043e+02   2.4541799183e+01    0.3539881    0.2510005  81.79  0.001064469    1.948    0.487
       219  -9.0543     45.1164    171.0041   1.4299573668e+02   3.5442262174e+01     0.359166    0.1756053  79.05  0.001255334    2.220    0.550
       220  -9.1058    230.2418    170.1684   1.0245200308e+02   5.6656318077e+00    0.2247846    0.1675582 -14.02 0.0007672138    1.263    0.208
       221  -8.1641    205.7679    170.3680   1.0668597093e+02   9.6885903507e+00    0.2005087    0.1504268 -42.72  0.000715115    1.713    0.416
       222  -8.4880    198.3564    170.3954   1.0804407703e+02   1.0960998959e+01    0.2439802    0.1837585  60.08 0.0009582938    1.882    0.469
       223  -8.4037    237.1265    169.8185   1.0128046519e+02   4.6201353559e+00    0.1653227    0.1451523   5.86 0.0004932046    1.232    0.188
       224  -9.1809    167.3951    168.8528   1.1383855334e+02   1.6697743154e+01    0.3354092    0.2255184  64.03  0.001060304    2.197    0.545
       225  -8.6750    149.7882    169.3831   1.1767970983e+02   1.9789626027e+01    0.2573868    0.1800836 -58.17  0.001057599    1.855    0.461
       226  -8.0206    218.9716    168.5116   1.0402684531e+02   7.7013658550e+00    0.1797494    0.1479421  -7.23 0.0004185409    1.162    0.139
       227  -8.2457     88.6408    168.5454   1.3192465741e+02   3.0227162838e+01    0.2233934    0.1452668  81.88  0.001136513    1.861    0.463
       228  -8.5851    111.7293    167.6279   1.2615541406e+02   2.6748195364e+01    0.3309165    0.1803288  63.54  0.001141807    2.539    0.606
       229  -8.8049    191.8761    166.6032   1.0856156339e+02   1.2630265879e+01    0.2204475    0.1844759 -36.17 0.0006587064    1.410    0.291
       230  -8.8614    185.0144    166.7387   1.0990932920e+02   1.3838676237e+01    0.2144299    0.1802851 -24.27 0.0006450347    1.296    0.229
       231  -9.9282    136.8823    164.5884   1.1975609261e+02   2.2952983645e+01    0.6336033    0.2728659  53.81  0.002202312    2.961    0.662
       232  -9.9968     94.9610    163.0040   1.2961615370e+02   3.0386740244e+01    0.7836825     0.371347  68.27  0.002623936    4.338    0.769
       233  -9.1016     20.6536    166.3822   1.4872212548e+02   3.8887953831e+01    0.3603536    0.1059288  53.49   0.00107796    2.696    0.629
       234  -8.1742     12.8305    167.6143   1.5067914457e+02   3.9309243420e+01    0.1688742   0.07585713  42.56 0.0009431388    1.746    0.427
       235  -8.2248    233.7788    164.8181   1.0088370350e+02   5.7283148446e+00     0.199083     0.130147 -20.63 0.0005084901    1.459    0.315
       236  -8.5804    159.5519    164.6026   1.1473117923e+02   1.8817796108e+01     0.237438     0.216204  76.60 0.0008193545    1.368    0.269
       237  -9.3607     33.2754    163.2923   1.4539279256e+02   3.8337813491e+01    0.5155911    0.1484444  53.28  0.002100265    3.029    0.670
       238  -8.2143    239.9089    164.3179   9.9819657250e+01   4.8117761974e+00    0.1680699    0.1309454  15.40 0.0004709392    1.066    0.062
       239  -8.5464    212.9215    163.6576   1.0416149103e+02   9.3428436439e+00    0.2213855    0.1714832 -30.57    0.0006479    1.424    0.298
       240  -8.2749     57.2066    164.0259   1.3935304839e+02   3.5490687263e+01    0.3193892    0.1684116  13.15  0.001305534    3.552    0.718
       241  -9.5062    245.9281    161.9786   9.8452569370e+01   4.1359797664e+00    0.3807681    0.1492435 -32.13  0.001850175    2.482    0.597
       242  -8.4528    204.8939    163.1226   1.0548942183e+02   1.0809955906e+01     0.179784    0.1689562  22.52 0.0005608534    1.253    0.202
       243  -9.3989      3.5968    162.4523   1.5271517965e+02   4.1114413488e+01    0.4129946    0.1141257  46.83  0.001708711    2.470    0.595
       244  -8.9124    151.5636    161.1993   1.1585700755e+02   2.0870940029e+01    0.2749973    0.2308962  77.43 0.0008738762    1.531    0.347
       245  -8.9392    177.4454    160.5261   1.1025215468e+02   1.6162718782e+01     0.247857    0.2242998  87.93 0.0008994369    1.526    0.345
       246  -8.6739     60.6077    160.1294   1.3808418395e+02   3.5900108414e+01    0.3364198    0.1619485  62.31  0.001154738    2.229    0.551
       247  -9.5727    250.2040    157.8854   9.7034524541e+01   3.9301800864e+00    0.2560224    0.1450668 -26.34 0.0008114692    1.645    0.392
       248  -7.8907    237.2758    159.0099   9.9224311162e+01   5.8473291902e+00    0.1722022    0.1346763  -8.97 0.0005885577    1.144    0.126
       249  -8.5059    227.2982    158.9178   1.0081148651e+02   7.5017362644e+00    0.2037538    0.1821493 -44.99  0.001345288    1.584    0.369
       250  -8.3581    128.2377    159.1376   1.2085125565e+02   2.5519899393e+01    0.2623281    0.1599931  60.48 0.0006906899    1.983    0.496
       251  -9.5170    105.6302    157.9693   1.2619769628e+02   2.9684510245e+01    0.4159162    0.2806931  78.85  0.001159437    1.933    0.483
       252  -8.3917    196.5395    158.0015   1.0604437672e+02   1.3020647858e+01    0.2319018    0.1748415  52.78 0.0008308074    1.544    0.352
       253  -8.1449    188.0496    157.8201   1.0763082932e+02   1.4608043787e+01    0.2154927    0.1669144 -48.06 0.0005092315    1.633    0.388
       254  -9.1057    167.5162    157.1874   1.1166662399e+02   1.8557499139e+01    0.3054289    0.2452196  80.61  0.001162992    1.848    0.459
       255  -8.3718    217.9953    156.5381   1.0190930613e+02   9.3914572653e+00    0.2294952    0.1645791 -42.56 0.0008782786    1.756    0.431
       256  -9.1633    157.5515    155.9290   1.1356705948e+02   2.0657776327e+01    0.3046499       0.2405 -73.34  0.001059348    1.805    0.446
       257  -9.2542    119.5618    155.4839   1.2233051997e+02   2.7779114262e+01    0.3708341    0.2569328  87.21  0.001784122    2.084    0.520
       258  -9.1066     49.7183    155.4089   1.4048122878e+02   3.8260190531e+01    0.4282443    0.1775646  57.87  0.001802446    2.445    0.591
       259  -9.1610     81.4077    154.5209   1.3194942906e+02   3.4243343460e+01    0.4292395    0.2258908  67.39  0.001281244    2.494    0.599
       260  -8.7069     23.6600    155.9457   1.4738189890e+02   4.0848073366e+01     0.272129    0.1621452  -2.27  0.001348504    3.089    0.676
       261  -9.1196    239.7178    153.3345   9.7742951722e+01   6.1186611702e+00     0.220572    0.1503482 -49.30  0.000435864    2.317    0.568
       262  -7.9443    204.7564    155.5782   1.0405345029e+02   1.1869792903e+01    0.1664364    0.1175752  47.73 0.0003526617    1.502    0.334
       263  -8.5018    144.8803    155.1191   1.1625120327e+02   2.3198879674e+01    0.3025762    0.1806705  57.10  0.001053101    1.959    0.490
       264  -9.5772    132.9207    153.0689   1.1867101244e+02   2.5818987669e+01    0.4404448    0.3145711  73.67  0.001266777    1.903    0.474
       265  -9.1909    133.4984    148.0816   1.1761359356e+02   2.6666628222e+01    0.3174256     0.241767 -48.30  0.001586014    1.475    0.322
       266  -9.4550     68.0133    153.8036   1.3542125380e+02   3.6302991492e+01    0.4327612    0.2132391  60.52  0.001636182    2.213    0.548
       267  -7.8752    232.6861    154.2976   9.9037989273e+01   7.1659553545e+00    0.1060617    0.1007221 -60.54  0.000254515    1.605    0.377
       268  -8.6693     20.1535    152.8415   1.4811199378e+02   4.1838001422e+01    0.1918067    0.1227502  60.02 0.0006333307    1.283    0.220
       269  -9.4346     29.2813    150.7266   1.4555553246e+02   4.1470629402e+01     0.448828     0.162007  59.68  0.001747494    2.722    0.633
       270  -8.8568      3.4270    151.0969   1.5236607580e+02   4.3537412114e+01    0.3133765    0.1389501  71.56  0.001680363    1.904    0.475
       271  -9.4274    248.6510    149.4529   9.5630971697e+01   5.1245468111e+00    0.2784041     0.174584 -25.15  0.000753666    1.472    0.321
       272  -9.1748    243.1202    150.3406   9.6633423858e+01   5.9150453688e+00    0.2273938    0.1559005 -29.37 0.0009086296    1.466    0.318
       273  -8.8620    189.7453    150.5470   1.0586340399e+02   1.5382483795e+01    0.2663782    0.2324485  85.45  0.001136665    1.676    0.403
       274  -7.9888    182.4210    151.2457   1.0744439560e+02   1.6671392156e+01    0.1712046    0.1300107 -48.66 0.0005467216    1.624    0.384
       275  -8.2195    162.3497    150.9741   1.1156797093e+02   2.0587247294e+01    0.1853664    0.1772354  -3.74 0.0006143685    1.129    0.114
       276  -8.5872     98.2936    150.8441   1.2697133574e+02   3.2381513025e+01    0.2614328    0.1879664  72.48 0.0009099123    1.555    0.357
       277  -8.1850    212.8790    150.0832   1.0151078477e+02   1.1154276588e+01    0.1796113    0.1706133  -6.12 0.0003286104    1.247    0.198
       278  -9.8423     39.8966    148.0608   1.4246116185e+02   4.0993260548e+01    0.5469808    0.2153303  60.46  0.002032998    2.691    0.628
       279  -8.1960    198.8484    149.0985   1.0384152105e+02   1.3878032382e+01    0.1836548    0.1794457  35.44 0.0004147238    1.269    0.212
       280  -9.8591     89.2581    146.3551   1.2867723563e+02   3.4808144799e+01    0.6444658    0.3479173  79.78  0.002423779    3.305    0.697
       281  -8.4306    233.3562    147.6500   9.7611242066e+01   7.8674032226e+00    0.2299922    0.1365684 -23.35 0.0006185642    1.603    0.376
       282  -7.6138    228.6541    148.7129   9.8578493549e+01   8.5426438779e+00    0.1328799   0.08460572  14.50 0.0002898148    1.652    0.395
       283  -8.6295     78.2641    147.2653   1.3179998337e+02   3.6292154701e+01    0.2784235    0.1580797  63.83 0.0007172733    1.982    0.496
       284 -10.5496     54.8234    143.3566   1.3782524540e+02   4.0347309300e+01    0.9424805    0.5173046 -88.34  0.003305112    1.991    0.498
       285  -7.9695    223.2839    146.9892   9.9111278605e+01   9.7023626885e+00    0.1739276    0.1461518  -5.58 0.0002971245    1.091    0.083
       286  -8.1517    206.8015    146.7601   1.0191024210e+02   1.2726232848e+01    0.1638146    0.1531439  47.45 0.0004697113    1.310    0.236
       287 -10.1847    148.9275    144.9772   1.1337575698e+02   2.4270590172e+01    0.5042143    0.3560597  79.49  0.001604783    2.296    0.564
       288  -9.9703    139.1138    145.1584   1.1570855953e+02   2.6151631766e+01    0.7389622    0.3564458 -61.69   0.00266389    3.498    0.714
       289  -9.2399    139.5723    137.9266   1.1415239468e+02   2.7448295005e+01    0.3913136    0.2469523  15.98  0.001596384    2.507    0.601
       290  -8.8688    105.0104    139.2289   1.2323932037e+02   3.3712178638e+01    0.6880037    0.2972875  24.98  0.001992545    4.836    0.793
       291  -9.3647     13.4768    146.2048   1.4951626368e+02   4.3854530084e+01    0.3810121    0.1490634  58.71  0.001318743    2.208    0.547
       292  -7.8763    243.6873    140.3176   9.4537771442e+01   7.0065289081e+00    0.1332049    0.1046418   4.90 0.0002742532    1.095    0.087
       293  -8.2851    240.2117    145.2323   9.6058247383e+01   7.0016770909e+00    0.2026399    0.1437619  -9.84 0.0005009857    1.277    0.217
       294  -7.7691    242.7094    143.3376   9.5297310666e+01   6.8101498669e+00    0.1729331    0.1045896 -15.70 0.0004847758    1.574    0.365
       295  -8.1412    175.6893    146.2335   1.0779519736e+02   1.8775457678e+01    0.1928038    0.1769553 -71.36 0.0006953675    1.403    0.287
       296  -9.7466    125.0186    142.9692   1.1873365030e+02   2.9275573536e+01    0.4882263    0.3365102 -88.58  0.001618871    2.220    0.550
       297  -9.1433     65.8466    144.8376   1.3490752388e+02   3.8589636141e+01    0.2852308    0.2061153  64.10   0.00159839    1.289    0.224
       298 -10.5212     69.2874    140.9493   1.3342577986e+02   3.8997291246e+01    0.5756454    0.3343992  85.11  0.001860747    2.119    0.528
       299  -9.4943     70.4483    133.8925   1.3208627853e+02   4.0449377018e+01    0.3219059    0.2250159   0.67  0.001242914    2.350    0.574
       300  -8.6529    247.1046    143.8602   9.4748056456e+01   6.0209033734e+00    0.2105759    0.1495612  -5.26  0.000471784    1.258    0.205
       301  -7.9764    250.4631    141.0626   9.3695670112e+01   5.7964001681e+00    0.1937755    0.1421491  11.01 0.0003907309    1.229    0.187
       302  -7.4219    194.4395    144.4273   1.0370942899e+02   1.5405381629e+01    0.1344587     0.120219  20.91 0.0001938236    1.045    0.043
       303  -8.6271    165.5559    144.0314   1.0947926694e+02   2.1146352441e+01    0.2521152    0.1869249  57.81 0.0008130373    1.517    0.341
       304  -9.4072      2.7040    141.5371   1.5219622791e+02   4.5674440847e+01    0.4543237    0.1587864  72.22  0.001979859    2.600    0.615
       305  -8.5140    182.0145    141.6129   1.0554679462e+02   1.8272571672e+01    0.2382569    0.1955462 -55.62 0.0006471344    1.555    0.357
       306 -10.0240    106.5689    144.5572   1.2376477227e+02   3.2304629107e+01    0.6351538     0.347265  68.27  0.002068964    3.030    0.670
       307  -9.7885     23.4065    138.3301   1.4628704113e+02   4.4802013979e+01    0.5048153    0.1978689  60.28  0.002031527    2.463    0.594
       308  -7.7420    218.7582    139.0130   9.8218047224e+01   1.1575467936e+01    0.1670177    0.1038637 -27.98 0.0003997633    1.575    0.365
       309  -8.1772    207.4250    138.2472   1.0001806312e+02   1.3813487254e+01    0.1987216    0.1710676  74.48 0.0007047981    1.649    0.393
       310  -8.5409    197.4716    137.5931   1.0169309060e+02   1.5839318164e+01    0.2386314    0.2152217 -49.27 0.0008039731    1.367    0.269
       311 -10.3584     83.3323    132.9963   1.2819825200e+02   3.8721732269e+01    0.6622452    0.3784345 -66.93   0.00135967    1.871    0.466
       312  -8.6384     85.2959    122.6081   1.2579165477e+02   4.0787575368e+01    0.4068094    0.2290389  17.63  0.001537302    3.023    0.669
       313  -8.8167    150.8719    136.1608   1.1111331568e+02   2.5507574088e+01    0.3848562    0.2098498  26.55     0.001498    2.492    0.599
       314  -9.3729     39.2400    136.3686   1.4155543021e+02   4.3732652519e+01    0.3014267    0.1724956  62.17  0.000937602    1.651    0.394
       315  -8.8862    248.3704    135.2823   9.2819692305e+01   6.8177788314e+00    0.2484894    0.1743142 -23.73 0.0006325764    1.297    0.229
       316  -9.0140    250.6256    129.7713   9.1356645078e+01   7.0882840603e+00    0.3835925    0.1038648 -29.01  0.001307809    3.328    0.700
       317  -8.3999    246.9127    130.3593   9.2007024137e+01   7.6504696591e+00    0.1998162    0.1493188 -26.56 0.0005336059    1.273    0.215
       318  -8.4044    187.6371    135.7985   1.0318620409e+02   1.8070916238e+01    0.1864924    0.1277793 -43.99 0.0004023663    1.657    0.396
       319  -8.3223    162.4353    136.2499   1.0852282214e+02   2.3129468218e+01    0.1879142    0.1388063 -54.23  0.000938018    1.636    0.389
       320  -8.5590    179.6212    133.9620   1.0438521836e+02   1.9993873179e+01    0.2736739    0.2119397 -58.65 0.0009099994    1.699    0.411
       321  -7.8918    237.4588    133.9363   9.4154372866e+01   8.8563749746e+00    0.1675376   0.09801258 -47.48 0.0008071738    2.421    0.587
       322  -9.1119    112.8976    133.2586   1.2000253278e+02   3.3558996514e+01    0.3458366    0.2493951  75.80  0.001071913    1.739    0.425
       323 -10.1785    132.4943    131.2403   1.1450044894e+02   3.0178347461e+01     0.578873    0.4026279  82.32  0.002036389    2.232    0.552
       324  -8.6793     98.8408    120.7692   1.2142473325e+02   3.8875960349e+01    0.5069015     0.326917   6.41    0.0019175    3.128    0.680
       325  -9.1278    142.8937    131.6153   1.1202290528e+02   2.7995920611e+01    0.3053429    0.2443976  82.67 0.0007647714    1.619    0.382
       326  -8.2175    204.6759    130.5268   9.8834282162e+01   1.5463759374e+01    0.2150965    0.1559423 -49.15 0.0005387937    1.726    0.420
       327  -9.6206     73.0848    129.2970   1.3060199553e+02   4.1132351674e+01    0.4323354    0.2507063 -88.51  0.001048942    2.207    0.547
       328 -10.0710     13.1714    129.6170   1.4866000781e+02   4.7628943871e+01    0.4763601    0.1971178  58.33  0.001914041    2.189    0.543
       329  -8.2430    192.8643    130.2073   1.0094560069e+02   1.7885513325e+01    0.1949169    0.1915206 -52.61 0.0005202965    1.224    0.183
       330  -9.3915    168.4914    129.6300   1.0575122957e+02   2.3033019112e+01    0.3049313    0.2490968  80.21  0.001057949    1.647    0.393
       331  -8.7942    161.5902    129.7996   1.0729653524e+02   2.4450795627e+01    0.1992106    0.1388429 -52.60 0.0009500834    1.702    0.412
       332  -9.5335    152.8704    128.3182   1.0894188575e+02   2.6551190726e+01    0.5625036    0.2646697 -44.94  0.001547726    2.314    0.568
       333  -8.8442    172.2617    138.2108   1.0682927308e+02   2.0788292430e+01    0.3395706    0.2174091 -48.88  0.001239322    1.860    0.462
       334  -7.8106    211.4488    129.2365   9.7357652362e+01   1.4316841480e+01    0.1773011    0.1222876 -40.35 0.0005056699    1.588    0.370
       335 -10.6561     44.9949    123.7387   1.3842017891e+02   4.6082010489e+01     1.133421    0.4596517  68.08  0.003912423    3.862    0.741
       336 -10.4054     60.0450    125.0079   1.3390592438e+02   4.3952955551e+01    0.8031493    0.3960064  69.96  0.002535874    2.874    0.652
       337  -8.8607     58.9427    115.5743   1.3281079342e+02   4.6351096901e+01    0.3322721    0.2274595 -26.60  0.001541361    2.198    0.545
       338  -9.8883    118.0159    125.3486   1.1701265156e+02   3.4264764099e+01     0.534323    0.3479065  72.82  0.001650969    2.227    0.551
       339  -8.1212    228.2127    125.2495   9.3718372397e+01   1.1649046064e+01    0.1701811    0.1482032 -41.19 0.0008876045    1.359    0.264
       340  -8.8468    179.2157    124.8311   1.0241493411e+02   2.1585843005e+01    0.2495979    0.2300829  69.13  0.000712971    1.264    0.209
       341 -10.6296     98.5032    131.0058   1.2352226033e+02   3.6648427616e+01    0.6132308    0.3308016 -65.12  0.001652868    2.152    0.535
       342 -10.2454     28.3859    122.3652   1.4347616862e+02   4.8083399657e+01    0.8084711    0.2941054  67.78   0.00290612    3.693    0.729
       343  -8.5462     27.3612    113.8415   1.4296128510e+02   5.0214046781e+01    0.2140421    0.1660459   0.68 0.0009398526    1.701    0.412
       344 -10.1204    241.7540    121.5277   9.0867352178e+01   9.6347181944e+00    0.2810276    0.2650204  -3.83  0.001903632    1.195    0.163
       345  -8.3146    188.5143    124.0444   1.0038550133e+02   1.9752415176e+01    0.2082256    0.1377171 -34.27 0.0006755932    1.553    0.356
       346 -10.1319    133.4758    110.2779   1.0944507518e+02   3.4217057640e+01    0.6912589    0.3727103 -48.87   0.00207496    1.996    0.499
       347  -9.9577    131.0201    118.8387   1.1212986920e+02   3.2993455436e+01    0.5948777    0.3900079  80.53  0.001907635    2.646    0.622
       348  -7.8246    203.3123    122.2145   9.7208818324e+01   1.6964299713e+01    0.1902271    0.1190011 -38.84 0.0003509198    1.666    0.400
       349  -7.9171    195.1260    122.1599   9.8692235588e+01   1.8664570085e+01     0.182153    0.1675314 -57.47 0.0004842384    1.315    0.240
       350  -8.9928    171.9928    121.8247   1.0321486866e+02   2.3638350483e+01    0.2404992    0.2092229 -36.13 0.0005022974    1.216    0.178
       351  -9.2133    158.6409    121.6137   1.0608538448e+02   2.6559158057e+01    0.3181675    0.2552878  78.91 0.0009723976    1.620    0.383
       352  -9.3851     71.1634    120.1308   1.2967517268e+02   4.3563802726e+01    0.3663298    0.2309915  80.68 0.0009563067    1.953    0.488
       353  -9.9244    141.5535    118.2188   1.0932332286e+02   3.0887471570e+01    0.5667904    0.3387581 -57.99  0.001431295    2.124    0.529
       354  -9.7846      3.0729    117.5491   1.5101429014e+02   5.1095587180e+01    0.5303898    0.1859508  64.25  0.002329159    2.710    0.631
       355  -7.4583    231.4906    117.5158   9.1500663930e+01   1.2044694219e+01    0.1292165    0.1170502 -13.76 0.0008081904    1.107    0.097
       356  -9.7962    109.2574    114.2912   1.1701561665e+02   3.8365930375e+01    0.5250704    0.3449333  88.44  0.001316868    2.438    0.590
       357  -8.5963    109.2310    107.8509   1.1552304439e+02   3.9790250614e+01    0.3706307    0.2512045 -13.27  0.001389679    2.668    0.625
       358  -8.0145    219.4896    116.5581   9.3160403696e+01   1.4507301962e+01    0.1337522    0.1215226   0.56 0.0001147482    1.031    0.031
       359  -8.2660    250.0084    115.2527   8.8350043883e+01   8.9268490352e+00    0.1726466    0.1498196  18.54  0.001137994    1.146    0.127
       360  -8.0311    192.9900    115.3132   9.7484513076e+01   2.0182325306e+01    0.1928313    0.1785131  30.16 0.0004342042    1.059    0.056
       361  -7.6176    153.3575    115.6955   1.0588812150e+02   2.8806532205e+01    0.1521583    0.1192194  83.76 0.0007039803    1.720    0.419
       362  -9.9877     78.9713    112.7541   1.2585743505e+02   4.4112154980e+01     0.567472    0.3431678  69.92  0.001854917    2.187    0.543
       363  -7.9139    167.4936    114.4981   1.0242372822e+02   2.5899211256e+01    0.1471002    0.1405545  38.81 0.0008102258    1.046    0.044
       364  -9.9917     92.7214    112.4567   1.2150761252e+02   4.1861926378e+01    0.5434717    0.3303477 -74.32  0.001272941    2.108    0.526
       365  -8.8229     93.3266    104.8387   1.1962187376e+02   4.3505655405e+01    0.3837738    0.2513204   1.94  0.001422781    3.158    0.683
       366  -8.6843    174.9639    112.3437   1.0031577866e+02   2.4613303062e+01     0.272631    0.2008492 -52.52  0.000688059    1.590    0.371
       367  -9.8215    121.8723    112.5278   1.1307726438e+02   3.6210265052e+01     0.408621    0.2947441 -73.26 0.0005791467    1.781    0.439
       368  -8.4793    159.3134    111.8833   1.0358652744e+02   2.8191354423e+01    0.2607697    0.2206605 -73.39 0.0006954122    1.455    0.313
       369  -9.9793     66.4257    110.0541   1.2941051919e+02   4.6655276774e+01    0.5883249    0.3095342 -72.87  0.001817504    2.081    0.519
       370  -9.9998     14.0400    111.2578   1.4711182246e+02   5.1877309125e+01    0.4374323    0.2080414  54.86  0.001514278    1.982    0.496
       371  -7.8404    149.6801    110.2819   1.0542043638e+02   3.0645000051e+01    0.1488001    0.1198385  83.87 0.0001992398    1.586    0.369
       372  -9.2939     43.1252    109.6405   1.3717088368e+02   4.9690034263e+01    0.3318565    0.1719939  15.96  0.001449653    2.630    0.620
       373  -9.4207    245.1480    102.2892   8.6125003196e+01   1.1398178589e+01    0.2972369    0.1624398  63.69  0.001227284    2.515    0.602
       374  -9.5843    248.7294    108.6078   8.7064093025e+01   9.9607412601e+00    0.3427012    0.2667002 -61.56   0.00201102    1.841    0.457
       375  -9.6457    249.1977    104.3967   8.6065316479e+01   1.0387284483e+01    0.4145239    0.1936957 -20.14  0.001899267    2.149    0.535
       376  -8.3770    188.6759    107.9985   9.6520440540e+01   2.2282208996e+01    0.2309701    0.2023185  68.51 0.0006627986    1.314    0.239
       377  -8.1233      4.9897    109.0000   1.4992374276e+02   5.2988583662e+01    0.1754791   0.06828111  17.82 0.0006337131    2.950    0.661
       378  -9.1362    139.7601    104.6429   1.0641331912e+02   3.3962041811e+01    0.3538458    0.2795162 -79.48 0.0008757894    1.629    0.386
       379  -8.8341     78.8479    105.1353   1.2433809878e+02   4.5934676684e+01    0.3664304    0.2340191  13.33  0.001115502    2.456    0.593
       380 -10.4444     45.4288    102.2075   1.3525652938e+02   5.1253467843e+01      0.80169    0.3744905  67.30  0.002973464    3.124    0.680
       381  -8.8768     46.2500     92.6819   1.3333647522e+02   5.3503268236e+01     0.407027    0.1960004  18.37  0.001672896    2.780    0.640
       382 -10.6901     22.9642    102.8299   1.4329531654e+02   5.3248805663e+01    0.7702771    0.3165783  65.14  0.002883757    2.907    0.656
       383  -8.6629    166.7451    104.3781   1.0004510503e+02   2.7854927573e+01    0.2710922     0.227256 -71.28 0.0007779506    1.468    0.319
       384  -9.5913    150.5799    103.0952   1.0336632214e+02   3.1806108170e+01    0.4699769    0.2974603 -62.06  0.001320108    2.210    0.547
       385  -9.2191      6.8753    103.1386   1.4890792347e+02   5.4272795140e+01    0.2779595    0.1548869  58.99  0.001153621    1.675    0.403
       386  -9.4177    128.5166    102.2116   1.0870360715e+02   3.6950892430e+01    0.3469728     0.269487  83.83 0.0009793824    1.647    0.393
       387 -10.4903    109.0181     98.8772   1.1335233554e+02   4.1809738928e+01    0.9460475    0.4834526  64.47  0.001687841    3.575    0.720
       388  -8.9161    108.3851     92.3003   1.1179403249e+02   4.3382045723e+01    0.5188762    0.2646115  30.84  0.001847068    2.657    0.624
       389  -8.0425    175.4267    102.2450   9.7672920239e+01   2.6226563526e+01    0.2060588    0.1382875 -46.72 0.0007192408    1.625    0.384
       390  -8.3349    159.8720    101.1626   1.0071666236e+02   3.0018541169e+01    0.2256756    0.2037603 -77.07 0.0004516439    1.268    0.212
       391  -9.1820     82.2113    100.1120   1.2211792312e+02   4.6563920415e+01     0.383348    0.2600197  79.82  0.001046051    1.949    0.487
       392  -9.0174     94.9766     97.2424   1.1726844121e+02   4.4942019284e+01     0.323262     0.236001 -65.06  0.000580278    1.466    0.318
       393  -8.0427     68.8360     86.3609   1.2354093496e+02   5.2006592308e+01    0.2737301    0.1530184  28.41  0.001174243    2.048    0.512
       394 -10.0056     63.8206     95.7918   1.2750549083e+02   5.0477098370e+01    0.5961273    0.3410562  76.84  0.001748761    2.690    0.628
       395  -8.1771     64.0091     88.4948   1.2583214341e+02   5.2217808155e+01    0.3411141    0.1893125 -24.29  0.001152233    3.947    0.747
       396  -7.9204    123.3146     97.6807   1.0892382038e+02   3.9033497275e+01    0.1567627    0.1215726  86.11 0.0005874734    1.653    0.395
       397  -8.4506    151.1868     95.5209   1.0119418776e+02   3.3089981916e+01    0.2858718    0.1979467   8.47  0.001162625    2.212    0.548
       398  -8.3114    176.6228     93.5959   9.5151369199e+01   2.7402433004e+01    0.2936462    0.2108149 -73.54  0.001189506    2.039    0.509
       399  -8.0162    164.8238     94.1231   9.7739704091e+01   3.0112513924e+01    0.2315964     0.200217 -71.33 0.0006240584    1.350    0.259
       400  -9.2763    138.8801     92.2299   1.0328833903e+02   3.6608429089e+01    0.4285592    0.2929788 -73.67 0.0008772453    2.201    0.546
       401 -10.0558    123.4444     91.5063   1.0719247845e+02   4.0290666126e+01     0.663288    0.4740224  28.10  0.001442959    1.656    0.396
       402  -9.4299      5.3899     92.4008   1.4864206876e+02   5.6931340198e+01    0.3573666    0.1654053  48.11  0.001250483    2.112    0.526
       403  -8.1394    157.8257     91.5927   9.8581929937e+01   3.2234332661e+01    0.2534007    0.1773012 -42.14 0.0006923615    1.476    0.322
       404  -9.5036     34.7993     89.8896   1.3721524781e+02   5.5397545677e+01    0.4677289    0.2410625  81.44  0.001695806    2.441    0.590
       405  -9.0635     22.8157     90.2819   1.4187902470e+02   5.6332998690e+01    0.2656298     0.224733 -18.69 0.0009409113    1.452    0.311
       406  -7.9171    150.6773     89.1553   9.9537416874e+01   3.4395649208e+01    0.2135748    0.1444077 -28.08 0.0004501987    1.660    0.398
       407  -9.8163     86.3361     86.6287   1.1737093823e+02   4.8986644657e+01    0.4813838    0.3331363  78.96  0.001088245    2.010    0.502
       408  -8.4701     86.7431     81.2292   1.1573457585e+02   5.0149932862e+01    0.3375082    0.2187398  12.61  0.001322802    2.607    0.616
       409  -7.5600    164.2892     87.6188   9.6051792126e+01   3.1379228709e+01    0.1592102    0.1189679 -69.19 0.0007016098    1.742    0.426
       410  -9.6734     48.4307     84.4598   1.3090200885e+02   5.5270596766e+01    0.4922895    0.2764636  69.23  0.001801534    2.463    0.594
       411  -9.7401    104.6053     83.2100   1.1038584651e+02   4.6154815107e+01    0.5331622    0.3539204 -71.47  0.001319174    2.069    0.517
       412  -8.7643    105.0482     77.4522   1.0851100438e+02   4.7299914613e+01    0.3426815    0.2341364  20.59   0.00120364    2.057    0.514
       413  -8.3043    157.9251     84.1192   9.6437331811e+01   3.3547394061e+01    0.2298768     0.207234 -73.89 0.0004086528    1.226    0.184
       414  -9.0572    140.9074     82.7587   1.0003710352e+02   3.7951061826e+01    0.4088878    0.2219224 -46.61 0.0009344914    1.959    0.490
       415  -9.5200      9.8515     81.1422   1.4590836627e+02   5.9424291577e+01    0.3789204    0.1649692  57.50  0.001372664    2.502    0.600
       416  -8.2630     35.3434     82.3135   1.3571860107e+02   5.7216378457e+01    0.1383538   0.09304786 -38.23 0.0003574611    1.707    0.414
       417  -9.6334     24.7044     80.5736   1.3977822345e+02   5.8578198392e+01    0.4543936    0.2342068  78.48  0.001463792    2.311    0.567
       418  -8.2529    150.2869     80.6541   9.7152588442e+01   3.6048060569e+01    0.2838242    0.1774795 -48.94 0.0005299999    1.740    0.425
       419  -8.8419    119.4334     80.3729   1.0506779743e+02   4.3492482337e+01    0.3552791    0.2435136 -64.39 0.0007769318    1.831    0.454
       420  -8.9283     74.5965     80.4185   1.1987661798e+02   5.2488753845e+01    0.3279143    0.2360163 -81.19  0.001060991    1.681    0.405
       421  -8.3375    166.7928     79.8502   9.3301451085e+01   3.2095201407e+01    0.2230818    0.2057938  12.52 0.0004348233    1.139    0.122
       422  -9.2688     65.3113     77.6685   1.2266549488e+02   5.4623174836e+01    0.3186456    0.2457585 -74.82  0.001431096    1.361    0.265
       423  -9.8673     63.3992     73.6390   1.2233418754e+02   5.5869559175e+01    0.4772259    0.2794805 -69.66  0.001359998    1.948    0.487
       424  -7.8175    184.2307     78.4041   8.9520320015e+01   2.8024012993e+01    0.1989892    0.1453112  70.20 0.0004369421    1.545    0.353
       425  -7.5506    179.2908     85.6721   9.2468530698e+01   2.8068970911e+01    0.1514798    0.1167632 -67.29 0.0003849697    1.620    0.383
       426  -9.2916    128.0365     75.4469   1.0113557645e+02   4.2459010696e+01    0.3995624    0.2883585 -66.56 0.0006902462    1.748    0.428
       427  -8.3841    157.3544     76.2744   9.4245343195e+01   3.5064022876e+01     0.223571    0.1393349 -44.76 0.0006848118    1.672    0.402
       428  -8.4962    140.5559     75.3679   9.7872417852e+01   3.9421201734e+01    0.2772798    0.2148356 -61.49 0.0005938492    1.482    0.325
       429  -9.6764     82.4601     72.7859   1.1476875985e+02   5.2861571484e+01    0.4827886    0.3084136 -72.57  0.001203956    2.135    0.532
       430  -8.1817    163.2283     73.2450   9.2081223915e+01   3.4097685031e+01    0.2151658    0.1802852 -71.48  0.001033557    1.364    0.267
       431  -8.6032    115.4668     72.8036   1.0384819241e+02   4.5942181249e+01    0.2790607    0.1509466 -47.25  0.000668805    1.923    0.480
       432  -8.1105     42.5248     73.0041   1.3084369582e+02   5.8758631217e+01    0.2073298    0.1256502 -68.55 0.0004936999    1.555    0.357
       433  -7.7232    175.4906     72.5511   8.9451072456e+01   3.1112510818e+01    0.1491012    0.1476934  50.74 0.0001596496    1.007    0.007
       434  -8.7659    105.8897     71.7297   1.0643065756e+02   4.8322864509e+01    0.2909156    0.2197935 -57.45 0.0006555395    1.427    0.299
       435  -9.2012     95.1893     71.1876   1.0976739632e+02   5.0721644276e+01     0.364199    0.2487144 -65.47 0.0008729266    1.782    0.439
       436  -9.4889     51.5012     69.7402   1.2620678904e+02   5.8468710146e+01    0.4418657    0.2593483 -83.37  0.001396169    2.325    0.570
       437  -8.7025     28.6443     70.6789   1.3641059679e+02   6.0692103411e+01    0.2627771    0.1828403 -34.43 0.0008389474    1.626    0.385
       438  -8.3932     31.9895     68.4866   1.3448200652e+02   6.0933108147e+01    0.2580723    0.1826615 -30.75 0.0008555003    1.636    0.389
       439  -8.7662     16.6586     70.1951   1.4164927927e+02   6.1701409046e+01    0.2800059    0.1727065  71.32 0.0008527775    1.744    0.427
       440  -7.6845    157.3440     70.1316   9.2369439038e+01   3.6117402551e+01    0.2239899    0.1360249 -45.09 0.0004717589    1.720    0.419
       441  -8.6380    147.0596     68.3540   9.4100207370e+01   3.9048484447e+01    0.2889217    0.2227824 -45.80 0.0004912346    1.341    0.254
       442  -8.5074    138.4302     66.0077   9.5396385266e+01   4.1656299211e+01    0.3256248    0.2160638 -53.44 0.0008549151    1.705    0.413
       443  -8.9928    121.6148     65.8703   9.9777491595e+01   4.5852313648e+01    0.4328402    0.2618556 -46.97  0.001313346    1.733    0.423
       444  -8.9009    110.1703     63.8638   1.0245244685e+02   4.8952228528e+01     0.325986    0.2417003 -61.28 0.0006576756    1.564    0.361
       445  -8.0927     95.1781     64.7943   1.0764677864e+02   5.2084104890e+01    0.2076866    0.1805393  -5.95 0.0005781378    1.340    0.254
       446  -8.5777     64.3479     63.7078   1.1903201429e+02   5.8043281113e+01    0.4122969    0.2424373 -21.90  0.001550198    3.057    0.673
       447  -8.7935     37.3236     64.4297   1.3115083465e+02   6.1401213303e+01     0.281296    0.2070562  78.60 0.0008282045    1.557    0.358
       448  -7.2513    187.4847     63.5287   8.4690383728e+01   2.9458192639e+01    0.1475715    0.1431665 -57.63 6.514126e-07    1.031    0.030
       449  -8.4351    157.9636     62.4279   8.9810558721e+01   3.7232757627e+01      0.29295    0.2188845 -10.66 0.0007887339    1.614    0.380
       450  -8.0012     19.3599     62.3095   1.3911154421e+02   6.3451155953e+01    0.1370886   0.08222675 -40.89 0.0007041363    1.739    0.425
       451  -7.4110    167.6988     61.2983   8.7518325789e+01   3.4874211808e+01     0.156187    0.1174783 -68.45 0.0001915562    1.580    0.367
       452  -9.3976     97.6145     60.1262   1.0518145982e+02   5.2525094728e+01    0.4368865    0.2976096 -37.06  0.001566618    1.529    0.346
       453  -9.6044     73.3610     59.5776   1.1397246243e+02   5.7461162857e+01    0.4411237    0.2556352 -58.78  0.001033148    1.891    0.471
       454  -7.7317    147.1438     59.2150   9.1090159452e+01   4.0584098783e+01    0.2127431    0.1806072 -72.13  0.000412812    1.309    0.236
       455  -7.7146     89.2541     59.6481   1.0793104588e+02   5.4394601219e+01    0.1491203    0.1177527 -78.75  0.000492331    1.600    0.375
       456  -9.8389     23.4230     56.6092   1.3600385524e+02   6.4541673774e+01    0.4806982    0.2605278  77.69  0.002090073    2.543    0.607
       457  -8.6252    130.5383     57.5763   9.4509522685e+01   4.5155176588e+01    0.3005217    0.1542457 -36.75 0.0006743363    1.987    0.497
       458  -9.5006      7.5122     57.3588   1.4402597318e+02   6.5323446748e+01    0.3122871     0.191386  68.75   0.00114379    1.769    0.435
       459  -9.1087    119.2453     55.5899   9.6833882686e+01   4.8345524241e+01    0.4882939    0.2551552 -43.54   0.00161654    1.975    0.494
       460  -9.4580     54.3070     55.6462   1.2083669009e+02   6.1400845915e+01    0.3618819    0.2375168 -72.24 0.0009790378    1.813    0.448
       461  -8.1445    140.1645     56.2196   9.1672233740e+01   4.2904948119e+01    0.2206139    0.1787173 -61.73 0.0004574955    1.369    0.269
       462  -8.6103     44.0669     55.4395   1.2556675942e+02   6.2794008099e+01    0.2896296     0.180065 -71.38 0.0008832117    1.742    0.426
       463  -8.6860    105.7602     53.2857   9.9997000323e+01   5.2020797069e+01    0.3247461    0.2314764 -60.47 0.0007914891    1.688    0.408
       464  -9.4173     92.3442     50.7040   1.0348633068e+02   5.5548698460e+01    0.4411311    0.2544675 -53.43  0.001275404    2.000    0.500
       465  -7.6397    144.8397     49.1597   8.8149504984e+01   4.2813083670e+01    0.2086285    0.1810917   7.84 0.0005892679    1.309    0.236
       466  -8.3361    130.0184     49.3009   9.1663567990e+01   4.6700054170e+01    0.2214964    0.2011081  65.13 0.0004112562    1.086    0.079
       467  -7.3978    149.6977     48.6909   8.6951173201e+01   4.1586279349e+01     0.159363    0.1185565  26.66 0.0002208689    1.604    0.377
       468  -8.8174    120.9555     47.4420   9.3323550809e+01   4.9343123740e+01    0.2847454    0.2297936 -33.81 0.0005179321    1.278    0.217
       469  -8.4584    112.1598     46.9621   9.5615391914e+01   5.1629167930e+01     0.236461    0.2016978 -69.24 0.0005185749    1.333    0.250
       470  -9.0156     81.9088     46.5017   1.0567773792e+02   5.8571372811e+01    0.3072123    0.2344425 -42.48 0.0007128291    1.301    0.231
       471  -8.8187    249.4505     45.5851   7.2220616468e+01   1.7292148602e+01    0.2253035    0.1979827 -12.47 0.0006225317    1.166    0.142
       472  -8.4927     45.0216     44.8578   1.2163475141e+02   6.5105254748e+01    0.2328728      0.18298 -60.21 0.0006065677    1.240    0.194
       473  -8.9505     16.6578     44.9245   1.3692883421e+02   6.7811942655e+01     0.225442    0.1746452  82.08  0.000785025    1.402    0.287
       474  -8.6682    133.0114     43.5325   8.8790579914e+01   4.6839846942e+01    0.2974395     0.205041 -51.07 0.0008180222    1.591    0.371
       475  -9.1855     69.7822     41.9036   1.0874301933e+02   6.1843071128e+01    0.3663519    0.2745976 -74.26  0.001183103    1.845    0.458
       476  -9.6396      5.2330     42.1542   1.4278310420e+02   6.9057191424e+01    0.3368324    0.1821217  82.54   0.00143839    2.062    0.515
       477  -8.5834    105.9876     41.4734   9.5263407675e+01   5.4087291834e+01    0.2857736    0.2042472 -51.28 0.0006001963    1.547    0.354
       478  -8.3784     93.1699     42.5870   9.9917936422e+01   5.6898120102e+01    0.2197366    0.1355939  38.30 0.0009453889    1.712    0.416
       479  -8.6377     36.8831     40.8891   1.2452053597e+02   6.6978545160e+01     0.234526    0.1876061 -72.24  0.000895128    1.332    0.249
       480  -8.8135     95.3943     38.0886   9.7240946258e+01   5.7188104070e+01    0.2895055    0.2512666 -66.27 0.0008652161    1.322    0.244
       481  -7.9663     80.5932     36.7916   1.0205854903e+02   6.0692195882e+01     0.200662    0.1348021 -50.38 0.0003992259    1.626    0.385
       482  -9.3551     26.1610     35.4958   1.2877259717e+02   6.9280812511e+01    0.3263057    0.2261429  89.56 0.0008518036    1.872    0.466
       483  -8.8509     58.1920     42.6874   1.1431925255e+02   6.3678920653e+01    0.3423439    0.2187904 -69.99  0.001086727    2.221    0.550
       484  -7.9873    126.0283     35.6989   8.7433475670e+01   4.9883757138e+01    0.2166756    0.1893413  55.59 0.0002991522    1.097    0.088
       485  -8.3522    111.9095     34.5348   9.0630788794e+01   5.3738983754e+01    0.2870042    0.1994615 -49.85 0.0006787676    1.595    0.373
       486  -7.4513    153.6789     34.3647   8.1123931008e+01   4.2549593205e+01    0.1683449    0.1111257 -62.48 0.0007039781    1.784    0.439
       487  -8.4402    119.1819     33.2641   8.8151187897e+01   5.2050758227e+01    0.2725389    0.2132735 -49.39 0.0004934642    1.372    0.271
       488  -7.8704     88.5125     34.5030   9.8054305507e+01   5.9378249658e+01    0.1455528    0.1427102  16.83 -0.0001083987    1.027    0.027
       489  -8.9631     48.3181     33.5694   1.1544943120e+02   6.7096740528e+01    0.2546698    0.2282146 -67.73  0.000697365    1.260    0.207
       490  -8.4751     60.7824     32.4413   1.0865097121e+02   6.5327392741e+01    0.2280464     0.182863 -52.62 0.0005356615    1.323    0.244
       491  -7.4629    139.3088     31.6893   8.2901557843e+01   4.6859428988e+01    0.1597966    0.1153871 -66.26 0.0003493317    1.621    0.383
       492  -8.4313     71.9835     30.9939   1.0290264775e+02   6.3503829341e+01    0.2494487    0.1915113 -49.05 0.0008178441    1.391    0.281
       493  -8.9114     12.9476     30.6979   1.3546734373e+02   7.1356466453e+01    0.2408251    0.1643539 -76.67 0.0008592191    1.444    0.308
       494  -8.0961     41.5675     30.4718   1.1779503728e+02   6.8676879705e+01    0.1326093    0.1197844 -34.52 3.429344e-05    1.015    0.015
       495  -8.0131    101.4277     29.2908   9.1399654175e+01   5.7172679065e+01    0.2028724    0.1385931 -43.43 0.0005399354    1.552    0.356
       496  -8.7736     81.4491     27.7001   9.7484815290e+01   6.2092335214e+01    0.2847885    0.2281207 -73.99 0.0008099698    1.679    0.404
       497  -8.6302      3.6103     27.8281   1.4084729743e+02   7.2461712088e+01    0.2193501     0.156409  73.47 0.0007223269    1.627    0.385
       498  -7.7706    162.0044     27.0213   7.7126127903e+01   4.1176914483e+01    0.1784704    0.1706909 -46.56  0.000334342    1.071    0.066
       499  -7.6130    110.2625     27.6356   8.8106568115e+01   5.5187670758e+01    0.1545628    0.1135824 -60.60 0.0005230688    1.642    0.391
       500  -8.7658     91.9218     26.5151   9.3156427406e+01   5.9894182852e+01    0.2727101    0.1949115 -49.28 0.0006794583    1.575    0.365
       501  -9.4109    144.6098     25.5914   7.9544193964e+01   4.6182901354e+01     0.307912    0.2634229  50.38 0.0007299741    1.151    0.131
       502  -7.5553     58.3284     24.6388   1.0603238887e+02   6.7224551992e+01    0.1367467    0.1114571 -81.94 0.0007041038    1.795    0.443
       503  -7.9359     34.4484     23.1933   1.1871466662e+02   7.1081763490e+01    0.1721556    0.1204508 -63.38 0.0004721228    1.621    0.383
       504  -7.7078    104.3009     22.6960   8.7528037281e+01   5.7406221259e+01    0.1489174    0.1153912 -68.08 0.0003773156    1.591    0.371
       505  -8.8072     63.5671     21.1467   1.0167846127e+02   6.6869050293e+01    0.3094432    0.2246205 -55.98 0.0007459359    1.720    0.419
       506  -8.8439     48.4235     21.7498   1.0971967181e+02   6.9416695216e+01    0.2405125    0.2092265 -55.37 0.0007309107    1.303    0.233
       507  -8.2942     19.7423     21.4219   1.2768931225e+02   7.2950304100e+01     0.227672    0.1444823 -71.22 0.0008279024    1.736    0.424
       508  -7.5733    120.5365     21.5038   8.2837980934e+01   5.3301117976e+01    0.1504004    0.1441629  67.36 7.789533e-05    1.028    0.028
       509  -8.8849     74.1742     19.7675   9.6315620098e+01   6.4936492281e+01    0.3041562    0.2058799 -53.64 0.0008232404    1.863    0.463
       510  -7.4913     11.5277     20.5325   1.3320274918e+02   7.3730020835e+01     0.120471     0.105717 -54.91 0.0001886595    1.075    0.070
       511  -7.9521     87.8249     17.7556   9.0197009986e+01   6.2144925569e+01    0.1883766    0.1687068 -66.39 0.0003947839    1.306    0.234
       512  -7.7764     38.5496     18.5183   1.1379933529e+02   7.1483653557e+01    0.1296051    0.1170556 -26.44 8.260999e-05    1.044    0.042
       513  -7.8293    112.6392     16.7968   8.2613017584e+01   5.5994764217e+01     0.198864    0.1345967 -36.68 0.0002891718    1.540    0.351
       514  -7.9086     30.0006     16.0509   1.1805850871e+02   7.3048013266e+01    0.1834274    0.1562869  86.36 0.0005879951    1.661    0.398
       515  -7.5488      1.5118     16.4969   1.3940245219e+02   7.5100628125e+01    0.1185188   0.09916712 -57.69 0.0003591064    1.042    0.040
       516  -7.8106      7.6852     15.3820   1.3424436718e+02   7.5078781236e+01    0.1193024   0.08719549  68.92 0.0007022634    1.815    0.449
       517  -7.7398     17.1798     14.1600   1.2639374349e+02   7.4705112355e+01    0.1563641    0.1428016 -87.87 0.0006088556    1.348    0.258
       518  -9.0610    218.7511    247.1621   1.1631317945e+02  -7.0783223556e-01    0.2874715    0.1240797 -29.49   0.00178845    2.808    0.644
       519  -7.4063     76.3382     10.6553   9.0433661410e+01   6.5765523229e+01    0.1425189    0.1098475 -66.46 0.0007048654    1.776    0.437
       520  -9.1786    211.1685    246.8957   1.1749983471e+02   2.8665177040e-01    0.2230748    0.1784668 -57.56  0.001021126    2.824    0.646
       521  -7.7229    191.3420    249.6714   1.2111943116e+02   2.6153136261e+00   0.09962108   0.07008275  47.40 0.0007051278    1.743    0.426
       522  -8.9966    175.7011    247.6876   1.2355807532e+02   4.9218929582e+00    0.2493607    0.1839316  59.69  0.001071802    2.103    0.525
       523  -8.0174    113.3926    249.1748   1.3491039756e+02   1.3196184873e+01    0.1286269   0.09496079  78.55  0.000946378    1.790    0.441
       524  -9.0703    104.0083    247.3705   1.3649746813e+02   1.4671316950e+01    0.2846667    0.1729765  84.46  0.001815017    2.528    0.604
       525  -9.0536    243.1226    246.4709   1.1244119993e+02  -3.6465952656e+00    0.2775308    0.1337779 -11.41  0.001801172    2.330    0.571
       526  -8.4158    156.2522    248.1749   1.2703177844e+02   7.5231512741e+00    0.1962908    0.1053434  49.52 0.0004915438    1.921    0.479
       527  -8.5651    132.2122    247.8275   1.3133701827e+02   1.0849489261e+01    0.1899468    0.1266395  53.29 0.0007125193    1.501    0.334
       528  -9.2549     66.2455    246.6179   1.4345729717e+02   1.9467152839e+01    0.3216314    0.2342152   2.05  0.002149114    2.537    0.606
       529 -10.0658    223.8923    244.2689   1.1511962580e+02  -1.1004852474e+00    0.3376664    0.2038483 -36.97  0.002119861    2.437    0.590
       530  -8.6866    147.1331    246.1600   1.2845740885e+02   9.0151358973e+00    0.2154548    0.1219553  57.21  0.001257847    2.394    0.582
