#   1 NUMBER                 Running object number                                     
#   2 MAG_AUTO               Kron-like elliptical aperture magnitude                    [mag]
#   3 X_IMAGE                Object position along x                                    [pixel]
#   4 Y_IMAGE                Object position along y                                    [pixel]
#   5 X_WORLD                Barycenter position along world x axis                     [deg]
#   6 Y_WORLD                Barycenter position along world y axis                     [deg]
#   7 A_WORLD                Profile RMS along major axis (world units)                 [deg]
#   8 B_WORLD                Profile RMS along minor axis (world units)                 [deg]
#   9 THETA_WORLD            Position angle (CCW/world-x)                               [deg]
#  10 FWHM_WORLD             FWHM assuming a gaussian core                              [deg]
#  11 ELONGATION             A_IMAGE/B_IMAGE                                           
#  12 ELLIPTICITY            1 - B_IMAGE/A_IMAGE                                       
         1 -14.9793    165.7957     42.8123   7.6524625506e+01   3.8593263975e+01     1.269352     1.097919  -2.20  0.004051833    1.386    0.279
         2 -14.9716    183.5602      9.3192   6.4634270636e+01   3.8151438556e+01     2.008891    0.9214869  64.84  0.006258911    1.822    0.451
         3 -10.6027    133.8005    246.0390   1.2863204115e+02   5.2285498316e+00    0.1504493    0.1370808  70.52 0.0003082165    1.143    0.125
         4 -20.1399     68.6289    175.8092   1.3285606720e+02   3.0376023056e+01      18.0101     6.478431 -65.33   0.07112104    2.613    0.617
         5 -11.5442    153.2613    193.7279   1.1666403068e+02   1.1620492399e+01    0.3252663    0.2638144  59.87 0.0007317586    1.219    0.180
         6 -11.4145    106.1038    192.5558   1.2686719579e+02   2.0651821654e+01    0.6835132    0.4665053  -5.61  0.002636881    3.762    0.734
         7 -10.4209    139.0677    250.1381   1.2815515090e+02   3.6370735404e+00    0.1791643    0.1501927  39.98 0.0005404544    1.180    0.153
         8 -11.9994    153.3553    186.3383   1.1528615983e+02   1.3136255801e+01    0.2809289    0.2472672  70.80 0.0006163344    1.158    0.137
         9  -8.1897    138.4741    245.5098   1.2767364520e+02   4.5229980278e+00    0.3668888    0.1994835  87.98  0.001240153    5.444    0.816
        10 -13.5550    204.6640    176.5840   1.0244413586e+02   4.6658889543e+00    0.7929971    0.5198739 -59.47  0.003080709    2.017    0.504
        11 -11.8294    201.5324    169.0477   1.0148891474e+02   6.7409601865e+00    0.4383605    0.2955714 -75.89  0.001491892    2.640    0.621
        12 -12.5171    204.5458    166.2563   1.0028196319e+02   6.6566744551e+00    0.6147825     0.450688 -57.15  0.002975118    1.585    0.369
        13 -11.8907    125.0629    244.1878   1.3006267733e+02   7.0299826356e+00    0.2103225    0.1613459 -67.46 0.0007554393    1.481    0.325
        14 -11.3625    150.7336    180.9377   1.1484707693e+02   1.4805560280e+01    0.2074685    0.1899253 -65.80 0.0005109177    1.130    0.115
        15 -11.2431    198.9729    178.0231   1.0389455030e+02   5.5412299627e+00    0.2671673    0.2384289  88.78 0.0005038801    1.367    0.268
        16 -13.4210    194.0931    167.4555   1.0267533894e+02   8.5998349606e+00    0.7890286    0.4629147 -55.73  0.001874726    2.073    0.518
        17 -12.2438    142.0403    165.2965   1.1375215509e+02   1.9995880307e+01    0.4425569    0.3011278 -76.11  0.001027486    1.927    0.481
        18 -13.9147    143.9569    173.2775   1.1490020635e+02   1.7834136136e+01    0.8662053    0.7114701  30.91  0.004157971    1.335    0.251
        19 -13.7701    135.8021    169.7738   1.1610148665e+02   2.0246833273e+01    0.8429967    0.4835401  44.53  0.002116553    1.696    0.411
        20 -12.7224    126.7661    172.7076   1.1877423744e+02   2.1350099176e+01    0.5851737    0.3569756  61.92  0.002343567    1.910    0.476
        21 -10.0134    150.6348    243.5727   1.2508291360e+02   2.7550976634e+00    0.1246794    0.1071964  46.24 0.0001671034    1.051    0.048
        22 -11.3151     10.7988    174.5870   1.4530985197e+02   3.7207322383e+01    0.1974502    0.1328593 -72.56  0.000317557    1.235    0.190
        23 -12.6494    177.3958    170.7102   1.0690616536e+02   1.1452647605e+01    0.4951358    0.2590773 -58.21  0.001855247    2.534    0.605
        24 -11.4080    108.8695    240.7238   1.3272605867e+02   1.0342868298e+01     0.240406    0.1857053 -37.08  0.001424156    1.972    0.493
        25 -12.0660     21.8317    239.5710   1.4810452735e+02   2.2630734077e+01    0.2083313      0.12566 -82.85 0.0006645982    1.392    0.281
        26 -11.2766    163.7839    169.7918   1.0970662604e+02   1.4504898838e+01    0.2130931    0.1789218  77.94  0.001063513    1.348    0.258
        27 -11.7172    230.2084    166.5530   9.5395340786e+01   1.4555466387e+00    0.3516075     0.184937 -54.07  0.001399266    2.591    0.614
        28 -10.8147     24.5078    165.3518   1.4150202770e+02   3.8010990179e+01    0.1917615    0.1711811  87.30 0.0007236913    1.190    0.160
        29 -10.7544     13.4067    163.3845   1.4372404820e+02   3.9467678223e+01    0.1991808    0.1480734 -86.82 0.0001693261    1.047    0.045
        30 -11.2970    188.4453    158.2520   1.0185636356e+02   1.1650201359e+01    0.3888738    0.2735875  25.61  0.001141811    1.716    0.417
        31 -11.0063    189.0010    154.3012   1.0086015473e+02   1.2335988273e+01    0.3053306    0.2707294  24.22  0.001276985    1.194    0.163
        32 -14.2683    143.5175    143.5820   1.0872932452e+02   2.4586694611e+01     1.238778    0.5963289 -62.26  0.004049866    3.060    0.673
        33 -14.9143    132.7779    145.2250   1.1171847198e+02   2.6457297143e+01     1.480982    0.8990492 -62.30  0.005080126    1.868    0.465
        34 -14.5872    135.1894    128.0265   1.0713052893e+02   2.9876249517e+01     1.897342     0.546552 -49.70   0.00543669    3.585    0.721
        35 -12.1049    134.6625    109.1580   1.0248610980e+02   3.4155150516e+01     1.207921    0.1706701 -45.63  0.002462109    7.082    0.859
        36 -11.5021    152.9004    151.1275   1.0819407654e+02   2.0886963801e+01    0.2393523    0.2081456  88.14 0.0003170454    1.254    0.203
        37 -11.8046    174.4038    148.4965   1.0270206402e+02   1.6756191964e+01    0.3821013     0.298008 -65.34  0.001202826    1.454    0.312
        38 -11.0731    131.2343    237.1606   1.2797817220e+02   7.2400009334e+00    0.1642606    0.1521201  80.14 0.0004400513    1.157    0.135
        39 -11.3210     13.3558    233.9478   1.4913907675e+02   2.4627462394e+01    0.1557044   0.09903999  87.50   0.00099214    1.186    0.157
        40  -9.9595    133.5168    229.4446   1.2648374074e+02   8.2623443869e+00    0.1347421     0.112219  58.24 0.0002021159    1.038    0.037
        41 -11.0900    104.0061    201.4648   1.2864460728e+02   1.9057606679e+01    0.2607621    0.1822564  51.69 0.0009486391    1.309    0.236
        42 -11.2744      5.7595    137.2598   1.4272818916e+02   4.5928357397e+01    0.2666419    0.1761284 -43.41   0.00165376    1.722    0.419
        43  -9.9260     13.7919    137.2199   1.4078019238e+02   4.5342060385e+01    0.1494097    0.1135474 -54.62 0.0002351103    1.299    0.230
        44  -9.9598    170.2717    136.6273   1.0085567007e+02   2.0216232428e+01    0.1621363    0.1230556 -77.81 0.0005263596    1.679    0.405
        45 -11.2418    105.3213    211.3596   1.2974652962e+02   1.6729205763e+01    0.2741225    0.1953344 -36.51  0.001407875    2.093    0.522
        46 -12.3862    160.5161    127.8415   1.0095651795e+02   2.4324270756e+01    0.4668658    0.3324602 -52.01  0.001872242    1.429    0.300
        47 -11.4555    110.5901    211.3431   1.2864548417e+02   1.5838653812e+01      0.29559    0.2118557  88.50  0.001543772    1.507    0.336
        48 -13.0956    106.7168    205.8871   1.2869524837e+02   1.7648326549e+01    0.5305252    0.4037165 -73.95  0.001783062    1.322    0.243
        49 -12.2598    207.3916    210.8179   1.0861272725e+02  -1.9378646771e+00    0.2354094    0.2339257  89.10  0.001433465    1.225    0.184
        50  -9.9715    115.2962    209.3214   1.2737161680e+02   1.5446105012e+01    0.1248119    0.1105851 -10.57 0.0007019607    1.617    0.382
        51 -10.9623    167.7479    112.6713   9.5476699436e+01   2.5859364431e+01    0.3932296    0.2576356 -89.71  0.001436708    2.632    0.620
        52 -14.0212     11.6655    206.0147   1.4761445955e+02   3.0392639762e+01     0.477345    0.3676768  38.69   0.00248853    1.667    0.400
        53 -13.5013    113.9938    110.2323   1.0822140359e+02   3.8206568395e+01    0.5384926    0.3746808  66.00  0.002126035    1.856    0.461
        54 -10.8708    169.4981    202.5121   1.1477766627e+02   6.7049990909e+00    0.1424658    0.1302017  50.22 -4.906331e-05    1.043    0.041
        55 -11.1870      7.1853    111.0170   1.3903406777e+02   5.1677555709e+01    0.2474959    0.1506407 -34.36   0.00128432    1.893    0.472
        56 -10.8483    205.4449    110.1740   8.7098506666e+01   1.7426502019e+01    0.3277603    0.2203009  44.79 0.0009499826    1.588    0.370
        57 -11.3922      7.1788    101.8996   1.3767124708e+02   5.3674492690e+01    0.2268445    0.2115005 -44.56  0.001136735    1.240    0.193
        58 -10.2475    153.3433    201.6992   1.1805391860e+02   9.9885450262e+00    0.2461195     0.172422 -65.84  0.001211046    1.694    0.410
        59 -10.8354    139.5353    199.9829   1.2072974774e+02   1.2975220370e+01    0.3673353    0.2297757  37.30  0.001507981    1.614    0.380
        60 -10.4671    121.8317    198.6835   1.2436420365e+02   1.6531668478e+01    0.2056177    0.1779452 -60.32 0.0004008745    1.238    0.192
        61 -10.6329     98.6390     80.8440   1.0444319948e+02   4.7294037081e+01     0.247747    0.2020281  47.58 0.0005780878    1.322    0.243
        62 -14.4871    154.0238     57.3851   8.3100470799e+01   3.9359309635e+01     1.234413     1.151709  49.74  0.001040652    1.038    0.037
        63 -11.1413    111.7678    196.8282   1.2627394785e+02   1.8727472173e+01    0.5449125    0.3477602  15.77  0.002193396    3.155    0.683
        64 -13.0636    169.9254     34.7429   7.3505325126e+01   3.8632323517e+01    0.3976353    0.3765604  21.98 0.0009024845    1.203    0.169
        65 -11.0246     13.5365     59.8159   1.2717645215e+02   6.1968099839e+01    0.1807162    0.1698526 -47.96 0.0004273728    1.275    0.216
        66 -10.9505    138.4890     31.6291   7.8467383094e+01   4.6631436844e+01    0.2735491    0.2094984  82.00  0.001023144    1.517    0.341
