#   1 NUMBER                 Running object number                                     
#   2 MAG_AUTO               Kron-like elliptical aperture magnitude                    [mag]
#   3 X_IMAGE                Object position along x                                    [pixel]
#   4 Y_IMAGE                Object position along y                                    [pixel]
#   5 X_WORLD                Barycenter position along world x axis                     [deg]
#   6 Y_WORLD                Barycenter position along world y axis                     [deg]
#   7 A_WORLD                Profile RMS along major axis (world units)                 [deg]
#   8 B_WORLD                Profile RMS along minor axis (world units)                 [deg]
#   9 THETA_WORLD            Position angle (CCW/world-x)                               [deg]
#  10 FWHM_WORLD             FWHM assuming a gaussian core                              [deg]
#  11 ELONGATION             A_IMAGE/B_IMAGE                                           
#  12 ELLIPTICITY            1 - B_IMAGE/A_IMAGE                                       
         1 -13.4739    221.0942      7.2223   3.6115121114e+01   2.9223595857e+01     1.201226     1.011401  55.91  0.005282498    1.393    0.282
         2 -14.3519    194.7946     37.8703   4.6682675230e+01   3.1858823354e+01     2.984471     1.827921  22.70   0.01237356    2.864    0.651
         3 -10.1410    189.6241     14.8420   4.1077516729e+01   3.5863819501e+01    0.2627842    0.1967099 -75.85 0.0009331522    1.300    0.231
         4  -9.7645     80.2484     15.1422   6.2117119709e+01   6.1496997015e+01    0.2346101    0.1778308  51.78 0.0008311767    1.397    0.284
         5 -11.7230    246.2805    248.0727   8.4885491236e+01  -1.1224048260e+01    0.5617876    0.3393881  40.50  0.003545828    1.891    0.471
         6 -18.0201     16.4921    243.0264   1.2612492318e+02   2.1714203737e+01     6.578844     6.046681 -74.18   0.05546672    1.599    0.375
         7 -10.0797     54.3628    221.8756   1.1792140894e+02   2.1471805848e+01    0.2772012    0.1321694  52.63   0.00104732    1.794    0.443
         8  99.0000     57.5043    219.4141   1.1709646248e+02   2.1571742919e+01    0.4177274     0.203904  61.37  0.002071165    1.976    0.494
         9 -10.8877     62.2679    250.0825   1.1871381425e+02   1.5136092034e+01     0.324495    0.1535023  68.28   0.00068778    2.239    0.553
        10 -11.9971     49.1595    249.7381   1.2098057471e+02   1.6827122186e+01    0.1861253    0.1377238  75.66 0.0004866797    1.119    0.106
        11  -9.1887     44.4548    230.2307   1.2045035298e+02   2.1030406046e+01    0.1455227   0.08820479  80.87 0.0008960438    1.480    0.324
        12  -9.5945     58.7349    229.1512   1.1769825351e+02   1.9481535138e+01    0.1553007    0.1205713  75.53 0.0003431529    1.074    0.069
        13  -9.7792    184.1087    211.8598   9.0202504567e+01   3.0713989237e+00    0.3717431    0.2250896 -57.71   0.00177358    2.451    0.592
        14  -9.5970    168.0220    232.7346   9.6700464179e+01   2.3536603489e+00    0.2061128    0.1763775  32.69 0.0007149101    1.030    0.029
        15 -10.4379     40.1788    224.0457   1.2079024503e+02   2.2748024381e+01    0.2051507    0.1273671  75.46 0.0007379491    1.380    0.275
        16  -9.8062     28.8713    209.6900   1.2189380101e+02   2.6936478327e+01    0.1521309    0.1034565  60.65 0.0003939037    1.231    0.188
        17  -9.1310     42.5664    209.1940   1.1916824625e+02   2.5505975895e+01    0.1527788   0.09216152  82.30 0.0002003311    1.516    0.340
        18 -10.9406     65.4442    205.1264   1.1411067585e+02   2.3509251527e+01    0.3797375    0.1901972 -79.97 0.0009031749    2.159    0.537
        19  -9.7613    190.1529    206.8593   8.8135528619e+01   2.8715890218e+00    0.1914433    0.1480793   5.46  0.001085946    1.344    0.256
        20 -11.9284     31.1484    205.8484   1.2116394701e+02   2.7496785182e+01    0.3370496    0.1395576  52.13  0.001693511    2.111    0.526
        21 -11.0185    192.7871    194.6310   8.5376301830e+01   4.4812341426e+00     1.277346    0.6464072 -59.90  0.004293095    4.641    0.785
        22  -9.0371     96.4377    202.3101   1.0715603751e+02   1.9644808185e+01    0.2574561    0.1278512 -62.26 0.0009976742    2.095    0.523
        23 -12.5773     54.4813    197.9987   1.1569090659e+02   2.6465791290e+01    0.5932681    0.2734973 -51.21  0.002743096    2.692    0.629
        24 -11.0504    203.5780    199.2907   8.4135278905e+01   1.8252425579e+00    0.5059578    0.1885178  31.52  0.001839539    3.213    0.689
        25 -12.0483    134.0100    196.8801   9.8139695408e+01   1.4560577238e+01    0.5405336    0.2929145 -61.43  0.002404803    2.223    0.550
        26 -11.5588    127.1811    191.5076   9.8772883892e+01   1.6856267866e+01    0.3681928     0.212797 -57.58   0.00172042    1.865    0.464
        27  -9.2077     81.9136    194.5963   1.0934440203e+02   2.3491748543e+01    0.2471237      0.18433 -84.09   0.00141363    1.310    0.237
        28 -10.4352     74.6188    189.2693   1.1030072426e+02   2.5722049118e+01    0.4858501    0.2398624  70.36  0.001930541    2.975    0.664
        29 -10.4304     61.4566    187.5131   1.1304109063e+02   2.7906024735e+01    0.2298387    0.2161602  87.34 0.0007212744    1.195    0.163
        30 -12.3168     66.4980    183.3300   1.1140220560e+02   2.8188012216e+01    0.7030437    0.5933427 -71.00  0.003145881    1.178    0.151
        31  -8.5541     93.4827    205.5005   1.0820415607e+02   1.9427242611e+01    0.2214478    0.1644371   6.30 0.0008895688    2.202    0.546
        32 -11.0899    149.4557    187.9606   9.3226460663e+01   1.3596459707e+01    0.3958788    0.3138312 -78.90  0.001138489    1.600    0.375
        33  -8.9939     96.8964    190.5179   1.0543920728e+02   2.2113094035e+01    0.2003562    0.1265085  41.28 0.0007389206    1.522    0.343
        34  -8.4908     69.7027    198.7286   1.1251007959e+02   2.4313849647e+01    0.3021879    0.1239996 -55.64  0.001043496    2.547    0.607
        35  -9.3116     94.0309    186.4669   1.0550969574e+02   2.3459929013e+01     0.248229    0.1789573 -86.06 0.0005197021    1.485    0.326
        36 -10.8700     99.0265    181.1922   1.0356584871e+02   2.3849816225e+01    0.4876352    0.3495168 -20.48  0.001564663    2.285    0.562
        37  -9.1684     38.3269    199.1041   1.1917115973e+02   2.8146434358e+01    0.1545255    0.1139818  82.24 0.0001966747    1.112    0.101
        38 -11.1820    144.0059    178.3844   9.2685431946e+01   1.6570326742e+01    0.3869241    0.2956325 -36.99  0.001116054    1.426    0.299
        39 -10.2244    188.9490    177.0840   8.2720147959e+01   8.3181841513e+00    0.4364586    0.3843327 -70.45  0.002426905    1.455    0.313
        40  -9.9635     56.0346    174.7188   1.1276652004e+02   3.1541668507e+01    0.3119033    0.1864459  58.29  0.001143011    1.674    0.403
        41  -9.2096     84.0467    173.7442   1.0598065551e+02   2.7898558727e+01    0.2223716    0.1844058 -70.44 0.0003838328    1.151    0.131
        42 -10.0514     46.0221    173.0838   1.1491227868e+02   3.3133402538e+01    0.3151447    0.2616794  39.01  0.001368046    1.379    0.275
        43  -9.4217    149.5171    177.1844   9.1217124439e+01   1.5786854989e+01    0.2248181    0.2055559 -67.93   0.00057174    1.180    0.153
        44 -10.7207    138.7508    170.5786   9.2406499053e+01   1.9220710195e+01    0.3984209    0.2767402  44.20  0.001179569    1.404    0.288
        45  -8.7015     37.3777    176.3400   1.1724554079e+02   3.3349924499e+01    0.2692642    0.1034098  52.29  0.001168377    2.655    0.623
        46  -9.6101    240.4757    169.4742   7.1443569164e+01   3.6813746388e-01     0.133583    0.1151972 -14.81 -7.454778e-06    1.046    0.044
        47  -9.3107     59.0360    166.3247   1.1098053297e+02   3.3141040146e+01    0.3634868     0.177816 -79.48  0.001194436    2.264    0.558
        48  -9.4508    187.7588    162.5105   7.9916638748e+01   1.1298510061e+01    0.2826579    0.1987239 -42.12  0.001378236    1.419    0.295
        49  -9.7031     57.0152    159.4428   1.1054410152e+02   3.5045098842e+01    0.1877721     0.132346  34.96  0.001020431    1.582    0.368
        50 -11.5765     94.4263    151.4073   9.9646750002e+01   3.1565105220e+01    0.7013085    0.5821634 -35.00  0.003534394    1.392    0.282
        51 -10.1121    187.5848    151.9653   7.7630056080e+01   1.3380405806e+01    0.3192682    0.2537805 -77.00  0.001535296    1.759    0.432
        52 -10.7934    133.8659    145.6400   8.8424051431e+01   2.5720446961e+01     1.293616    0.3257824 -54.41  0.003002819    5.832    0.829
        53  -8.9339    112.9382    150.8978   9.4789760740e+01   2.8482842827e+01    0.2410778     0.179891  82.64 0.0007056146    1.671    0.402
        54 -10.0407    174.4675    149.0108   7.9746769259e+01   1.6668828500e+01    0.3178274    0.2745782 -57.58 0.0008786538    1.257    0.205
        55  -8.6938    109.3538    147.6314   9.5045077695e+01   2.9900196590e+01    0.2231466    0.1688796  80.92 0.0006065093    1.608    0.378
        56  -9.5173     86.6001    143.3239   1.0018590736e+02   3.4783616708e+01    0.2423518    0.1819333  53.16  0.001231155    1.396    0.283
        57 -10.7180    106.3216    137.7239   9.3762074937e+01   3.2803565612e+01    0.5323565     0.342079 -31.50  0.002255985    2.028    0.507
        58 -11.6845     94.2975    137.5361   9.6958120604e+01   3.4937785501e+01    0.2975827    0.2609881 -41.78 0.0006431454    1.192    0.161
        59 -10.5397    105.9265    130.7354   9.2323837427e+01   3.4543729876e+01    0.3957587    0.3237897 -60.19  0.001202362    1.184    0.155
        60  -9.7365    135.7159    129.0722   8.4115736409e+01   2.9106530198e+01    0.4843766    0.1359549 -50.52  0.001319002    3.875    0.742
        61 -10.3164    114.2959    128.9982   8.9665788057e+01   3.3397353160e+01    0.3695605    0.3238781   6.56 0.0008484719    1.344    0.256
        62 -19.2072      6.3706    109.8511   1.1757635278e+02   5.1836235178e+01     16.78353    0.7786443 -71.02   0.02873795   15.159    0.934
        63  -9.9435     72.1360    244.8586   1.1652629492e+02   1.4784946291e+01    0.2940708    0.1655079  70.65  0.001405397    1.802    0.445
        64 -10.3774    101.5552    124.9024   9.2188405647e+01   3.6724500297e+01    0.2968317    0.2454969 -28.52 0.0006463081    1.354    0.261
        65 -10.4795    120.2397    123.3868   8.6730470030e+01   3.3552055154e+01    0.4210442    0.3524297   3.44  0.002030391    1.467    0.319
        66  -9.8296    134.7839    120.7418   8.2277093421e+01   3.1176890010e+01    0.3759307     0.124831 -47.07  0.001154091    2.947    0.661
        67  -9.3507    109.5246    118.3720   8.8402174364e+01   3.6799775931e+01    0.2553352    0.2307235 -51.75 0.0001737793    1.054    0.051
        68 -10.0376    231.4467    113.7006   6.0556962559e+01   1.1427441727e+01    0.2677794    0.2472309 -12.71 0.0007533585    1.110    0.099
        69  -9.2247    167.7129    112.6830   7.2327774196e+01   2.5631976889e+01    0.3201294    0.2270789 -77.63   0.00131185    2.102    0.524
        70 -11.3264    118.2840    110.1131   8.3864365624e+01   3.6986247329e+01    0.6106953    0.4823193  71.73  0.002238387    1.564    0.361
        71  -9.9744    134.5658    104.7490   7.8087278861e+01   3.4748004994e+01    0.5789809    0.1492567 -44.66  0.001577592    3.766    0.734
        72  -9.5846    205.4760    110.2450   6.4124608700e+01   1.7564758542e+01     0.306839    0.2386071  39.13  0.000911159    1.408    0.290
        73  -9.4656     65.1532     99.8706   9.7119379184e+01   4.8505439563e+01    0.2410691    0.1979465  17.53 0.0007600181    1.407    0.289
        74  -9.6156     72.1159    249.5197   1.1691618826e+02   1.3955600464e+01     0.169945    0.1147031 -83.87 0.0007064806    1.523    0.344
        75 -11.6492     52.0070     90.4848   9.9168085448e+01   5.2393887645e+01     0.447344    0.2776378 -55.34  0.002272002    1.397    0.284
        76  -8.8687     65.6730     70.4223   8.8719014800e+01   5.5019267508e+01    0.2577444    0.1302353  40.81  0.001137362    2.234    0.552
        77  -8.3550     84.2215    245.6691   1.1437849335e+02   1.2997803910e+01    0.1133139   0.07345685  71.29            0    1.514    0.339
        78 -12.8350    179.1253     52.3015   5.3091034119e+01   3.3712666140e+01    0.8685648    0.7812831  22.07 0.0008892419    1.274    0.215
        79 -11.8183    249.2541    234.6397   8.2179862227e+01  -1.0056365857e+01    0.4170541    0.2688605 -31.99  0.002705368    1.655    0.396
        80  -9.4533     53.1349    229.8795   1.1881204613e+02   2.0044239262e+01     0.290992    0.1420773 -85.70  0.001194462    2.175    0.540
        81  -9.5818     51.6513     13.3226   7.1393464924e+01   6.6771037868e+01    0.1077806   0.09949802 -60.20 0.0003609139    1.744    0.427
