#   1 NUMBER                 Running object number                                     
#   2 MAG_AUTO               Kron-like elliptical aperture magnitude                    [mag]
#   3 X_IMAGE                Object position along x                                    [pixel]
#   4 Y_IMAGE                Object position along y                                    [pixel]
#   5 X_WORLD                Barycenter position along world x axis                     [deg]
#   6 Y_WORLD                Barycenter position along world y axis                     [deg]
#   7 A_WORLD                Profile RMS along major axis (world units)                 [deg]
#   8 B_WORLD                Profile RMS along minor axis (world units)                 [deg]
#   9 THETA_WORLD            Position angle (CCW/world-x)                               [deg]
#  10 FWHM_WORLD             FWHM assuming a gaussian core                              [deg]
#  11 ELONGATION             A_IMAGE/B_IMAGE                                           
#  12 ELLIPTICITY            1 - B_IMAGE/A_IMAGE                                       
         1  -8.2027     19.4217     21.2514   8.0888011730e+01   7.0220243662e+01    0.1496958    0.1043089 -44.18 0.0009424015    1.674    0.403
         2  -7.8574     83.4470     11.1860   5.0379903606e+01   6.0871197840e+01    0.1530188    0.1156248 -35.94 0.0005499758    1.575    0.365
         3  -8.1236    164.8827      9.6861   3.5127744451e+01   4.2392116064e+01    0.1829413    0.1356857  76.41  0.001119403    1.154    0.134
         4  -8.4630     55.7172      9.9424   5.8726566452e+01   6.6378206712e+01    0.1900159    0.1582552 -31.17 0.0007758634    1.480    0.324
         5  -8.4790     90.9776      8.8210   4.7485172348e+01   5.9483783852e+01    0.2036673    0.1557014 -43.44 0.0006240956    1.612    0.379
         6  -7.7211     28.3063      9.6778   7.0599408541e+01   7.0719996650e+01   0.09633179   0.09357272   7.69 0.0004733024    1.641    0.391
         7  -8.5342     33.7614      5.3257   6.5682735644e+01   7.0445819378e+01    0.2376475    0.1375693 -40.44  0.001143326    2.350    0.575
         8  -8.6481     79.0075      3.9625   4.8609445104e+01   6.2413814977e+01    0.2517556    0.1643157 -32.88  0.001490955    1.811    0.448
         9  -7.9977     44.6809      3.3240   5.9834542696e+01   6.8927345131e+01   0.09899701    0.0953211 -78.76 0.0002459785    1.674    0.403
        10  -7.6797     15.7093      3.2907   7.4010918761e+01   7.3074838721e+01   0.09274268   0.08430315   7.95 0.0003060299    1.546    0.353
        11  -8.2188     62.4294      1.4267   5.2410825609e+01   6.5913667369e+01    0.1871764    0.1081507  63.56 0.0005638051    2.077    0.519
        12  -9.9378    223.9296    244.1593   7.7693443111e+01  -8.4822258642e+00    0.4483556    0.2230721 -46.49  0.002282596    2.629    0.620
        13  -8.6199    249.1507    249.0286   7.4019506725e+01  -1.2071980900e+01    0.2890818    0.1195172 -28.14   0.00152025    2.215    0.549
        14  -9.7361    248.5144    241.9281   7.2964929091e+01  -1.1066544138e+01    0.3902255    0.1802464 -39.25   0.00130925    2.158    0.537
        15  -9.0921    247.8276    234.8558   7.1900270865e+01  -1.0025868283e+01    0.2519204    0.1545216 -32.90    0.0010971    1.483    0.326
        16  -9.4386    246.5416    228.7160   7.1075334177e+01  -9.0142163112e+00    0.4693987     0.184495 -34.21  0.002109444    2.220    0.550
        17  -8.1939    191.7795    249.7807   8.4716725566e+01  -5.1383997384e+00    0.1556389    0.1365979  30.79 0.0006076822    1.339    0.253
        18  -8.4457     93.9913    249.3423   1.0502610608e+02   9.0002035257e+00    0.2830806    0.1661116  82.47  0.001353916    2.543    0.607
        19  -9.1300    210.9845    246.5490   8.0495706075e+01  -7.1941676981e+00    0.2044021    0.1632774 -45.27 0.0008236901    1.691    0.409
        20  -9.5388    120.1590    245.5247   9.8992869375e+01   5.9476611539e+00    0.3902903    0.2378395  69.48  0.001812057    2.608    0.617
        21  -8.8346     67.6270    245.1941   1.1016465338e+02   1.3407489296e+01    0.2787857    0.1445302 -87.90  0.001330187    2.474    0.596
        22  -9.5607     10.3023    244.6568   1.2155801906e+02   2.0137432039e+01    0.4616785    0.1271507  66.43  0.001599032    4.971    0.799
        23  -8.5404    139.4879    244.5054   9.4713697614e+01   3.2614620968e+00    0.2054555    0.1300838 -68.99 0.0008880913    2.346    0.574
        24  -8.6913     58.6749    244.7166   1.1198525274e+02   1.4655997552e+01    0.2463416    0.1260145  77.86   0.00116396    2.444    0.591
        25  -8.1234     50.0241    244.2514   1.1372684425e+02   1.5825080417e+01     0.318725    0.1352718  86.88     0.001299    3.443    0.710
        26  -8.9508     77.9071    243.1706   1.0780105739e+02   1.2445718582e+01    0.3483272    0.1755852  63.26  0.001495435    2.406    0.584
        27  -8.4010    201.8398    243.1161   8.1697856917e+01  -5.4789055945e+00    0.1716705     0.158546   6.17 0.0006878714    1.302    0.232
        28  -9.2172    194.0962    239.8120   8.2684648061e+01  -3.9063462115e+00    0.2003048    0.1809875 -49.84 0.0005007663    1.524    0.344
        29  -8.4721    168.9383    243.1500   8.8313137778e+01  -8.6129203062e-01    0.1834118    0.1632819  41.96 0.0005327138    1.301    0.232
        30  -7.8543     34.3258    243.6896   1.1685348450e+02   1.7784909133e+01    0.1300333   0.06924846  61.49 0.0007039605    1.658    0.397
        31  -9.1846    183.0788    240.1532   8.4949257381e+01  -2.4071123257e+00     0.402049    0.2697977  60.48  0.001947255    2.813    0.644
        32  -9.5898    159.9613    240.2813   8.9755033785e+01   9.5378395881e-01    0.3327986    0.2452311 -83.70  0.001340849    2.463    0.594
        33  -8.2483    153.3764    242.2027   9.1431534504e+01   1.5987003535e+00    0.1619085    0.1262903 -63.73 0.0006311847    1.696    0.410
        34  -8.1676     88.1856    242.2030   1.0549818527e+02   1.1220924310e+01    0.1772213    0.1336778  69.83  0.000744732    1.361    0.265
        35  -8.1801    214.3110    241.6627   7.9074602920e+01  -6.9042867943e+00    0.1041269   0.09898732  51.82 0.0007044874    1.686    0.407
        36  -9.1047    242.5537    236.5642   7.3098738944e+01  -9.6522198730e+00    0.3450663     0.161059 -16.72   0.00162345    2.662    0.624
        37  -8.5267    146.1752    239.6904   9.2601692298e+01   3.1294252841e+00     0.201656     0.143552  47.02 0.0005888226    1.448    0.309
        38  -9.4485    135.5156    239.0350   9.4809779337e+01   4.8641847277e+00    0.2822053    0.1634712  48.57  0.001167437    1.803    0.445
        39  -8.7101    129.1019    238.4832   9.6129541429e+01   5.9404370839e+00    0.2099637    0.1774585  67.09  0.000839874    1.366    0.268
        40  -9.0318    230.8243    236.9692   7.5246739379e+01  -8.3025259161e+00    0.2420625    0.2036644 -56.38  0.001339036    2.039    0.510
        41  -8.1284    208.8554    238.3268   7.9563170366e+01  -5.6862526281e+00    0.1646659    0.1407574 -16.80 0.0006744927    1.202    0.168
        42  -8.7209     14.3226    238.1723   1.2044450606e+02   2.1065756144e+01    0.2042875   0.08279657  29.08 0.0009980457    2.675    0.626
        43  -7.9259     57.7667    237.3443   1.1153556976e+02   1.6296575587e+01    0.1673815    0.1109624  29.35  0.000939136    1.609    0.379
        44  -8.2467     25.7617    237.1739   1.1812999188e+02   2.0083451278e+01    0.2266949   0.08293024  62.44 0.0009649492    2.885    0.653
        45  -9.9451    214.5902    232.9919   7.7578985421e+01  -5.6321008293e+00    0.4746002    0.3703471 -86.79  0.002346998    3.536    0.717
        46  -8.9004    203.2711    234.9040   8.0075385531e+01  -4.3986138317e+00    0.2672295    0.2106843 -64.89   0.00114156    2.200    0.545
        47  -9.7800    175.6802    233.2750   8.5369413453e+01  -1.7182218647e-01    0.4799543    0.2541675 -56.23  0.002168643    2.749    0.636
        48  -7.9745    170.1599    235.8071   8.6923765924e+01   2.1206798444e-01     0.176862    0.1376884   0.52 0.0004556255    1.275    0.215
        49  -9.6037    108.9142    234.5538   1.0005823425e+02   9.7556294457e+00    0.4677444    0.2253334  49.28   0.00118485    2.101    0.524
        50  -8.3933     99.6561    234.4854   1.0210551499e+02   1.1140774908e+01    0.2877691    0.1675565  70.69  0.001248623    2.485    0.598
        51  -8.9671     78.5061    234.1725   1.0674495923e+02   1.4220008884e+01    0.2982908    0.1815718  79.49  0.001229522    2.023    0.506
        52  -8.2273    122.7085    234.1513   9.6944221042e+01   7.7510384029e+00    0.2013871    0.1626224  77.70 0.0007567959    1.513    0.339
        53  -9.2550     68.4708    232.3740   1.0876060273e+02   1.5961003392e+01    0.4918436    0.2171024  66.44  0.001850909    3.489    0.713
        54  -8.6867    194.1825    232.6852   8.1500061965e+01  -2.7696152728e+00    0.1976945    0.1655751 -37.77 0.0005171124    1.362    0.266
        55  -7.8653    144.9977    233.2015   9.1903665212e+01   4.5076113766e+00    0.2792251    0.1441416  53.37  0.001152324    2.680    0.627
        56  -8.5197    140.1316    230.1934   9.2522908172e+01   5.8335841957e+00    0.2562191    0.1664208  49.98  0.001087786    1.659    0.397
        57  -8.6225    132.8177    233.0906   9.4560319999e+01   6.4073626219e+00    0.2126621    0.1705165  58.16  0.001219058    1.387    0.279
        58  -9.3437    186.4324    230.5944   8.2716949745e+01  -1.3016424445e+00    0.3294989    0.2507399 -70.19  0.001332207    2.279    0.561
        59  -8.4490    158.1536    232.2144   8.8905575175e+01   2.6663352577e+00    0.1798352    0.1504907  50.24 0.0007978124    1.365    0.267
        60  -8.3937     92.6622    231.7150   1.0333134015e+02   1.2733883164e+01    0.2815991    0.1623944  64.17  0.001312546    2.126    0.530
        61  -8.9159    235.9913    230.4767   7.3220263898e+01  -7.9969332845e+00    0.2554228    0.1479602 -34.08 0.0006384953    1.572    0.364
        62  -9.1037      1.7193    230.8433   1.2249681943e+02   2.3815192583e+01    0.2271099    0.1175904  74.80  0.001029186    1.641    0.390
        63  -9.1371    151.3172    228.9670   8.9880503144e+01   4.3243467538e+00    0.3232982    0.2185459  85.67  0.001120448    3.184    0.686
        64  -9.6860    148.6388    224.5914   8.9784439888e+01   5.5791304883e+00    0.4690276    0.3305739  86.00  0.001393106    2.595    0.615
        65  -8.2255    229.5580    228.9530   7.4113828685e+01  -6.9673303492e+00    0.1762656     0.105222 -34.67 0.0005346105    1.555    0.357
        66  -8.8453    162.2774    227.7399   8.7311963493e+01   2.8497089379e+00    0.2883684    0.2132012  59.20  0.001229379    1.848    0.459
        67  -8.8433    127.8897    227.2779   9.4822209264e+01   8.3173129893e+00    0.3270584     0.223804  65.45  0.001142322    1.941    0.485
        68  -8.4794    120.0305    227.5123   9.6626685747e+01   9.4921402048e+00     0.264601    0.1723777 -85.20  0.001151178    2.366    0.577
        69  -7.8618    223.3674    227.1662   7.4939511957e+01  -5.8968040621e+00    0.1630895    0.1075609 -43.16 0.0004907261    1.717    0.418
        70  -8.0551    177.3323    227.3019   8.4048625486e+01   6.2230548929e-01    0.1375001   0.09440277  -1.80 0.0006179867    1.654    0.395
        71  -8.4094    111.7282    227.7522   9.8537253865e+01   1.0719554951e+01    0.2245832     0.087998  44.30 0.0008837145    2.387    0.581
        72  -8.1649     49.3823    226.6834   1.1239455541e+02   1.9632677883e+01    0.2824804    0.1329036  68.72  0.001041738    2.558    0.609
        73  -8.5179    205.9248    226.1567   7.8077144119e+01  -3.3661373043e+00    0.1803743    0.1694678   3.97 0.0005637382    1.295    0.228
        74  -8.0452    200.3574    226.2370   7.9183588030e+01  -2.5900123350e+00    0.1668933    0.1165729 -45.91  0.000487636    1.658    0.397
        75  -9.0377    216.3523    223.5941   7.5630753610e+01  -4.3990482289e+00    0.2552176    0.2003918 -40.22 0.0007979036    1.455    0.313
        76  -7.7926    189.4825    225.4863   8.1237387669e+01  -8.8095037183e-01    0.1313064    0.1137785   4.43  0.000264971    1.035    0.034
        77  -9.1140    180.1727    224.0969   8.2919331215e+01   7.5805402441e-01    0.2565161    0.2145947 -39.81 0.0005985338    1.310    0.237
        78  -8.9056    104.7357    223.6437   9.9581784411e+01   1.2646801101e+01     0.348219    0.2283692  79.54   0.00165195    2.118    0.528
        79  -8.8938     94.0209    224.1709   1.0210677877e+02   1.4138295961e+01    0.3895462    0.2070961  63.45  0.001609056    2.560    0.609
        80  -8.1733     38.6019    224.8873   1.1457597774e+02   2.1305449628e+01    0.2365692   0.08325405  58.08 0.0009055486    3.199    0.687
        81  -8.5096    173.0371    223.1301   8.4256572548e+01   2.0261377934e+00    0.2472789    0.1881514 -57.48  0.000761543    1.683    0.406
        82  -8.0639    113.9767    224.0329   9.7517383634e+01   1.1147446398e+01    0.2143986    0.1525095  63.43 0.0006070769    1.623    0.384
        83  -9.2026    225.4608    221.6872   7.3597984015e+01  -5.3252300472e+00    0.2800435    0.2030232 -34.48  0.001204309    1.357    0.263
        84  -9.1719    160.5559    221.4749   8.6664864346e+01   4.2884891189e+00    0.5604072    0.2582184  52.73  0.001982452    3.694    0.729
        85  -8.2314    140.3120    222.4913   9.1311092942e+01   7.3132056263e+00    0.2141284    0.1682165 -86.51  0.000610578    1.774    0.436
        86  -7.9811     59.7521    223.6065   1.0981919848e+02   1.9012891238e+01    0.1826711    0.1029296  45.91 0.0004741061    1.571    0.363
        87  -9.1355    238.8111    221.4405   7.1154455299e+01  -7.0104780146e+00    0.2027482    0.1768899 -34.04 0.0007990206    1.457    0.313
        88  -9.2206    192.3211    221.2906   7.9939762423e+01  -5.8039091472e-01    0.2750926    0.2408047 -70.94 0.0009257451    1.719    0.418
        89  -9.3385      7.4480    222.2299   1.2090665138e+02   2.5135621381e+01    0.2587885    0.0978197  44.63   0.00129721    2.181    0.542
        90  -9.2335    120.5478    219.4671   9.5355485940e+01   1.1077466221e+01    0.4956693    0.2679775  58.82  0.002018941    2.607    0.616
        91  -8.8990     82.8461    220.7379   1.0425586302e+02   1.6511417946e+01    0.3133563     0.165812  60.74  0.001258943    2.244    0.554
        92  -8.4265     73.1887    221.0043   1.0650564202e+02   1.7804815342e+01    0.2283708    0.1350739  74.94 0.0009645616    2.056    0.514
        93  -7.8447     27.5310    221.0421   1.1665176467e+02   2.3387292844e+01    0.1873811    0.1078472 -78.60 0.0006558692    1.598    0.374
        94  -9.0414    249.4956    218.9732   6.8878694634e+01  -7.9576545700e+00    0.2557068    0.1383586 -47.25  0.001330545    2.391    0.582
        95  -8.2139    210.3166    233.6891   7.8510533458e+01  -5.1675850653e+00    0.1879749      0.14133 -22.54 0.0007140397    1.219    0.180
        96  -8.2431    210.2370    219.1812   7.6023129546e+01  -2.8325232049e+00    0.1603702    0.1457067 -37.85 0.0004564925    1.383    0.277
        97  -9.3470    132.8056    215.8550   9.1980852327e+01   9.8700449781e+00    0.5061145    0.3269016  82.35   0.00207013    2.969    0.663
        98  -8.7035     62.1815    217.5165   1.0865009259e+02   2.0065059387e+01    0.3044157    0.1760018  65.19   0.00140869    1.847    0.458
        99  -9.1572     51.7981    217.4927   1.1101218114e+02   2.1391108175e+01    0.3159563    0.1985866  70.00  0.001202558    1.585    0.369
       100  -7.7120     55.6538    217.1780   1.1010664357e+02   2.0980853624e+01     0.173462    0.1090485 -60.04            0    1.657    0.396
       101  -8.6310    169.2232    216.1555   8.3888011620e+01   3.9176498064e+00     0.275104    0.1822712 -55.07 0.0007976534    1.834    0.455
       102  -8.5792    142.9309    216.4952   8.9770242444e+01   8.0958295132e+00    0.2525071    0.1986002 -79.95 0.0009952076    1.725    0.420
       103  -8.2263    111.7056    216.7522   9.7014473218e+01   1.3049898724e+01    0.2685373    0.1688569 -88.57  0.001161175    2.481    0.597
       104  -8.8248    232.5537    215.0594   7.1133195339e+01  -5.2281002830e+00    0.2475535    0.2007635 -52.71   0.00113123    1.789    0.441
       105  -7.9965    154.2622    215.1987   8.7008841904e+01   6.5136138017e+00    0.1835836    0.1613588  62.17 0.0007862136    1.370    0.270
       106  -8.9932     93.0625    213.7175   1.0098322858e+02   1.6583532167e+01    0.4547079    0.2077252  55.73  0.001695328    2.774    0.639
       107  -9.3936    213.8633    212.1571   7.4068877036e+01  -2.1824158235e+00    0.3099366    0.2946785 -80.18  0.001901889    1.605    0.377
       108  -8.3936    185.4583    214.2062   8.0106262418e+01   1.7193273749e+00    0.2187134    0.1749001  71.04 0.0008072063    2.054    0.513
       109  -9.5073     73.0729    211.8875   1.0548651450e+02   1.9887257197e+01    0.6834435    0.2838556  60.31  0.002324816    3.713    0.731
       110  -8.7272    161.6703    212.4140   8.4891853037e+01   5.8553981145e+00    0.2457691    0.2076315 -88.16 0.0007808096    1.676    0.403
       111  -7.9194    106.5600    212.8095   9.7659425398e+01   1.4718374537e+01    0.1846603    0.1345359 -80.42 0.0008253094    1.630    0.386
       112  -7.9096    224.8116    212.3704   7.2054955864e+01  -3.7571829755e+00    0.1696755    0.1434834 -20.85 0.0004886656    1.149    0.130
       113  -9.4451    175.3499    210.1220   8.1513466746e+01   4.0782891399e+00     0.380265    0.2925701  78.10  0.001512362    2.260    0.557
       114  -9.2166      6.9202    209.7745   1.2027744118e+02   2.7959016940e+01    0.5112187    0.1557107  72.97  0.001589438    5.415    0.815
       115  -8.8885    204.1679    210.7251   7.5690001086e+01  -5.1790111033e-01    0.2313724    0.1969901 -58.55 0.0006073178    1.626    0.385
       116  -8.2803    192.2762    210.5471   7.8045290248e+01   1.3227148664e+00     0.232472    0.1571655 -50.15 0.0007821621    1.724    0.420
       117  -9.0637    147.8063    210.0276   8.7592419751e+01   8.6143952119e+00     0.393219    0.2747357 -64.91  0.001602063    1.828    0.453
       118  -8.9413    116.1950    210.4569   9.5027517118e+01   1.3709511527e+01    0.3049235    0.2133921  69.36 0.0008800568    1.830    0.454
       119  -8.2404     32.6084    210.2435   1.1469019313e+02   2.5294220933e+01    0.4061503    0.1689003  67.41  0.001624079    2.981    0.665
       120  -8.5878     85.3184    209.2255   1.0223764936e+02   1.8754754217e+01    0.3217056    0.1923639  84.39  0.001066473    2.312    0.567
       121  -8.6286     46.3952    209.6328   1.1149005617e+02   2.3859574680e+01    0.3002295    0.1441678  70.62  0.001255941    2.588    0.614
       122  -9.0731    236.5771    208.5056   6.9234631921e+01  -4.7291060182e+00    0.2336332    0.2258654 -63.76    0.0011411    1.616    0.381
       123  -9.5496    246.3546    207.1757   6.7303614989e+01  -5.7934313008e+00     0.268353    0.1829096 -38.81  0.000545623    1.442    0.307
       124  -7.8298    156.5075    208.0245   8.5279777056e+01   7.5778106006e+00    0.1804239    0.1288671 -80.82 0.0008074008    2.360    0.576
       125  -8.3753    138.9471    208.0716   8.9300300693e+01   1.0492808236e+01    0.2163683    0.1864412  63.72 0.0005857291    1.328    0.247
       126 -10.1546    124.2060    206.1734   9.2454269400e+01   1.3346160947e+01    0.2963781    0.2195233  66.33  0.001466024    1.652    0.395
       127  -9.2077     99.3227    206.1215   9.8431523248e+01   1.7353271476e+01    0.3942502    0.2565444  80.88  0.001485538    2.115    0.527
       128  -8.4290     56.4753    205.4694   1.0869705988e+02   2.3595308198e+01    0.3098129    0.1577041  64.16 0.0008590274    2.299    0.565
       129  -8.0530     11.6814    206.6801   1.1905479465e+02   2.8231123264e+01    0.1167506   0.08645859 -51.02 0.0007042378    1.663    0.399
       130  -9.3652    194.8384    203.4276   7.6216480841e+01   2.2154252985e+00    0.4005508    0.2580858 -43.52  0.001484798    1.570    0.363
       131  -9.1852    192.3225    197.3905   7.5596319593e+01   3.7382760090e+00    0.3635178    0.2608812 -55.42  0.001130046    1.730    0.422
       132  -8.7419    131.5017    204.2281   9.0404108171e+01   1.2559393831e+01    0.3526653    0.2383983  67.63  0.001183683    2.111    0.526
       133  -8.1073    109.0286    205.2595   9.5953615247e+01   1.6018851768e+01    0.2073334    0.1549692  82.86 0.0008589626    1.653    0.395
       134  -8.0374     92.6402    205.3465   9.9943958555e+01   1.8558247242e+01    0.2256983    0.1543291  67.33  0.001089585    1.674    0.402
       135  -8.9483    183.6946    203.6752   7.8570030340e+01   3.9518071323e+00    0.2772123    0.2673474 -31.86   0.00107355    1.212    0.175
       136  -9.6165    163.7865    203.0399   8.2766516624e+01   7.3661993192e+00    0.4021763    0.2780697  56.74  0.001132342    1.910    0.476
       137  -9.7091    249.8986    201.2999   6.5637909662e+01  -5.3363990776e+00    0.5143214    0.1866114 -43.42  0.002216931    2.695    0.629
       138  -9.6451    245.3529    193.2921   6.4913616917e+01  -3.4710005581e+00    0.2576463     0.197501 -43.55 0.0006793306    1.441    0.306
       139  -9.2945    243.0458    201.0335   6.6743041409e+01  -4.4020317346e+00    0.3199767    0.1712794 -42.05  0.001101481    1.784    0.439
       140  -9.1003    140.2473    200.6746   8.7734704850e+01   1.1852408886e+01    0.3869272    0.2545839 -77.14  0.001201719    2.419    0.587
       141  -8.7206     79.7123    201.0679   1.0252545191e+02   2.1481600531e+01    0.3613284    0.2079932  74.74  0.001501313    2.415    0.586
       142  -8.1880     48.4807    202.0214   1.1023698759e+02   2.5407153980e+01    0.2013965   0.09975502  79.61 0.0008089471    2.641    0.621
       143  -7.8208      9.6683    202.6662   1.1922465267e+02   2.9343267738e+01    0.1199325   0.08514626 -50.12 0.0007052202    1.729    0.422
       144  -8.0800    221.7455    201.1586   7.0557812402e+01  -1.4659827250e+00    0.1956846    0.1503158 -44.51 0.0006784938    1.453    0.312
       145  -9.4849    149.5106    198.1313   8.5121163812e+01   1.0810533032e+01    0.5407797     0.328302 -60.04   0.00177759    2.014    0.503
       146  -8.8434    124.0269    199.3597   9.1380308057e+01   1.4889086625e+01    0.3240372     0.229094 -88.80  0.001089595    2.032    0.508
       147  -9.4051    112.9401    198.5644   9.3952830030e+01   1.6912449482e+01    0.4794297    0.2896381  63.86  0.001757027    2.295    0.564
       148  -9.2171     88.7280    198.4098   9.9925276859e+01   2.0779818366e+01    0.4411684    0.2725358  84.53  0.001649343    2.243    0.554
       149  -9.1967    236.9643    198.5213   6.7326474996e+01  -3.1774413272e+00    0.2741463    0.1582847 -40.98 0.0008211535    1.622    0.384
       150  -8.3839    176.9997    199.0185   7.9130946405e+01   5.9507433478e+00    0.2034422    0.1766769  84.32   0.00047501    1.640    0.390
       151  -8.7165    133.0261    197.7555   8.8940329609e+01   1.3722326138e+01    0.4482965    0.1867091 -49.82 0.0009856913    2.446    0.591
       152  -8.3876     29.6303    198.7030   1.1437989599e+02   2.8331787978e+01    0.2318935    0.1465017  89.81 0.0006767878    1.454    0.312
       153  -8.4062    202.3988    197.7762   7.3633088365e+01   2.0560463139e+00    0.2521027      0.18994 -59.25  0.001151719    1.817    0.450
       154  -9.2358     61.4374    197.0470   1.0652938558e+02   2.4973086859e+01    0.5093501      0.23761  62.75   0.00193442    2.885    0.653
       155  -8.2697     12.7944    197.5251   1.1816568060e+02   3.0263781639e+01    0.2623365    0.1167492  67.42  0.001189338    2.339    0.572
       156  -8.6281    215.7749    195.3336   7.0574523461e+01   4.2551357992e-01    0.2859596    0.1641639 -52.21  0.001037308    2.222    0.550
       157  -7.9909     53.3767    196.2140   1.0841993396e+02   2.6206901304e+01    0.1966994    0.1186621 -86.19 0.0005995896    1.726    0.421
       158  -8.8255    224.3022    193.6982   6.8677312356e+01  -5.6591866472e-01    0.3169084    0.1790524 -48.89  0.001538595    2.024    0.506
       159  -7.7572    209.3007    195.6587   7.1875574441e+01   1.3604409894e+00    0.1237806     0.109579 -74.27  0.000476964    1.672    0.402
       160  -8.7861    185.2857    194.9285   7.6591282451e+01   5.3651737360e+00    0.2368149    0.2278948  60.79  0.000744565    1.298    0.230
       161  -9.0226    160.9750    194.3810   8.1803601371e+01   9.6184558962e+00    0.3101782     0.234061 -77.75  0.001018269    1.977    0.494
       162  -8.9960     44.1499    193.8321   1.1042455822e+02   2.7901062654e+01    0.4373541    0.2223072  68.62  0.001878583    2.347    0.574
       163  -8.2890    230.9728    194.2974   6.7588126830e+01  -1.6376027133e+00    0.1816201    0.1511854 -13.78 0.0005602108    1.027    0.027
       164  -8.7220     76.8642    193.7639   1.0224836495e+02   2.3649537144e+01    0.2584099    0.1958838 -83.12 0.0005925994    1.349    0.258
       165  -7.4183    241.5992    192.2607   6.5353690247e+01  -2.7922490344e+00     0.109669    0.1018469 -85.36 0.0006965374    1.721    0.419
       166  -8.1549    198.8164    191.6016   7.3163784108e+01   3.7696646202e+00    0.2172711    0.1548226 -43.12 0.0004222484    1.398    0.285
       167  -8.2424    179.0255    191.9466   7.7351463578e+01   7.0056250242e+00    0.2087786    0.1795956  82.36  0.000526128    1.654    0.396
       168  -8.3580    172.5042    191.8311   7.8747157585e+01   8.1476681067e+00    0.2610048    0.2270825  80.06 0.0009871684    1.564    0.361
       169  -9.1265    139.6414    190.7646   8.6107380241e+01   1.4128190291e+01    0.3984053      0.29115  86.54  0.001118265    2.085    0.520
       170  -8.1969     22.6194    192.2732   1.1547186125e+02   3.0590284894e+01    0.1393697   0.07905472  60.99 0.0004103499    1.701    0.412
       171 -10.4333     92.1466    188.7182   9.7614936177e+01   2.2586881421e+01     1.014533    0.3122714  47.07  0.003090506    3.737    0.732
       172  -8.7788      6.5821    190.7921   1.1909707589e+02   3.2406512703e+01    0.1873082   0.09777348  86.88 0.0009552645    1.720    0.419
       173  -8.1820    237.3989    188.6762   6.5393019903e+01  -1.6118139041e+00      0.22433      0.10801 -42.02 0.0006505765    1.886    0.470
       174  -8.7752    216.6445    188.2466   6.9044772445e+01   1.5483913779e+00    0.2461579    0.2176284 -73.80 0.0007202541    1.659    0.397
       175  -9.2538    156.0937    187.8383   8.1680554390e+01   1.1858853686e+01    0.3657463    0.2488424 -66.01  0.000986102    1.960    0.490
       176  -8.2424    148.4637    189.0672   8.3695136002e+01   1.2946425247e+01    0.2169588    0.1455065 -52.26 0.0005803393    1.560    0.359
       177  -8.9986    129.3119    188.6826   8.8235996629e+01   1.6406470386e+01    0.3034196    0.2335656  75.56 0.0009517942    1.685    0.407
       178  -9.5208    120.7691    186.4640   8.9958391092e+01   1.8403517201e+01    0.5603009    0.3149993 -74.09  0.002062383    2.835    0.647
       179  -8.5993     34.4245    188.2688   1.1224212405e+02   3.0356433722e+01    0.3592786    0.1766267  74.49  0.001111441    2.466    0.594
       180  -8.9373     32.7659    183.0862   1.1212801510e+02   3.1815912784e+01    0.2141931    0.1996062  85.99 0.0003558311    1.124    0.111
       181  -8.3827    211.1023    202.1795   7.2760728574e+01  -6.8908064365e-02    0.2232658    0.1703167 -62.76 0.0006695545    2.015    0.504
       182  -8.8015    191.3466    187.5587   7.3896741161e+01   5.7770576993e+00     0.281897    0.2342718 -83.22  0.001057583    1.833    0.455
       183  -9.2108     54.6176    186.4506   1.0695661503e+02   2.8456604725e+01    0.4945191    0.2793519  87.13  0.002170264    2.107    0.525
       184  -8.2644    230.6153    187.3349   6.6320715379e+01  -4.0367112904e-01    0.1778075    0.1528578 -61.14 0.0006290789    1.626    0.385
       185  -8.6077    164.9628    186.9702   7.9486481046e+01   1.0469581612e+01    0.2721271    0.2251223  82.44 0.0009365591    1.696    0.410
       186  -9.1966    109.5520    186.1532   9.2739705427e+01   2.0386590682e+01    0.4118989    0.2739124  71.75  0.001307209    2.083    0.520
       187  -8.9059    249.2718    185.3730   6.2774444685e+01  -2.7194992987e+00    0.2747079    0.1823408 -45.49 0.0009470354    1.568    0.362
       188  -9.0266    210.2514    184.1701   6.9458577592e+01   3.2982499034e+00    0.3054617    0.1661724 -37.87  0.000691783    1.673    0.402
       189  -8.5133    182.9753    184.6043   7.5068685858e+01   7.7913122404e+00     0.261836    0.1948725 -58.19 0.0007185282    1.628    0.386
       190  -9.0932     66.5326    184.5088   1.0362835729e+02   2.7382289421e+01    0.3944571    0.2353561  67.94  0.001150902    2.021    0.505
       191  -8.4904    224.0580    183.4943   6.6749057138e+01   1.2492442984e+00     0.239279    0.1683549 -47.81 0.0005089734    1.532    0.347
       192  -8.8426    174.2825    183.6170   7.6752046475e+01   9.5162521820e+00    0.2782187    0.2339374  87.83 0.0007055145    1.684    0.406
       193  -8.8461     44.5734    182.2829   1.0903529569e+02   3.0712437661e+01    0.4031329    0.2035603  65.60  0.001383013    2.430    0.588
       194  -8.1454      1.7814    183.6273   1.1970338911e+02   3.4510342441e+01     0.167853    0.0977932  44.68 0.0009409366    1.690    0.408
       195  -9.1172    147.5161    180.6651   8.2306420269e+01   1.4972441601e+01    0.3472405    0.2671136  79.57    0.0010161    1.852    0.460
       196  -9.4239     25.7876    179.3888   1.1351373477e+02   3.3444599149e+01    0.6154305    0.2584917  77.84  0.002218726    3.451    0.710
       197  -7.6121    235.2840    181.6663   6.4407855739e+01  -1.1980746450e-01    0.1209309   0.09927423 -57.65 0.0003266491    1.618    0.382
       198  -8.7163    137.5288    179.3062   8.4461510285e+01   1.7094408407e+01    0.3171559    0.2350657  81.46  0.001021313    1.962    0.490
       199  -9.7284    248.4220    176.5878   6.1234810023e+01  -1.1580777717e+00    0.4938694    0.2268115 -44.19  0.002139948    2.006    0.501
       200  -8.5385    250.4984    172.8561   6.0183558426e+01  -8.3191568261e-01    0.2170183    0.1049155 -40.77 0.0005689085    1.739    0.425
       201  -9.5960    191.5406    178.4414   7.2034916883e+01   7.5281553399e+00    0.3031163    0.2699877  81.27 0.0005928979    1.527    0.345
       202  -8.1147    169.5219    178.7501   7.6831236463e+01   1.1383328802e+01    0.1961078    0.1412601 -57.88 0.0009243192    1.605    0.377
       203  -8.9867     36.0149    176.8337   1.1062651054e+02   3.3038800336e+01    0.5307345    0.2341179  79.00  0.001843677    3.571    0.720
       204  -8.5407    217.6097    177.2907   6.6701788683e+01   3.3752445291e+00    0.2359906    0.1968844 -68.01  0.001018266    1.683    0.406
       205  -8.7230    205.0939    177.6307   6.9149971504e+01   5.3682629670e+00    0.2400179    0.1788765 -46.73 0.0005701305    1.376    0.273
       206  -8.6525    129.3963    177.4266   8.6119467228e+01   1.9000538721e+01    0.3270828    0.2246083  79.70 0.0008533421    2.315    0.568
       207  -8.1806    120.7849    178.4085   8.8486378154e+01   2.0303906793e+01    0.2113358    0.1458359  24.18 0.0007229451    1.624    0.384
       208  -8.4740    231.1394    176.8291   6.4179171485e+01   1.3383805784e+00    0.2343579    0.1541467 -44.30 0.0007327085    1.467    0.318
       209  -9.2369    183.1364    175.9660   7.3291490637e+01   9.5075357789e+00    0.3327068     0.227775 -51.76 0.0009462233    1.568    0.362
       210  -8.0611     97.6958    177.5691   9.4344172610e+01   2.4440082887e+01    0.2695848    0.1492054  28.85 0.0008613101    1.990    0.497
       211  -8.8425     89.0791    176.9305   9.6525823865e+01   2.5977855326e+01     0.309992    0.1947459  69.51 0.0008089068    2.128    0.530
       212  -9.9549     57.2545    173.1860   1.0452955604e+02   3.1475083068e+01    0.8698186    0.4054924  81.87   0.00259162    4.611    0.783
       213  -9.0395     12.5241    176.1784   1.1653772514e+02   3.5451926024e+01    0.3734502    0.1575774  75.28  0.001488324    2.915    0.657
       214  -8.7290    202.8567    184.5988   7.0984453177e+01   4.4233395668e+00    0.2618744    0.1773071 -55.59  0.000705568    1.845    0.458
       215  -9.2243    158.7509    175.0726   7.8539683025e+01   1.4147073055e+01    0.3687445    0.2767333  85.02 0.0008618116    2.093    0.522
       216  -9.5953    104.0905    174.7756   9.2160816177e+01   2.4069854153e+01    0.5617083    0.3383549  62.58  0.002241526    2.245    0.555
       217 -10.7003     75.8810    170.1395   9.8988454227e+01   2.9700382711e+01     1.340434    0.5155068 -73.98  0.003786196    4.468    0.776
       218  -9.6301     81.2899    155.5112   9.4937332543e+01   3.2649134479e+01    0.5829709    0.4788878 -48.47   0.00178465    1.210    0.174
       219  -8.3511    224.5161    173.8478   6.4755731617e+01   2.8966159130e+00    0.2681816    0.1165931 -37.36   0.00106949    2.045    0.511
       220  -9.4980    175.8292    172.1694   7.4085933042e+01   1.1616277506e+01    0.3627457    0.2279639 -46.94 0.0009816493    1.570    0.363
       221  -8.5533    142.9994    172.7514   8.1823275195e+01   1.7592599308e+01    0.2648088     0.200011 -67.93 0.0006121315    1.581    0.368
       222  -9.1009    134.6246    171.8687   8.3717913763e+01   1.9348750501e+01    0.2781572    0.2372981  84.62  0.001207794    1.406    0.289
       223  -9.4568    121.3760    170.4694   8.6817902337e+01   2.2101185148e+01    0.4122771     0.290141 -84.14  0.001029377    1.992    0.498
       224  -9.0141     45.0746    171.0625   1.0753742567e+02   3.3499837999e+01    0.3829505    0.2173109  84.69  0.001333782    2.083    0.520
       225  -8.3290    237.2717    169.5811   6.1696649201e+01   1.6686246786e+00    0.2447083    0.1346037 -45.60 0.0008006807    1.727    0.421
       226  -8.9288    230.3386    169.0983   6.2779694036e+01   2.8266831055e+00    0.4047515    0.1725839 -48.71  0.001643088    2.561    0.610
       227  -8.4862    205.8202    170.1622   6.7483814548e+01   6.6692614579e+00    0.2088538    0.1831518 -56.59 0.0006966722    1.329    0.248
       228  -8.1386    198.1865    169.9331   6.8937284878e+01   8.0413005901e+00     0.211846    0.1876344 -56.57 0.0006038435    1.295    0.228
       229  -8.5162    149.8315    169.5910   7.9520687508e+01   1.7032816849e+01    0.2907188     0.204878 -69.70 0.0007548829    1.876    0.467
       230  -7.5102     68.3135    170.6579   1.0114728082e+02   3.0647596134e+01    0.1554933    0.1055727  70.91 0.0007047062    1.704    0.413
       231  -8.4258    244.2068    169.1940   6.0478222306e+01   6.9451791533e-01    0.1724369    0.1364394 -47.07 0.0004415693    1.345    0.256
       232  -8.5531    218.8116    168.3304   6.4669029927e+01   4.8241913819e+00    0.2352388    0.1685521 -44.95 0.0006710103    1.349    0.258
       233  -9.1741    166.9273    168.4727   7.5295503509e+01   1.4057266781e+01    0.3294288     0.253972  74.81 0.0009574629    1.871    0.466
       234  -8.4335     88.4940    168.5022   9.5249367684e+01   2.8194693514e+01    0.2590001    0.1457264 -73.52  0.001015772    2.163    0.538
       235  -8.1206    211.4124    168.1994   6.6011958879e+01   6.0876646076e+00    0.2045126     0.121805 -50.42 0.0006569474    1.797    0.444
       236  -8.9092    111.5443    167.4421   8.8812351683e+01   2.4592953394e+01      0.38019    0.2800059  82.24  0.001528162    1.796    0.443
       237  -8.9651    191.8599    166.5407   6.9507649316e+01   9.8449828481e+00       0.3175    0.1999384 -50.95 0.0008615843    1.672    0.402
       238  -8.8142    184.9626    166.0644   7.0840571932e+01   1.1202097879e+01    0.3972914    0.1907101 -49.60 0.0007990619    2.165    0.538
       239  -9.9610     94.9786    162.3482   9.2344148932e+01   2.8705054683e+01    0.9845724    0.6120839 -89.46  0.003209926    2.517    0.603
       240  -9.1415     20.4869    165.6704   1.1350165442e+02   3.7389593520e+01    0.4915976    0.2304751  74.31  0.002010719    2.683    0.627
       241  -8.2996     13.2918    167.6410   1.1557931087e+02   3.7511842673e+01     0.139636   0.08311104  70.06 0.0007028801    1.693    0.409
       242  -9.7510    136.6835    164.3758   8.1669353512e+01   2.0720064012e+01    0.6207727    0.3212978  55.93   0.00218508    2.729    0.634
       243  -8.3867    233.9295    165.1504   6.1373350286e+01   2.9625185553e+00    0.1964741    0.1637174 -47.07  0.000496723    1.273    0.215
       244  -8.5893    159.5676    164.2229   7.6085806458e+01   1.6383972522e+01     0.281532    0.2395256  81.54 0.0007849491    1.496    0.331
       245  -9.4263     33.6681    163.4868   1.0969771125e+02   3.6685650266e+01    0.5584239    0.2122293  51.83  0.002061594    3.168    0.684
       246  -8.0112    239.9916    164.3111   6.0198354194e+01   2.1691357761e+00     0.177876    0.1573026 -22.30 0.0005498374    1.088    0.081
       247  -8.4827    212.9544    163.4565   6.4741215682e+01   6.7208283251e+00    0.2627637    0.1754431 -50.41 0.0006935393    1.567    0.362
       248  -8.4040    204.9172    162.6669   6.6096061355e+01   8.2722174314e+00     0.270247    0.1759933 -55.92  0.000618469    1.824    0.452
       249  -9.2217      3.3315    162.4090   1.1768597717e+02   3.9587261826e+01    0.3974954    0.1831067  54.56  0.001572747    2.294    0.564
       250  -8.0381    222.2184    161.9545   6.2748389262e+01   5.4341041947e+00    0.1859611   0.09963859 -40.75 0.0004117573    1.636    0.389
       251  -9.1707    177.3604    160.7984   7.1340138456e+01   1.3723042695e+01    0.3353395    0.2495928 -53.04 0.0008037575    1.409    0.290
       252  -9.0549    151.7133    161.1967   7.7295362125e+01   1.8574583522e+01    0.3198218    0.2374162 -68.25  0.000855733    1.667    0.400
       253  -8.9832     60.8069    160.4518   1.0166141824e+02   3.4299589939e+01    0.3835833    0.2136634  60.27  0.001187625    2.252    0.556
       254  -8.6523    242.2445    160.0075   5.8974614087e+01   2.5700263606e+00    0.3461471    0.2184055  11.67  0.001688158    2.361    0.576
       255  -9.8680    250.1674    157.8203   5.7298706299e+01   1.7428891850e+00    0.3320648    0.2012328 -38.02 0.0008101486    1.344    0.256
       256  -8.9702    246.7153    155.6761   5.7405355312e+01   2.6311681333e+00     0.328281    0.1762954 -25.84  0.001550541    2.022    0.506
       257  -8.6109    227.5117    159.3333   6.1284377028e+01   5.0366184363e+00    0.2795155    0.1967918 -63.04  0.001252632    1.976    0.494
       258  -8.6595    237.0231    158.8106   5.9580281252e+01   3.5946017836e+00    0.2452303    0.1514901 -48.92  0.001000162    1.624    0.384
       259  -8.5042    128.2060    159.0563   8.2719811947e+01   2.3587572401e+01    0.2979855    0.2009024  66.30 0.0008590659    2.061    0.515
       260  -9.6068    105.7244    157.7657   8.8479069647e+01   2.8023042018e+01     0.504133    0.3610177 -89.93  0.001109995    1.881    0.468
       261  -8.6008    196.2989    157.8147   6.6751085669e+01   1.0784283368e+01    0.2665028    0.2121407 -64.33  0.000924228    1.538    0.350
       262  -8.4104    188.0934    157.6752   6.8386856854e+01   1.2341142559e+01     0.257921    0.1912216 -51.29 0.0006087599    1.385    0.278
       263  -9.1136    167.6187    157.2375   7.2722459024e+01   1.6362647876e+01    0.3454238    0.2624981 -84.80 0.0007915377    1.958    0.489
       264  -8.4663    217.8685    156.5005   6.2390130007e+01   7.1846510332e+00    0.2819542    0.1624672 -52.82 0.0008242509    1.950    0.487
       265  -9.5899     49.9319    155.5778   1.0403399153e+02   3.6934153779e+01    0.4737281    0.2594336  60.89  0.001779409    2.300    0.565
       266  -9.2296    157.4920    155.9437   7.4774421162e+01   1.8631172961e+01    0.2851489    0.2410755 -86.07 0.0008647484    1.483    0.326
       267  -9.1704    119.4521    155.2267   8.4219110703e+01   2.6160705030e+01    0.4039162    0.2884407 -85.23  0.001287648    1.966    0.491
       268  -9.3928    243.1968    149.9394   5.6799768382e+01   4.1720070422e+00    0.3288905    0.2589423  85.74  0.001847221    2.022    0.505
       269  -9.7975    242.2571    138.1995   5.4551214802e+01   6.3757169264e+00     0.482089    0.2315436 -56.08  0.001948063    2.884    0.653
       270  -8.5169    237.4605    150.4535   5.7809789120e+01   5.0023963263e+00     0.284209    0.1959257  30.86  0.001557149    1.745    0.427
       271  -9.6022    233.6929    147.6913   5.7849336833e+01   6.1147539509e+00    0.3393384     0.209684 -47.52 0.0009961402    1.513    0.339
       272  -8.3181    239.6927    152.7140   5.7913495358e+01   4.2439393182e+00    0.1898243     0.107138 -45.31 0.0005134242    1.590    0.371
       273  -9.7120    240.2167    145.1948   5.6298144011e+01   5.4825748879e+00    0.2502654    0.1992572 -47.76  0.000534609    1.206    0.171
       274  -8.0281    204.6521    155.2590   6.4572420442e+01   9.7617480414e+00     0.201733    0.1225631 -35.57 0.0008188589    1.530    0.346
       275  -8.5010    144.3667    154.9483   7.7725865324e+01   2.1438894177e+01    0.2729208    0.2200148  71.88 0.0009444019    1.546    0.353
       276  -9.5266     67.9582    153.8789   9.8511691685e+01   3.5037331051e+01     0.461781    0.2929311  71.03  0.001552497    2.080    0.519
       277  -9.0307    246.0640    163.2475   5.9009763568e+01   1.4326684829e+00    0.2500539    0.1609913 -43.31 0.0006571235    1.388    0.279
       278  -8.3788    232.7249    154.1416   5.9337615910e+01   5.1174218471e+00    0.2128336    0.1501695 -51.17  0.000626354    1.469    0.319
       279  -9.6606    132.7511    152.9283   8.0219627708e+01   2.4182341224e+01     0.478788    0.3456303  70.52  0.001347319    1.891    0.471
       280  -9.1863    133.5785    148.2192   7.8957423233e+01   2.5140197032e+01    0.4235985    0.2316922 -39.86  0.001643094    1.928    0.481
       281 -10.4692    149.0763    144.9108   7.4302022053e+01   2.2809568118e+01    0.7229007    0.4785975 -79.71  0.001571799    2.630    0.620
       282  -8.7745    150.9934    135.8467   7.1705524819e+01   2.4472655569e+01    0.3959845    0.2510521   5.75  0.001341362    3.205    0.688
       283  -8.6802    176.0000    151.4592   6.9582575473e+01   1.5966748963e+01    0.4270688    0.1038983 -47.48  0.001137944    4.221    0.763
       284  -8.3275    175.3235    146.3755   6.8584451658e+01   1.7183222173e+01    0.2659956     0.187825 -52.51  0.000571823    1.447    0.309
       285  -9.6666     29.6424    150.9659   1.0925934184e+02   4.0312748562e+01    0.4620447    0.2335909  69.19  0.001868178    2.682    0.627
       286  -9.6871    248.8280    149.4154   5.5832529139e+01   3.3804305476e+00    0.3458905    0.1763187 -38.99 0.0007834803    1.602    0.376
       287  -8.9383    189.3331    150.0867   6.6467693018e+01   1.3660284658e+01    0.3575053    0.2376915 -60.00  0.001206734    1.842    0.457
       288  -8.3216    182.2664    151.2267   6.8187847641e+01   1.4791160593e+01    0.2044669    0.1719098 -65.97 0.0006099469    1.378    0.274
       289  -8.8561     98.2497    150.5385   8.9101789322e+01   3.1147775106e+01    0.3195551    0.2401842 -79.00 0.0009188016    1.548    0.354
       290  -8.1128    212.7605    149.9308   6.1918914563e+01   9.3268584693e+00    0.1999552    0.1653311 -37.22 0.0004304343    1.072    0.068
       291  -8.1533    162.2693    150.2599   7.2390663182e+01   1.8949099564e+01    0.2093231    0.1802336 -74.94 0.0007795086    1.364    0.267
       292  -9.8144     39.7606    147.8341   1.0586261033e+02   4.0102936811e+01    0.5717905    0.2887614  66.68  0.002106635    2.936    0.659
       293  -8.3602    198.7700    149.0392   6.4356242899e+01   1.2075517933e+01    0.2229839    0.1832469 -58.28 0.0006180301    1.333    0.250
       294 -10.0089     89.3418    146.4231   9.0829711289e+01   3.3700358179e+01    0.7252471    0.4212463 -88.36  0.002412573    3.327    0.699
       295  -8.3774    120.1678    147.4390   8.2335637292e+01   2.7929732340e+01    0.3189572    0.2370174  85.53 0.0008955156    1.870    0.465
       296 -10.4189     54.8495    144.6670   1.0082691715e+02   3.9181067491e+01    0.8556545    0.4659651  76.60   0.00277328    3.121    0.680
       297  -8.2402    223.4678    147.0041   5.9408529851e+01   7.9824101193e+00    0.2105907    0.1206283 -40.89  0.000393358    1.513    0.339
       298 -10.0020    139.0267    144.8083   7.6782734194e+01   2.4861173958e+01     0.555108    0.3341489 -65.93  0.001364938    2.274    0.560
       299  -8.9514    139.9937    136.9875   7.4705138180e+01   2.6486539370e+01    0.3164825    0.2088674 -21.97    0.0012502    2.096    0.523
       300 -10.3699    106.7339    143.9418   8.5285614939e+01   3.1302006488e+01    0.8486711    0.5803959 -75.69   0.00201961    1.882    0.469
       301  -9.2370     77.9117    146.6616   9.4251157294e+01   3.5455137465e+01    0.3071458    0.1994157 -81.80 0.0008726162    1.934    0.483
       302  -9.8660     13.4902    146.1774   1.1332893245e+02   4.2929554596e+01    0.4295588     0.238495  75.82  0.001614744    2.031    0.508
       303  -7.8907    206.5570    146.4831   6.2314352954e+01   1.1123406983e+01    0.1446599    0.1287176 -36.75 0.0002720772    1.026    0.026
       304  -9.8180    125.1297    142.7479   7.9939097689e+01   2.8108874176e+01    0.5810611    0.3927877 -88.64  0.001589705    2.495    0.599
       305  -9.2350    247.0988    143.7675   5.4957520654e+01   4.6231470249e+00    0.2912488    0.1749469 -30.30 0.0005403379    1.547    0.354
       306  -8.3647    250.4679    140.9729   5.3897681111e+01   4.5699026381e+00    0.2125862    0.1384029 -50.06  0.000917292    1.468    0.319
       307  -8.6679    165.6736    144.0959   7.0204988930e+01   1.9618869496e+01    0.2461481    0.2159308  67.56 0.0006573059    1.309    0.236
       308  -7.6794    194.3136    143.7108   6.4048252128e+01   1.3994280511e+01    0.1422268    0.1160694 -78.20 0.0002664064    1.587    0.370
       309 -10.9049     69.3394    139.0937   9.5370315643e+01   3.8686163620e+01      0.99663    0.5038155 -63.47  0.003035023    1.945    0.486
       310  -9.3792      2.6690    141.7806   1.1595225430e+02   4.4799479314e+01    0.3964197    0.1930066  75.87   0.00148076    2.398    0.583
       311  -8.5196    182.1278    141.7306   6.6074945112e+01   1.6801842212e+01    0.2593976    0.1957871 -55.04 0.0005906321    1.381    0.276
       312  -8.9803    242.7008    143.3217   5.5532051863e+01   5.4068773634e+00    0.2058144    0.1637222 -45.96 0.0007571207    1.165    0.141
       313  -9.9767     23.5153    138.4049   1.0940760949e+02   4.4111512908e+01    0.5502715    0.2732365  63.99  0.002122241    2.776    0.640
       314  -8.6753    172.2181    138.4883   6.7445100668e+01   1.9495503749e+01     0.309611      0.22233 -67.25 0.0008169091    1.770    0.435
       315  -7.4449    218.5477    138.5179   5.8436390022e+01   1.0439892692e+01     0.141745    0.1231535 -41.56 0.0001000727    1.045    0.043
       316  -8.5579    207.2274    137.7750   6.0275711304e+01   1.2688117111e+01    0.2604655    0.2062573 -64.38 0.0008672937    1.459    0.315
       317  -8.8236    197.5033    137.5526   6.2043461968e+01   1.4606851228e+01    0.2828743    0.2197187 -56.08 0.0008342332    1.342    0.255
       318 -10.5829     83.3783    133.3112   8.9846058796e+01   3.8026511521e+01    0.7200885    0.4501311 -62.02  0.001818674    1.614    0.380
       319  -9.3782     39.0576    136.2421   1.0429100112e+02   4.3193216256e+01    0.3033659    0.2048353  81.70 0.0009227528    1.732    0.423
       320  -9.0620    250.6573    130.7179   5.1803603671e+01   6.2913236986e+00    0.4578459    0.1022714 -39.65  0.001493352    3.708    0.730
       321  -9.2250    248.3348    135.2174   5.3045545716e+01   5.8980017337e+00    0.2956135     0.185546 -46.08 0.0007036469    1.373    0.272
       322  -8.5519    246.8968    130.1893   5.2228874020e+01   6.9989874067e+00    0.2588386    0.1507642 -49.78  0.000613973    1.587    0.370
       323  -8.0936    188.2000    135.9734   6.3509188996e+01   1.6770947141e+01    0.2064193    0.1110039 -42.93  0.000421842    1.720    0.419
       324  -8.1476    162.7235    136.5674   6.9117496995e+01   2.1871772087e+01    0.2045413    0.1503681  57.25 0.0005527528    1.548    0.354
       325  -8.8104    179.4908    133.9920   6.4835449450e+01   1.8951073738e+01    0.3062861    0.2330614 -65.87 0.0007773254    1.552    0.356
       326  -8.2471    237.5995    133.7509   5.4337326952e+01   7.9420334502e+00    0.1944356    0.1076777 -47.65 0.0009382644    1.631    0.387
       327  -8.7977    242.8642    154.8665   5.7845455298e+01   3.3666729981e+00    0.2508286    0.2073909 -70.92    0.0004176    1.650    0.394
       328  -8.8708    112.7642    133.1788   8.1114046056e+01   3.2830377334e+01    0.3467106    0.2666792  80.09 0.0009720479    1.718    0.418
       329 -10.1447    132.1485    130.9557   7.5276813390e+01   2.9500710930e+01    0.6598648    0.3889747 -62.85  0.001802191    2.166    0.538
       330 -10.3954     98.1105    130.2240   8.4679370718e+01   3.6284208515e+01    0.7655658    0.3517969 -54.92   0.00180176    2.157    0.536
       331  -8.8302    100.3378    120.0004   8.1531386374e+01   3.8384505655e+01     0.590049    0.3184853  11.61  0.001572041    5.179    0.807
       332  -9.1749    143.0729    131.5140   7.2607944118e+01   2.7106949809e+01    0.3481146    0.2427415 -69.54 0.0007870702    1.872    0.466
       333 -10.4658     60.0823    125.3112   9.5529350076e+01   4.3523252567e+01    0.8702664    0.4994074  85.66   0.00305361    3.324    0.699
       334 -10.0306     12.8000    128.8727   1.1143692666e+02   4.7388481037e+01    0.6145585    0.3022099  86.88  0.002562867    2.498    0.600
       335  -7.8389    220.7524    129.9967   5.6213888347e+01   1.1622866136e+01    0.1823613     0.105995 -40.79  0.000497916    1.496    0.331
       336  -8.5882    211.5351    129.4851   5.7665920421e+01   1.3455755054e+01    0.2605298    0.1181915 -49.94 0.0007426412    2.239    0.553
       337  -8.1366    204.4888    130.2986   5.9100919280e+01   1.4664571500e+01    0.1998864    0.1269364 -51.06 0.0007280512    1.546    0.353
       338  -9.2593    168.0103    129.4890   6.6235589912e+01   2.2294781960e+01    0.3519122    0.2749922  66.45 0.0009844562    1.523    0.343
       339  -9.4317    152.8820    128.7577   6.9533645806e+01   2.5659644375e+01    0.4390385    0.2930126 -59.81  0.001031244    1.711    0.415
       340  -7.9845      1.6633    130.2995   1.1503032635e+02   4.7746217977e+01    0.1302072   0.08586963  66.86 0.0007034256    1.658    0.397
       341 -10.7696     44.7642    123.4484   1.0020951860e+02   4.5880315484e+01     1.122138    0.5978127  76.49  0.003798559    3.854    0.741
       342  -9.7907    117.9114    125.1188   7.7700836935e+01   3.3762646602e+01    0.5724161    0.3987888  84.66  0.001366019    2.330    0.571
       343  -7.9562    228.5043    125.5048   5.3995380999e+01   1.1021183004e+01    0.1389644    0.1183519 -44.21 -5.651463e-05    1.026    0.026
       344  -8.9710    179.2349    124.6666   6.2676813240e+01   2.0935693750e+01    0.2918146    0.2338643 -80.54  0.000701079    1.553    0.356
       345 -10.2528     28.5857    122.5163   1.0541211150e+02   4.7748276715e+01    0.7433782    0.3852868  73.49  0.002792136    3.282    0.695
       346  -7.5812    244.0000    124.0414   5.1378844674e+01   8.5469621021e+00    0.2179529   0.06366512 -40.32 0.0005173762    2.822    0.646
       347  -7.9560    188.5981    123.8500   6.0602989102e+01   1.9142023909e+01    0.2180109    0.1303218 -51.93 0.0006558696    1.695    0.410
       348 -10.4481    131.7643    119.5790   7.2524779640e+01   3.2203626415e+01    0.8607555    0.5321759 -85.31  0.002513902    4.014    0.751
       349 -10.3280    133.4384    109.2964   6.9385827308e+01   3.4138926853e+01    0.7409273    0.3601971 -44.67  0.002465868    2.015    0.504
       350  -8.9444     84.9968    122.7015   8.6925932562e+01   4.0432964209e+01    0.5188441    0.3026261   6.51  0.001765806    3.289    0.696
       351  -9.1475    158.6824    121.6606   6.6416766223e+01   2.5966078075e+01    0.3711037    0.2741708 -74.60  0.001041954    1.780    0.438
       352  -8.0722    203.0110    121.9829   5.7473378076e+01   1.6562628951e+01    0.2265678    0.1701906 -73.70 0.0005092666    1.678    0.404
       353  -8.1384    194.9258    121.9466   5.8945030413e+01   1.8212534661e+01    0.2285035    0.1720954 -70.96 0.0005342862    1.624    0.384
       354  -8.4732    171.9488    121.5382   6.3447193772e+01   2.3132280731e+01    0.2701196    0.2040798 -59.77 0.0004255188    1.421    0.296
       355 -10.2160     66.3484    109.5218   8.9878319733e+01   4.6613933581e+01    0.7600304    0.3541356 -55.15    0.0025607    1.997    0.499
       356  -9.5729     71.0140    119.8726   9.0760274171e+01   4.3357103986e+01    0.4137872    0.2793636 -80.09  0.001188219    1.941    0.485
       357  -9.0304     68.6340    115.0869   9.0436847213e+01   4.4906008621e+01    0.2480529    0.2177814  29.81  0.000570994    1.216    0.178
       358 -10.0298    141.5735    118.4500   6.9711221198e+01   3.0365504278e+01    0.4963311    0.3099664 -62.78  0.001045493    2.038    0.509
       359  -9.7520      3.0938    117.4499   1.1304533636e+02   5.0876923887e+01    0.4900146    0.2509534  68.53  0.002153836    2.636    0.621
       360  -7.6732    231.4782    117.5270   5.1828631976e+01   1.1904249298e+01    0.1379085    0.1158802 -48.31 0.0003682273    1.046    0.044
       361  -9.9968    109.3562    114.1650   7.7349454904e+01   3.8042909799e+01    0.6041058      0.38353 -72.88  0.001466062    2.449    0.592
       362  -7.9785    219.3171    116.6678   5.3515999526e+01   1.4345943388e+01    0.1436694    0.1017522 -67.25 0.0005684456    1.689    0.408
       363  -8.1225    185.6019    115.7861   5.9261628663e+01   2.1378643561e+01    0.2126347    0.1318386 -50.65 0.0004966556    1.582    0.368
       364  -9.8183     73.2447    129.1434   9.2102710933e+01   4.0673869564e+01    0.4940592    0.3147218 -80.85  0.001352215    2.120    0.528
       365  -9.3002    250.2084    115.1630   4.8705599809e+01   9.0031582822e+00     0.206305    0.1657428 -49.42 0.0006086946    1.075    0.070
       366 -10.9352    248.5618    107.3800   4.7329538976e+01   1.0590701248e+01    0.5872478    0.2488997 -47.43  0.002657299    2.016    0.504
       367  -8.2643    192.9895    115.2812   5.7735470847e+01   1.9916150858e+01     0.198283    0.1864096 -59.47 0.0003875024    1.048    0.046
       368  -7.7013    153.2760    115.6569   6.6153159472e+01   2.8430129807e+01    0.1579908    0.1220796 -76.05 0.0004125584    1.623    0.384
       369 -10.1829     92.6824    112.4185   8.1954643921e+01   4.1608743760e+01    0.5758837     0.387951 -72.09  0.001283839    1.984    0.496
       370  -8.9105     93.4826    104.6727   7.9645176072e+01   4.3285148816e+01    0.5655417    0.3139158  15.98  0.001898824    3.263    0.694
       371  -9.9976     78.9335    112.5358   8.6402725153e+01   4.3938317144e+01    0.5770438    0.3937665 -84.77  0.001807656    2.233    0.552
       372  -8.7075     78.3291    105.3808   8.4772362506e+01   4.5760054864e+01    0.3918813    0.2685777   2.36  0.001228338    2.014    0.503
       373  -8.0321    167.4053    114.2690   6.2618741709e+01   2.5622804575e+01    0.2127357    0.1397646 -51.79 0.0004159707    1.530    0.347
       374  -8.9236     26.8905    113.6758   1.0446825053e+02   5.0138650084e+01    0.2076714    0.1589614 -25.11 0.0006949516    1.427    0.299
       375  -9.7660    249.7666    102.2093   4.6119010850e+01   1.1236960734e+01    0.4130674    0.1595717 -41.61  0.001822493    2.083    0.520
       376  -9.7602    121.9325    112.5752   7.3347914181e+01   3.5855506298e+01    0.3389431    0.2736232  82.91 0.0007274651    1.581    0.367
       377 -10.0786     14.1284    111.0727   1.0843585473e+02   5.1779249656e+01     0.463784    0.2643419  77.11  0.002118241    2.411    0.585
       378  -8.2552    174.8650    112.0643   6.0495860725e+01   2.4439062691e+01    0.2398993    0.1949555 -68.04 0.0005987394    1.349    0.259
       379  -8.8899    159.1470    111.7229   6.3793008046e+01   2.7968671070e+01    0.2662643    0.2005251 -54.36 0.0004438188    1.347    0.258
       380  -7.8341    182.8394    109.5921   5.8290598449e+01   2.3192908478e+01     0.195288    0.1435887  68.57 0.0005097687    1.595    0.373
       381  -7.9184     44.6674    109.2975   9.7383199588e+01   4.9469290553e+01    0.1400154     0.107685  69.51  0.000552249    1.645    0.392
       382  -8.3882     41.6468    109.6914   9.8533843283e+01   4.9704646536e+01    0.2163907    0.1200202 -12.89 0.0008480301    2.839    0.648
       383  -8.1758    189.0995    108.0355   5.6720142163e+01   2.2142698383e+01    0.2333883    0.1698396 -69.09 0.0005992654    1.629    0.386
       384 -10.3456    119.2089    105.6455   7.2234355313e+01   3.7977450875e+01    0.4197947    0.3139283  19.14   0.00189013    1.644    0.392
       385  -9.5395    115.8092    102.6190   7.2357407208e+01   3.9355184568e+01    0.3173167    0.2461963  48.78  0.001510992    1.334    0.251
       386 -10.2292    108.7583     98.6534   7.3286119824e+01   4.1676101266e+01    0.5840447    0.4127189  78.51  0.001305496    2.254    0.556
       387  -9.2060    107.4435     92.7026   7.1959412266e+01   4.3227342874e+01    0.6917956    0.3544596  25.54  0.002302384    3.188    0.686
       388  -9.5534    139.9236    104.4258   6.6422701046e+01   3.3764831792e+01    0.4701238    0.3165133 -57.69  0.001473598    1.656    0.396
       389 -10.6594     22.9709    102.5780   1.0381772643e+02   5.3224463692e+01    0.7882566    0.4533238  71.29   0.00279518    2.831    0.647
       390  -8.7473    183.7537    102.9979   5.6488588877e+01   2.4269678991e+01    0.2630332    0.1790404 -88.55  0.001120452    2.171    0.539
       391  -8.5586    166.8605    104.4376   6.0233142444e+01   2.7737687258e+01    0.2930661    0.1974235 -57.28 0.0007001302    1.604    0.376
       392 -10.4864     45.4612    102.1096   9.5495526324e+01   5.1148537283e+01    0.7630824    0.4602725  73.40  0.002966334    3.180    0.686
       393  -9.2804     46.0480     92.7430   9.3014076974e+01   5.3322284775e+01    0.5058498    0.2792841  -0.33   0.00204004    2.792    0.642
       394  -9.4785    150.4073    102.9132   6.3487894392e+01   3.1740250577e+01    0.3966357    0.2590005 -56.03 0.0009939702    1.673    0.402
       395  -9.8891    128.5689    102.2455   6.8744963797e+01   3.6720470865e+01    0.3603954    0.2945485  89.79  0.000808335    1.535    0.348
       396  -9.2625      6.6430    102.8716   1.0976121454e+02   5.4273400002e+01    0.2931638    0.1927861  57.79  0.001548958    1.922    0.480
       397  -7.9891    175.4358    102.1992   5.7902216758e+01   2.6263069489e+01    0.2131526    0.1338234 -52.38 0.0005135601    1.612    0.380
       398  -8.4518    159.8136    101.0731   6.0872944782e+01   2.9993181721e+01    0.2392836    0.1978885 -69.03 0.0005375084    1.317    0.241
       399  -9.2554     82.1009     99.8385   8.2022029610e+01   4.6426989779e+01    0.4056442    0.2577911 -65.34  0.000832372    1.982    0.495
       400 -10.2265     64.0535     95.7876   8.7169794573e+01   5.0233560768e+01     0.631541    0.4225161  87.39  0.001895459    2.800    0.643
       401  -9.1704     94.9355     96.9951   7.7044419725e+01   4.4757982737e+01    0.3240049    0.2154244 -55.46 0.0005825065    1.609    0.379
       402  -8.5266    150.8770     95.8147   6.1464534068e+01   3.3066444629e+01    0.3722548    0.2166057 -15.43  0.001200266    3.612    0.723
       403 -10.7593    246.8702     91.2787   4.4232980646e+01   1.3537030509e+01    0.4945549    0.2222885 -44.65  0.002364416    1.801    0.445
       404  -8.1882    164.8499     94.1930   5.7983166436e+01   3.0194891143e+01    0.2297726    0.1976467 -68.93 0.0005160564    1.206    0.171
       405  -7.7511    188.7053     93.3578   5.3197027058e+01   2.4978317391e+01     0.153929    0.1066422 -68.44 0.0007031935    1.697    0.411
       406  -8.4342    176.1678     92.7856   5.5358937124e+01   2.7888342175e+01    0.2651608    0.1862328 -53.11 0.0007389532    1.410    0.291
       407  -9.3349    120.6717     93.3081   6.8351982968e+01   4.0316266316e+01    0.2534328    0.2244706  81.26 0.0008668413    1.295    0.228
       408 -10.3532    124.5773     90.8643   6.6584540755e+01   3.9968276352e+01    0.7314294    0.4620454 -37.22  0.001929934    1.625    0.385
       409  -9.1677     22.8046     90.3019   1.0138721076e+02   5.6199717566e+01    0.4481324    0.2774772 -30.29   0.00173735    1.639    0.390
       410  -9.5678      4.8631     92.1906   1.0865334130e+02   5.6948132858e+01    0.3012844    0.2121114  55.16  0.001343789    1.823    0.451
       411  -7.9546    157.8381     91.8148   5.8832716832e+01   3.2254992699e+01    0.2079003    0.1739504 -71.67 0.0004726846    1.296    0.229
       412  -9.8543     34.8478     89.7943   9.6581229658e+01   5.5234185362e+01    0.4674909    0.2877311 -83.27  0.001835611    2.460    0.593
       413  -9.7276    138.9628     91.8931   6.3196078739e+01   3.6551048001e+01    0.4920923    0.2909164 -49.69  0.001423156    1.757    0.431
       414 -10.0335     86.3879     86.5889   7.6769128094e+01   4.8616655535e+01    0.5540328    0.5018395 -35.97  0.001190701    1.075    0.070
       415  -9.1405     86.3545     81.3143   7.5165359019e+01   4.9730258712e+01    0.7968058    0.3185613  25.66  0.001957219    6.238    0.840
       416  -9.3339     66.1715     87.1484   8.3993284090e+01   5.1885991680e+01    0.6383688    0.2731528  19.87  0.001982068    4.178    0.761
       417  -9.8702     48.4469     83.5538   8.9654866113e+01   5.5145189786e+01    0.6694668    0.4342081 -70.80  0.002451637    2.051    0.513
       418  -7.4726    179.2843     85.6470   5.2946281655e+01   2.8483440619e+01    0.1534028    0.1073518 -68.48 0.0005201216    1.662    0.398
       419  -8.4525    157.9944     83.8290   5.6627412919e+01   3.3716276947e+01    0.2583655    0.2072607 -46.49 0.0004059648    1.225    0.183
       420  -9.0717    140.9403     82.7097   6.0105337375e+01   3.7873033393e+01     0.409601    0.2066617 -47.46  0.001144098    2.063    0.515
       421  -9.3721    106.0135     71.7435   6.5947679674e+01   4.7693517693e+01    0.3593303    0.2042735 -53.53 0.0006277769    2.181    0.542
       422  -9.7079    104.6627     83.0215   6.9889534318e+01   4.5800358915e+01    0.4612759    0.3043422 -60.24  0.001016376    1.934    0.483
       423  -9.1468    106.1432     76.6613   6.7472579884e+01   4.6741544641e+01    0.4592941    0.2130733  32.13  0.001582576    2.947    0.661
       424  -8.4087     64.0226     82.7294   8.3485895898e+01   5.3184155413e+01    0.2453148    0.1808551 -62.99 0.0005690819    1.602    0.376
       425  -8.7590    249.9766     81.9521   4.1970363709e+01   1.4453065930e+01    0.2439903   0.09728573 -54.39   0.00102432    2.591    0.614
       426  -8.3028    150.9849     88.7604   5.9504852230e+01   3.4414746122e+01    0.2780776    0.1854724 -54.89 0.0006406135    1.613    0.380
       427  -9.6343     24.6459     80.5472   9.8409704186e+01   5.8315626487e+01    0.4209008    0.2757218  88.66  0.001397502    2.421    0.587
       428  -9.4251      9.8802     81.0876   1.0457352300e+02   5.9264657546e+01    0.3355273    0.2055028  58.37  0.001255923    2.474    0.596
       429  -8.5006    150.0504     80.5593   5.7422458056e+01   3.6160397503e+01    0.2886101      0.19875 -56.32 0.0007276616    1.583    0.368
       430  -8.7549    119.3607     80.3311   6.4865035256e+01   4.3195456843e+01    0.3440323     0.247933 -59.92  0.001093646    1.656    0.396
       431  -8.9865     74.6416     80.3157   7.8892834305e+01   5.2006583506e+01    0.3505795    0.2384682 -64.49  0.001009013    1.969    0.492
       432  -8.2485    166.8057     79.5425   5.3688905291e+01   3.2438566311e+01    0.2352341    0.1641446 -45.43 0.0005028637    1.395    0.283
       433  -8.7451    184.0033     78.2552   5.0230628160e+01   2.8700195340e+01    0.1990543    0.1805496 -62.66 0.0005447838    1.024    0.024
       434  -9.2745    128.1591     75.3862   6.1060506253e+01   4.2151695109e+01    0.3677281    0.2356455 -55.94 0.0008306739    1.848    0.459
       435  -7.8440    157.0198     76.4965   5.4807384032e+01   3.5258336774e+01    0.1967711    0.1281466  86.95  0.000582194    2.239    0.553
       436  -8.5868    140.4041     75.2922   5.8078594604e+01   3.9353157512e+01    0.2562812    0.1782565 -49.29  0.000800064    1.492    0.330
       437  -9.9976     63.2351     73.5233   8.0945749682e+01   5.5254063439e+01    0.4783612    0.2910061 -58.24  0.001049726    2.004    0.501
       438  -8.4761    163.3673     73.1290   5.2617729631e+01   3.4351510852e+01    0.3004633    0.1631022 -46.37  0.001287903    1.836    0.455
       439  -9.5985     82.3731     72.6325   7.3744126750e+01   5.2207708454e+01    0.3871612    0.2747989 -64.01  0.001067706    1.951    0.487
       440  -8.8858    115.7047     72.2397   6.3361849703e+01   4.5510567651e+01    0.4248137    0.1887609 -41.68  0.001432539    2.290    0.563
       441  -8.2396     42.5095     72.5618   8.8863264374e+01   5.8273898099e+01    0.2261883    0.1294247 -63.79 0.0007355071    2.203    0.546
       442  -7.8901    175.4980     72.5289   5.0224738255e+01   3.1621008648e+01    0.1434494    0.1332771 -75.90 1.253453e-05    1.002    0.002
       443  -9.5348     94.9871     69.9492   6.8714809451e+01   5.0298980108e+01    0.7313359    0.2713922 -44.33  0.002605579    2.793    0.642
       444  -9.3768     97.6568     60.5967   6.4756144823e+01   5.1421973176e+01    0.3352132    0.2984104 -61.71  0.001265529    1.335    0.251
       445  -9.5731     51.4261     69.7432   8.4358146277e+01   5.7735832199e+01    0.4139719     0.268279 -65.86  0.001480188    2.187    0.543
       446  -9.2223     28.8078     70.5232   9.4036880723e+01   6.0170582019e+01    0.2921275    0.1565067 -29.45  0.001053786    1.933    0.483
       447  -9.0131     16.6030     70.0235   9.9182965727e+01   6.1305081415e+01    0.2957323    0.2060343 -80.00  0.001163953    1.875    0.467
       448  -8.6195    147.1747     68.1138   5.4485302419e+01   3.9008928041e+01    0.2933432    0.2225892 -58.71 0.0006128197    1.424    0.298
       449  -8.6412    138.6789     66.0871   5.5747831682e+01   4.1342707682e+01     0.251847    0.2011513 -85.76  0.000582216    1.484    0.326
       450  -8.8695    121.5430     65.7274   5.9760758363e+01   4.5354104252e+01    0.2759326    0.2331782 -67.62 0.0006822831    1.372    0.271
       451  -8.9448     64.5489     63.2309   7.7035328693e+01   5.7084412089e+01    0.4729637    0.2731629   8.00  0.001915328    2.725    0.633
       452  -8.7917     37.3080     64.1178   8.8463342809e+01   6.0639733497e+01    0.2935728    0.2169577 -86.00  0.001026105    2.372    0.578
       453  -9.0190    110.1756     63.6544   6.2134550529e+01   4.8235317646e+01    0.2823535    0.2172186 -66.13 0.0007507125    1.684    0.406
       454  -8.4381     84.9914     64.4853   7.0134030584e+01   5.3257332141e+01    0.3632685    0.1200512  33.62  0.001035795    4.491    0.777
       455  -7.8886    158.3496     62.0915   5.0522408520e+01   3.7344724614e+01     0.200278    0.1223323 -48.82  0.000393209    1.681    0.405
       456  -9.5714     73.3680     59.6074   7.2489429498e+01   5.6268605763e+01    0.3712776    0.2387623 -50.63  0.001108753    1.821    0.451
       457  -8.2021    147.1286     59.1668   5.1886646660e+01   4.0464969050e+01    0.1976784    0.1616974 -66.29 0.0004926776    1.313    0.238
       458  -8.5056     88.7290     59.2101   6.7081655837e+01   5.3465534438e+01    0.2115246     0.177056 -53.35 0.0006528547    1.407    0.289
       459  -9.9212     23.4936     56.6318   9.2281669946e+01   6.3562936012e+01     0.423709    0.3122891  86.67  0.002234803    2.500    0.600
       460  -9.5658      7.6050     57.4243   9.9947711802e+01   6.4606199677e+01    0.2857911    0.2230635  86.75  0.001050818    1.873    0.466
       461  -8.2093    130.7059     57.5688   5.4965176074e+01   4.4580342774e+01    0.2366773    0.1663907 -58.85 0.0005636058    1.694    0.410
       462  -8.9305    248.9838     56.2447   3.6909846509e+01   1.8475477698e+01    0.1479499   0.09756067  74.95 0.0008343583    1.626    0.385
       463  -8.5626    139.9125     56.1343   5.2485767308e+01   4.2640773385e+01    0.2189375    0.1854069 -75.09  0.000538443    1.290    0.225
       464  -9.4203    119.2088     55.4164   5.7049047320e+01   4.7563789040e+01    0.3734059    0.2304794 -49.99  0.001318157    1.876    0.467
       465  -8.7533     44.0156     55.5328   8.2698545346e+01   6.1520478025e+01    0.2292958    0.1810601 -56.43 0.0006963704    1.554    0.357
       466  -9.0561     62.8623     54.6294   7.4638557251e+01   5.8933363191e+01    0.2749584    0.1897518 -46.42 0.0006162241    1.582    0.368
       467  -8.9455     54.1482     53.9067   7.7850394542e+01   6.0415340060e+01    0.3563168    0.2098758 -57.93  0.001265259    2.521    0.603
       468  -8.6685    105.7400     53.2965   5.9907494774e+01   5.0893715639e+01    0.2767056    0.2241472 -79.37 0.0007264268    1.667    0.400
       469  -9.4766     92.4418     50.6694   6.2889508974e+01   5.4117630036e+01    0.3563527    0.2392547 -46.91  0.001027822    1.721    0.419
       470  -8.5953     75.9992     50.9814   6.8431643778e+01   5.7275387151e+01    0.3347354    0.1621785  29.97  0.001367869    2.418    0.586
       471  -8.3537    129.9388     49.4837   5.2602797276e+01   4.5975504865e+01    0.2124364     0.188819 -37.85 0.0004702471    1.194    0.163
       472  -8.0436    144.6269     49.2328   4.9452390081e+01   4.2541200694e+01    0.1828572     0.136354 -19.11 0.0004701682    1.617    0.381
       473  -8.5192    120.9694     47.4848   5.4026429590e+01   4.8344700606e+01    0.2025426    0.1879114 -30.77 0.0004926724    1.150    0.131
       474  -8.5004    112.1558     46.7703   5.5967135034e+01   5.0451128289e+01    0.2332242    0.1846692 -48.53 0.0006388268    1.418    0.295
       475  -8.7402     82.1447     46.5190   6.4670707663e+01   5.6818226991e+01    0.2495512    0.2066055 -65.13 0.0006413138    1.685    0.406
       476  -8.4987     45.0224     44.5861   7.8221924488e+01   6.3355875128e+01    0.2215483     0.174046 -51.15 0.0005823832    1.596    0.373
       477  -9.0058     16.5640     44.5873   9.1660968466e+01   6.6515613832e+01    0.2453983    0.1812993 -66.41  0.001057093    1.835    0.455
       478  -8.8231     92.6390     42.9336   6.0027898829e+01   5.5232993186e+01    0.3241979    0.2092002  -2.14  0.001508124    2.134    0.531
       479  -8.0099    132.7694     43.5209   5.0112982221e+01   4.6145684411e+01    0.1893856    0.1291744  73.10 0.0004667258    1.576    0.366
       480  -9.3150     69.4984     41.4477   6.7136724667e+01   5.9956338924e+01    0.3505019     0.233561 -49.93  0.001209831    1.969    0.492
       481  -8.9393     58.1702     42.2815   7.1799985396e+01   6.1763942797e+01    0.3394341     0.201887 -55.48  0.001540465    2.751    0.637
       482  -9.6047      5.1668     41.8634   9.6562705977e+01   6.7871884098e+01    0.3182033     0.200354 -69.91  0.001476476    2.167    0.539
       483  -8.6412    105.9740     41.4548   5.5741965455e+01   5.2573131736e+01    0.2439516    0.1866679 -50.24 0.0005996424    1.535    0.349
       484  -8.0395    140.3616     41.2392   4.7878428397e+01   4.4653028949e+01    0.1855583    0.1222042 -44.97 0.0004894208    1.613    0.380
       485  -8.6114    120.0003     40.7177   5.2021877406e+01   4.9500891494e+01    0.2207883     0.195623 -25.98 0.0003027019    1.224    0.183
       486  -8.6405     36.9036     40.7216   8.0373936859e+01   6.5081542425e+01    0.2255604    0.1721173 -43.12 0.0006614025    1.428    0.300
       487  -8.4170    224.9425     39.1560   3.5693143313e+01   2.5583233898e+01    0.1870125    0.1358349 -70.80 0.0003982938    1.191    0.160
       488  -8.6411     95.3403     37.8709   5.7376302964e+01   5.5363742870e+01    0.2407752    0.1977102 -61.17 0.0008602875    1.579    0.367
       489  -8.3242     80.8461     36.5702   6.1310283800e+01   5.8513475345e+01    0.2452303     0.165957 -47.85 0.0006613214    1.877    0.467
       490  -7.4327    133.2998     36.2967   4.7736869322e+01   4.6962192430e+01    0.1365141   0.09867031  33.08 0.0003906793    1.574    0.365
       491  -8.4929    125.9390     35.5042   4.8994942612e+01   4.8791450196e+01    0.1924079    0.1827697 -32.39 0.0003393374    1.154    0.133
       492  -9.3601     26.1543     35.4221   8.3439374650e+01   6.7235584141e+01    0.2553667    0.2009352 -49.46 0.0009142315    1.564    0.360
       493  -8.6909    111.8562     34.5603   5.1855856243e+01   5.2154437570e+01    0.2543443    0.1639097 -49.14 0.0006442267    1.868    0.465
       494  -8.5773    119.2661     33.1766   4.9673794342e+01   5.0628356637e+01    0.2698855    0.1449353 -41.90 0.0006995984    2.070    0.517
       495  -8.9961     48.6079     33.5167   7.2186481374e+01   6.4608740170e+01     0.219352     0.200297  -5.14  0.000726965    1.214    0.177
       496  -8.6425     60.6897     32.5200   6.6837295469e+01   6.2798078564e+01    0.2174689    0.1869083 -55.52 0.0006474947    1.663    0.399
       497  -8.9143     72.0836     30.7799   6.1945284601e+01   6.0976458642e+01    0.3305697    0.1941883 -43.94  0.001068347    2.122    0.529
       498  -8.0069    139.4284     31.5151   4.5091491719e+01   4.6092272665e+01    0.1332885    0.1210123  76.20 0.0002241626    1.033    0.032
       499  -9.0111     12.8980     29.9971   8.8170844339e+01   6.9445838060e+01    0.2845313    0.1625745 -57.42   0.00126791    2.308    0.567
       500  -8.4575    101.4848     29.1108   5.2496062283e+01   5.5130460558e+01    0.1842541     0.130974 -27.84 0.0006807889    1.539    0.350
       501  -7.8211     41.9747     29.7623   7.3505111195e+01   6.6139644664e+01    0.1537022   0.09403126  30.26 0.0003591656    1.534    0.348
       502  -8.9727     81.6425     27.5212   5.7494703518e+01   5.9515300614e+01    0.2384402    0.2083159 -62.41 0.0006889126    1.544    0.352
       503  -8.9015      3.5010     27.3764   9.2365697396e+01   7.0624975893e+01    0.2280973    0.1733294 -60.85 0.0008355784    1.753    0.430
       504  -9.0082     91.8242     26.4330   5.4077301051e+01   5.7532279780e+01    0.2694811    0.1791563 -39.13 0.0008877072    1.728    0.421
       505  -8.1597     34.6638     23.3158   7.4045782740e+01   6.8079919770e+01    0.1550959    0.1475798  60.21 0.0008440709    1.729    0.421
       506  -7.8723    104.4861     22.5625   4.9376343500e+01   5.5196738752e+01    0.1299881    0.1157158  53.31 0.0001943651    1.057    0.054
       507  -8.9628     63.5222     20.9080   6.0811156631e+01   6.3782256186e+01    0.2451187    0.2008982 -52.11  0.000823744    1.755    0.430
       508  -8.7757     48.2812     21.5740   6.7090403317e+01   6.6310428705e+01    0.1979335     0.186093 -29.79 0.0006471443    1.447    0.309
       509  -8.0009    184.9753    250.0000   8.6097918360e+01  -4.2428750769e+00    0.2055702   0.06157226  33.75 0.0008026733    2.944    0.660
       510  -7.7647     12.2644     20.6476   8.4578750827e+01   7.1025826823e+01   0.09552004   0.09139986 -38.90 0.0004498391    1.620    0.383
       511  -8.1608     87.7963     17.7935   5.1834554165e+01   5.9320826951e+01    0.1570084    0.1488146 -78.99 0.0003988722    1.314    0.239
       512  -8.2721     38.5496     18.0653   6.9769387656e+01   6.8242305365e+01    0.1709405    0.1073441 -28.43 0.0008569591    1.560    0.359
       513  -7.9185    112.8439     16.8171   4.5480091020e+01   5.3890541146e+01    0.1672544    0.1432427  88.95 0.0004046302    1.284    0.221
       514  -8.0974     30.0518     16.0599   7.2895450247e+01   6.9682249052e+01    0.1534236    0.1508148 -50.06 0.0007481253    1.718    0.418
       515  -7.9108     97.1437     15.1361   4.8399950295e+01   5.7570541040e+01    0.1620604      0.14726 -66.29  0.000497793    1.342    0.255
       516  -8.2787      7.6556     15.3586   8.4844833582e+01   7.2252362861e+01    0.1436677    0.1388507  25.37 0.0007692971    1.709    0.415
       517  -8.9572     73.9835     19.3482   5.6570729569e+01   6.1974928369e+01    0.2416612     0.168835 -42.88 0.0007131252    1.817    0.450
       518  -7.6575    119.7372     11.3422   4.2269690188e+01   5.2815334205e+01    0.1229139   0.09192343 -66.83 0.0006973512    1.596    0.373
       519  -9.0738    175.5864    247.6097   8.7624836917e+01  -2.5517688836e+00    0.2831202     0.236837  75.60  0.001149598    1.973    0.493
       520  -9.1557    147.0375    245.9336   9.3308008151e+01   1.8842642833e+00    0.3339256    0.2347915  68.28  0.001735771    2.232    0.552
       521  -8.7513    132.2910    248.1414   9.6736476465e+01   3.6735413810e+00    0.2753538    0.1902914  71.40 0.0006948425    2.165    0.538
       522  -7.9932     47.7286     10.3583   6.2055473107e+01   6.7711285541e+01    0.1027444   0.09503926 -49.52 0.0006999085    1.646    0.393
       523  -8.4302    113.0634    248.5124   1.0087971998e+02   6.4274849173e+00    0.2292963    0.1721004 -89.31  0.001187312    1.708    0.415
       524  -9.2992    103.7174    246.8768   1.0268368879e+02   8.0911493988e+00    0.4434812    0.2581523 -84.50  0.001985452    2.663    0.624
       525  -9.1334    243.0230    246.5238   7.4667509294e+01  -1.1064144410e+01    0.3608562    0.1426647 -32.85  0.001857518    2.282    0.562
       526  -8.9705    233.1005    246.4713   7.6408864745e+01  -9.9121458578e+00    0.3762503    0.1645845 -29.24  0.001946653    2.178    0.541
       527  -8.7864    218.7189    246.9281   7.9105575679e+01  -8.2295396684e+00    0.3721316    0.1373567 -37.28  0.001749041    2.643    0.622
       528  -8.5113    156.1969    248.1086   9.1692926708e+01   1.6045371531e-01    0.2244589    0.1479492  52.83 0.0005252848    1.897    0.473
