#   1 NUMBER                 Running object number                                     
#   2 MAG_AUTO               Kron-like elliptical aperture magnitude                    [mag]
#   3 X_IMAGE                Object position along x                                    [pixel]
#   4 Y_IMAGE                Object position along y                                    [pixel]
#   5 X_WORLD                Barycenter position along world x axis                     [deg]
#   6 Y_WORLD                Barycenter position along world y axis                     [deg]
#   7 A_WORLD                Profile RMS along major axis (world units)                 [deg]
#   8 B_WORLD                Profile RMS along minor axis (world units)                 [deg]
#   9 THETA_WORLD            Position angle (CCW/world-x)                               [deg]
#  10 FWHM_WORLD             FWHM assuming a gaussian core                              [deg]
#  11 ELONGATION             A_IMAGE/B_IMAGE                                           
#  12 ELLIPTICITY            1 - B_IMAGE/A_IMAGE                                       
         1  -8.1956     83.9408     10.9602   2.0343046758e+01   6.2127930784e+01    0.2077181    0.1615484 -71.69 0.0007507079    1.712    0.416
         2  -8.7306     55.7827      9.8948   2.9728394087e+01   6.8303252278e+01    0.2135049    0.1738842 -44.60 0.0004774824    1.530    0.346
         3  -8.0854     47.6517      9.8579   3.3387617009e+01   6.9841884438e+01    0.1723178    0.1113291 -38.60 0.0005704139    1.737    0.424
         4  -8.3450     90.9721      8.9486   1.7478791280e+01   6.0676679438e+01    0.2070085    0.1587636 -67.97 0.0006940869    1.656    0.396
         5  -8.0136    101.4819      7.9885   1.4536740222e+01   5.8215405346e+01    0.1875262   0.09901525 -49.42 0.0007322766    2.389    0.581
         6  -8.3939     70.4603      6.0105   2.2052264898e+01   6.5678919767e+01    0.1857278    0.1264331 -23.67  0.000755481    1.562    0.360
         7  -8.2246     33.6565      5.2871   3.7992648205e+01   7.2823702793e+01    0.1704155    0.1509307 -65.50  0.001079856    1.811    0.448
         8  -8.6636     79.1005      3.5191   1.8096992320e+01   6.3975047653e+01     0.245428    0.1689725 -39.09 0.0008820193    1.678    0.404
         9  -7.8135    115.4681      1.9940   9.3225590539e+00   5.5235851276e+01    0.1854299   0.09397685 -49.33 0.0005228891    2.336    0.572
        10  -8.0814     62.5120      1.4492   2.2323621314e+01   6.7842921745e+01    0.1285746    0.1126805  33.25 0.0001028176    1.041    0.039
        11  -9.0714     12.8080    247.8322   9.0125478897e+01   2.1094982599e+01    0.1513375    0.1289991  53.41 0.0008879515    1.240    0.194
        12 -10.2356    248.7550    241.3673   4.4221250306e+01  -7.1758928557e+00    0.4056592    0.1670994 -28.75  0.001669446    2.260    0.557
        13  -8.5421    248.0998    234.1486   4.3227130425e+01  -6.3261915573e+00    0.2376738    0.1157962 -22.39  0.001249558    1.867    0.464
        14  -9.5410    246.9555    228.2375   4.2489191404e+01  -5.5406022685e+00    0.4660202     0.168271 -26.65  0.002362669    2.740    0.635
        15  -9.2774    242.4009    247.2878   4.6108877048e+01  -7.1151039169e+00    0.4003712    0.1647743 -19.66  0.002146107    2.723    0.633
        16  -9.4504    210.7916    246.1873   5.1243138427e+01  -3.3553483822e+00     0.252773    0.2000516 -55.59  0.001058998    2.486    0.598
        17  -8.2189    125.5189    250.2405   6.7931065299e+01   7.2795623793e+00    0.1404401    0.1098162 -29.29 0.0009311599    1.618    0.382
        18  -8.4723     94.3988    249.4668   7.4128729084e+01   1.1523784215e+01    0.2842781    0.1043648  51.07  0.001242468    2.918    0.657
        19  -9.4439    224.3158    245.3627   4.8801113199e+01  -4.8702236523e+00    0.2314743     0.145744 -14.13  0.001311092    1.452    0.311
        20  -9.6701    223.6728    242.3443   4.8467469736e+01  -4.4506051591e+00    0.2063067    0.1830283   2.45  0.001158096    1.478    0.324
        21  -8.5310    168.9902    247.4850   5.9076760026e+01   1.8236619029e+00    0.1843432   0.09230784  31.02  0.000932118    1.583    0.368
        22  -9.6637    146.9599    245.7434   6.3142016883e+01   5.0438105149e+00    0.2827222    0.1790304  58.24   0.00134129    2.358    0.576
        23  -8.2277     20.9943    247.7573   8.8577263264e+01   2.0314814466e+01    0.1454219   0.07324927  35.12 0.0008929402    1.634    0.388
        24  -9.5085    120.0152    245.0202   6.8477414556e+01   8.8379323497e+00    0.2876712    0.2007729  81.74   0.00169465    2.241    0.554
        25  -8.1170     67.3878    244.7856   7.9236794747e+01   1.5717972961e+01     0.137262    0.1065464 -61.94 0.0007482133    1.609    0.379
        26  -8.8986    201.8677    243.0287   5.2370975723e+01  -1.8692841611e+00    0.2213448    0.1535892 -44.02 0.0009096555    2.020    0.505
        27  -9.3819    193.9380    239.3276   5.3279633367e+01  -3.8471946908e-01     0.173158    0.1532789  -6.67 0.0005537758    1.310    0.237
        28  -8.8786    169.1975    243.0714   5.8455719204e+01   2.4010402975e+00    0.2237126    0.1808233  46.37 0.0007699867    1.518    0.341
        29  -8.8219    139.4097    244.2197   6.4462988129e+01   6.3058787606e+00    0.1401354    0.1176775 -78.08 0.0009474799    1.728    0.421
        30  -8.8083     77.9867    243.1800   7.6940243107e+01   1.4688969271e+01    0.2784043    0.1157188  58.41  0.001241902    2.963    0.662
        31  -9.3610    183.3132    239.9695   5.5345629284e+01   9.3048848804e-01    0.3682027    0.2581545  57.75   0.00210629    2.575    0.612
        32  -9.3719    160.0378    240.1702   5.9852920823e+01   4.0618129403e+00    0.2700914    0.2201038 -85.70  0.001544083    2.148    0.535
        33  -8.3869    153.3950    241.6325   6.1353887724e+01   4.7645912767e+00     0.191548    0.1153933 -67.68 0.0009530251    3.364    0.703
        34  -7.8890     88.3257    242.1763   7.4717530358e+01   1.3540981558e+01    0.1474986    0.1056652  89.21 0.0007573751    1.722    0.419
        35  -9.2668    241.4585    238.2302   4.4910531085e+01  -6.0351190917e+00    0.3938632    0.1638149 -14.80  0.001832599    3.438    0.709
        36  -8.1645    146.1573    239.3974   6.2515501419e+01   6.1028405141e+00    0.1745369   0.09017407  41.46 0.0004601981    1.709    0.415
        37  -9.3858    135.6412    238.6846   6.4560193174e+01   7.6830713033e+00    0.2264354    0.1447922  56.02  0.001126357    1.963    0.491
        38  -9.7158    230.9777    236.0469   4.6296988125e+01  -4.5859986941e+00    0.3567813    0.2246408 -27.58  0.001837746    1.574    0.365
        39  -8.4449    209.1330    238.1667   5.0369439169e+01  -2.1823853246e+00    0.1414989     0.122421  15.10 0.0006049107    1.340    0.254
        40  -8.7569     14.1130    237.6887   8.9503233279e+01   2.2809984511e+01    0.2231216   0.05731559  37.22  0.001076243    2.534    0.605
        41  -9.8410    175.6926    233.1826   5.5839295509e+01   2.9011813837e+00    0.3988196    0.2322243 -53.70  0.002164109    2.633    0.620
        42  -9.7060    108.5783    234.2218   6.9681655902e+01   1.2197396917e+01    0.3535434    0.1888524  53.59   0.00102518    2.030    0.507
        43  -8.1134     25.3485    236.6789   8.7245211992e+01   2.1895408342e+01      0.12637   0.05766072  55.89 0.0007048948    1.740    0.425
        44  -9.1804    203.0994    234.0601   5.0838929093e+01  -8.9612373678e-01    0.2556232    0.1765255 -43.30  0.001102119    1.942    0.485
        45  -8.3893    170.1735    235.2218   5.7197857380e+01   3.3740982405e+00    0.1493178    0.1315221  37.85 0.0006811008    1.342    0.255
        46  -8.7145    152.9955    235.2528   6.0604585299e+01   5.7730125881e+00    0.1730874    0.1379187  27.35 0.0005699802    1.037    0.035
        47  -8.4817    122.8527    233.8084   6.6625692791e+01   1.0271844452e+01    0.2129192    0.1485755  70.46 0.0009110902    2.041    0.510
        48  -8.3988     99.7245    234.1639   7.1553400472e+01   1.3422073046e+01    0.1939345     0.135727  63.68  0.001167914    1.582    0.368
        49  -8.6930     92.4886    232.0701   7.2885856994e+01   1.4772735592e+01     0.294259    0.1892405 -81.25  0.001666805    2.029    0.507
        50  -8.4431     78.4639    234.0359   7.6063176800e+01   1.6260063808e+01    0.1604797    0.1177787 -77.59  0.001027611    1.589    0.370
        51  -9.9174    214.6636    232.9035   4.8606927010e+01  -2.2264699634e+00    0.3946562    0.3281848 -89.82  0.002284102    3.467    0.712
        52  -8.4399    194.3111    232.4859   5.2212444024e+01   4.6543579329e-01    0.1560836    0.1458117 -55.90 0.0005881374    1.724    0.420
        53  -9.3323    141.7161    231.1051   6.2360287578e+01   8.0257772401e+00    0.6192717    0.2266394  50.19  0.002086358    4.783    0.791
        54  -8.7248    132.7542    232.5267   6.4400456882e+01   9.0783931637e+00    0.2184358    0.1439375  62.94  0.001178113    2.172    0.540
        55  -9.2175     68.0580    231.9388   7.8100535028e+01   1.7961607253e+01     0.417475     0.165794  56.13  0.001859687    2.719    0.632
        56  -9.5028    186.4970    230.5808   5.3393881979e+01   1.7797033974e+00    0.2882804     0.236824 -75.04   0.00152404    2.391    0.582
        57  -8.4997    158.0163    231.8319   5.9135345770e+01   5.5812140818e+00    0.1958478    0.1216116  50.23 0.0005723395    1.961    0.490
        58  -9.3351    236.0819    229.8478   4.4497931086e+01  -4.4683746176e+00    0.3492818    0.1481867 -31.62  0.001567798    2.261    0.558
        59  -8.3058      1.5103    230.8954   9.1719938855e+01   2.5231446522e+01    0.1550876    0.0903879  87.15  0.001026557    1.572    0.364
        60  -8.7428    151.4586    228.9531   6.0071145801e+01   6.9649137705e+00    0.2152852    0.1744796  57.61  0.000917755    1.573    0.364
        61  -9.5664    148.5062    224.4089   6.0055783655e+01   8.1192061980e+00    0.3604132     0.251257  66.72  0.001860332    2.356    0.576
        62  -8.6144    229.5921    228.2632   4.5328970142e+01  -3.5055277401e+00    0.1512524   0.08884069 -18.91 0.0008405922    1.573    0.364
        63  -9.0177    161.9877    227.5963   5.7747492855e+01   5.6583096940e+00    0.2513751    0.1813671  53.96  0.001422875    1.822    0.451
        64  -9.0184    127.8600    227.0158   6.4742537693e+01   1.0700403604e+01    0.3034746       0.1968  57.96  0.001569129    1.905    0.475
        65  -8.0067    120.3185    227.6675   6.6431356201e+01   1.1675378299e+01    0.1276507   0.08591573  57.30 0.0003839267    1.693    0.409
        66  -8.8011    205.9747    225.7266   4.9050896818e+01  -1.8819642161e-01    0.2079688     0.161017 -33.89 0.0009598289    1.531    0.347
        67  -8.6139    199.8927    226.1812   5.0229845584e+01   5.6279592692e-01    0.1681199    0.1407282  14.55 0.0004766465    1.165    0.141
        68  -8.1040     49.0000    225.9419   8.1724453757e+01   2.1387774852e+01    0.1701081    0.0649979 -73.62 0.0005026627    2.873    0.652
        69  -8.9782     94.3734    224.2131   7.1672341238e+01   1.5953758168e+01     0.425925    0.1728567  54.63  0.001704448    3.155    0.683
        70  -8.8833    216.3879    223.3078   4.6816385833e+01  -1.2363934542e+00    0.1975445    0.1906072  27.57 0.0008992032    1.663    0.399
        71  -8.7105    180.4649    224.0062   5.3569504881e+01   3.5531044854e+00     0.209059    0.1511512  40.93 0.0006194311    1.479    0.324
        72  -8.6956    173.0017    222.8466   5.4858339249e+01   4.7917605205e+00    0.2210643    0.1728998 -66.86 0.0007303318    2.128    0.530
        73  -8.8600    104.8974    223.7455   6.9311573193e+01   1.4571112306e+01    0.2854933    0.1907499  75.20  0.001547108    2.044    0.511
        74  -8.0147    113.5568    223.5469   6.7396507854e+01   1.3371953278e+01    0.1278771    0.1052984  40.15 8.318557e-05    1.040    0.038
        75  -9.6645    239.1746    220.7391   4.2547623022e+01  -3.7616408262e+00    0.3273835    0.1806256 -19.02  0.001666991    1.661    0.398
        76  -9.3903    225.6157    221.2996   4.4899415207e+01  -2.1606503471e+00    0.2244774    0.2000038  14.56 0.0009646621    1.435    0.303
        77  -9.2311    160.2332    220.9650   5.7149240239e+01   6.9450159486e+00     0.478437    0.2138785  50.90  0.001878189    3.585    0.721
        78  -8.5430     82.8435    220.6400   7.3856271635e+01   1.8196967483e+01    0.2392041    0.1396454  68.36  0.001218409    2.095    0.523
        79  -8.2623    202.5419    219.9862   4.8775502977e+01   1.0445168316e+00    0.1618658    0.1095374 -31.47 0.0005197288    1.538    0.350
        80  -9.0502    120.4407    219.0560   6.5337815000e+01   1.3176275304e+01    0.4445536    0.2154909  56.53  0.001831332    3.070    0.674
        81  -7.9865     73.2638    220.6213   7.5986963628e+01   1.9461222268e+01    0.1298475   0.07947806  62.99 0.0006983688    1.676    0.403
        82  -9.4667    192.3041    221.1983   5.0872202534e+01   2.2898007427e+00    0.2380339    0.2250534 -78.71 0.0007682496    1.732    0.423
        83  -8.4696    210.0569    218.9962   4.7253343965e+01   1.6177899289e-01    0.1788746    0.1436886   5.10 0.0004524644    1.053    0.051
        84  -8.8733    249.0662    217.9297   4.0507996289e+01  -4.5995140211e+00     0.219764    0.1407598  49.83   0.00123467    3.221    0.690
        85  -9.2881    133.1279    215.9393   6.2154676656e+01   1.1840115341e+01    0.4970948    0.2953396  70.70  0.001996762    3.835    0.739
        86  -8.8936     51.6017    217.2892   8.0526063943e+01   2.2797843461e+01     0.253669    0.1336287  80.62 0.0009591595    2.206    0.547
        87  -8.6597    169.3394    215.9550   5.4547929543e+01   6.3861651309e+00    0.2570922    0.2101892 -84.60  0.001091702    2.142    0.533
        88  -8.4475    142.8223    216.4528   6.0137614067e+01   1.0288587412e+01    0.2221316    0.1740806 -79.42   0.00104627    1.910    0.477
        89  -8.3985     61.9615    216.8104   7.8173808134e+01   2.1645315754e+01    0.2160041    0.1401293  76.31 0.0007947695    1.635    0.388
        90  -8.6410    243.1071    212.7902   4.0612383023e+01  -3.2779674447e+00    0.3440289    0.1010718 -32.72  0.001538245    3.182    0.686
        91  -8.7464    232.1988    214.4441   4.2673207981e+01  -2.1313749259e+00    0.2064793    0.1695454 -29.40 0.0008744117    1.501    0.334
        92  -8.4672    154.2997    214.9766   5.7494930879e+01   8.8016504806e+00     0.169358    0.1546027  15.41 0.0005866487    1.110    0.099
        93  -9.3758    214.1186    212.2343   4.5426349559e+01   5.2407828218e-01     0.348097    0.2422084  51.28  0.001931067    2.318    0.569
        94  -8.2932    185.4908    214.0050   5.1042533417e+01   4.3063608322e+00    0.1682439    0.1185125 -36.00 0.0007736489    1.546    0.353
        95  -8.8956     93.0293    213.8157   7.0838503900e+01   1.8122700442e+01    0.2847712    0.1524056  60.37  0.001323212    2.289    0.563
        96  -9.2929     73.2396    211.8239   7.5155916317e+01   2.1213662274e+01    0.6407468    0.1978536  54.35  0.002012993    4.823    0.793
        97  -8.0874    224.9699    212.2061   4.3526557308e+01  -9.1701490566e-01    0.1480892    0.1230372 -35.50 0.0005621828    1.584    0.369
        98  -9.1575    204.2974    210.8203   4.6968916665e+01   2.0756427984e+00    0.2600274    0.1955117 -52.70 0.0007254872    2.052    0.513
        99  -8.6750    161.7163    211.9817   5.5496772466e+01   8.1696553012e+00    0.1996871    0.1819852 -85.78  0.000871674    1.566    0.361
       100  -7.8696    106.4865    212.4913   6.7624748160e+01   1.6446110137e+01    0.1327134    0.1103023  45.43  3.14345e-06    1.068    0.064
       101  -9.4117    175.4042    209.8369   5.2367137528e+01   6.4402446528e+00    0.3721553    0.2613943  64.03  0.001776388    2.621    0.618
       102  -8.6509    147.9356    210.1387   5.8122218538e+01   1.0592858300e+01    0.3052275    0.2116901  65.76  0.001119572    2.269    0.559
       103  -8.8281    116.1913    210.2342   6.5139948846e+01   1.5434929723e+01    0.3077947     0.193533  64.62  0.001063204    2.176    0.540
       104  -8.3919    192.5681    210.3337   4.9086535051e+01   3.8223130420e+00    0.1587439    0.1494811  60.14 0.0006711504    1.588    0.370
       105  -9.0505      6.7576    209.3375   8.9877486359e+01   2.9030341891e+01    0.2687587   0.06854387  65.57 0.0009616527    4.400    0.773
       106  -9.2875    236.4727    207.6931   4.0839016476e+01  -1.8197936099e+00    0.3320287    0.2041979 -39.50  0.001506323    1.901    0.474
       107  -8.0907     85.3850    209.1428   7.2073691555e+01   2.0117665650e+01    0.1774512    0.1170901  89.76 0.0009377794    1.880    0.468
       108  -8.2222     46.3276    209.6505   8.1130582733e+01   2.4974270072e+01    0.1378082    0.0728248  59.44 0.0001053568    1.760    0.432
       109  -9.1221    246.4925    207.1159   3.9124435006e+01  -2.9971318811e+00    0.2707729    0.1589686 -21.64 0.0007786195    1.463    0.316
       110  -9.1965    250.1352    202.0435   3.7691453911e+01  -2.8185738072e+00    0.3033245    0.1388606 -30.69  0.001056309    1.920    0.479
       111  -7.9079    156.5650    207.8052   5.5928612838e+01   9.6569706771e+00    0.1563131    0.1287217 -62.42 0.0005359811    1.631    0.387
       112  -8.2873    139.0161    207.7994   5.9709526984e+01   1.2386167047e+01    0.2123079    0.1330477  54.30 0.0006102794    1.932    0.482
       113  -8.1257    126.3768    208.1964   6.2570345328e+01   1.4267966173e+01    0.1628119    0.1279133 -74.07 0.0004709474    1.649    0.394
       114  -9.1818     99.6080    206.0032   6.8401547973e+01   1.8720762574e+01    0.3769329     0.222196  67.90  0.001231884    2.373    0.579
       115  -9.0827    183.7862    203.8043   4.9710823716e+01   6.1196101085e+00     0.278573    0.2211797  58.31  0.001310677    1.852    0.460
       116  -8.1979    108.9991    204.9756   6.6091108828e+01   1.7529960874e+01    0.2106416    0.1453409  62.14 0.0007291699    1.669    0.401
       117  -8.1019     56.3958    205.2315   7.8445625134e+01   2.4711915589e+01     0.172964    0.1084625  84.03 0.0008877592    1.716    0.417
       118  -9.4149    194.7670    203.2886   4.7493169563e+01   4.5503511354e+00    0.3440649    0.2409205 -35.45  0.001374803    1.506    0.336
       119  -9.2655    192.2852    196.9405   4.6879658361e+01   5.8957567375e+00    0.3118866    0.2183472 -42.33 0.0008835936    1.623    0.384
       120  -9.6536    163.9616    202.9093   5.3594681290e+01   9.3304995900e+00    0.4335772    0.2530262  52.86   0.00120353    2.333    0.571
       121  -8.6984    131.1847    203.9104   6.0876670225e+01   1.4319338894e+01    0.2800048    0.1740686  61.96   0.00128188    2.330    0.571
       122  -8.6510    210.9706    201.7661   4.4224592091e+01   2.4162345491e+00    0.2411639    0.1643268 -51.82 0.0008882773    2.260    0.558
       123  -9.0843    243.2694    200.7472   3.8552314275e+01  -1.8004132049e+00    0.2653463    0.1644561 -32.97 0.0008924901    1.570    0.363
       124  -8.5521     80.0824    201.1125   7.2428470852e+01   2.2503463986e+01    0.2840348    0.1457047  61.47  0.001249496    2.380    0.580
       125  -8.1018     48.3075    201.9644   8.0063816913e+01   2.6370023809e+01    0.2046676   0.08208054  78.90 0.0007043291    4.256    0.765
       126  -8.2645    222.1936    201.2008   4.2141246813e+01   9.2477940380e-01    0.1487711    0.1354402 -14.78 0.0006147341    1.367    0.269
       127  -8.7535    140.1895    200.6646   5.8373313313e+01   1.3497079540e+01    0.2638165    0.2029884  72.98 0.0009723181    1.851    0.460
       128  -8.1789      9.9593    202.0000   8.8860477236e+01   3.0281835623e+01    0.1779513   0.05998389  26.64 0.0007972338    2.907    0.656
       129  -9.3395    237.1386    198.2336   3.9108426491e+01  -6.8544447751e-01     0.309781    0.1438819 -37.99  0.001330185    2.165    0.538
       130  -9.3446    149.4648    198.3129   5.5954498543e+01   1.2438944961e+01    0.3722339     0.274397  87.99  0.001298972    2.412    0.585
       131  -8.7985    124.0119    199.1674   6.1812550323e+01   1.6348499714e+01    0.2944888    0.2049431  76.83  0.001444419    2.183    0.542
       132  -8.7705    177.1015    198.7394   5.0194805138e+01   7.9608525752e+00    0.2009414    0.1727025 -43.75 0.0005205957    1.401    0.286
       133  -9.3152    112.7038    198.1462   6.4298138213e+01   1.8318258795e+01    0.4001785    0.2613338  64.09  0.001969375    1.949    0.487
       134  -8.8213     88.8875    198.6292   7.0029186853e+01   2.1784289864e+01    0.3002292     0.199025  81.07  0.001382853    1.911    0.477
       135  -8.4414    202.3016    197.8026   4.5128451687e+01   4.2551525004e+00    0.2026157    0.1900451 -52.35 0.0009624196    1.549    0.354
       136  -8.8836     61.1245    196.7411   7.6530750161e+01   2.5945264493e+01    0.3908542    0.1887425  68.79  0.001650788    2.724    0.633
       137  -7.9893     13.3063    197.7049   8.7899759819e+01   3.0901622969e+01    0.1277122   0.06736023  58.60 0.0003150019    1.584    0.369
       138  -9.6144    246.0705    193.7017   3.6881924701e+01  -1.2566647046e+00    0.3347717    0.2616537 -57.71  0.001705028    2.507    0.601
       139  -8.8499    215.9748    195.3756   4.2213862507e+01   2.6136012993e+00    0.2539243    0.1871502 -52.09  0.001102656    2.057    0.514
       140  -8.9848    224.3970    193.5468   4.0419375838e+01   1.6771810796e+00    0.2907802    0.1261942 -40.29  0.001182517    2.408    0.585
       141  -9.0236    185.0476    194.6954   4.7905051428e+01   7.3717174952e+00    0.2209827    0.2085154 -56.44 0.0006727476    1.444    0.307
       142  -7.9187    132.8751    195.5878   5.9236493227e+01   1.5623687474e+01    0.1926261    0.1122878  45.40 0.0005662592    1.655    0.396
       143  -8.1293    230.8586    193.8328   3.9374613774e+01   7.4317484311e-01    0.1499025    0.1320785 -14.08 0.0005171304    1.287    0.223
       144  -8.8497    160.8080    193.8940   5.2767430261e+01   1.1389373352e+01    0.2736053    0.2014962  60.75  0.001296019    1.894    0.472
       145  -8.5911     77.0016    193.7131   7.2331520513e+01   2.4506908653e+01    0.2181246     0.167853  72.91 0.0006396053    1.329    0.247
       146  -8.8586     43.8854    193.1803   8.0389970423e+01   2.8792946054e+01     0.433219    0.1677637  60.06  0.001726717    2.974    0.664
       147  -8.2990    198.9016    191.5275   4.4659146709e+01   5.7218650673e+00    0.2223161    0.1642452 -52.30 0.0007469034    1.878    0.467
       148  -8.5506    172.3406    191.7476   4.9967425222e+01   9.8871092247e+00    0.2221438    0.2024088 -78.71  0.000980211    1.548    0.354
       149  -9.1458    139.4587    190.3008   5.6888395436e+01   1.5561133363e+01    0.3517951    0.2561194  78.79  0.001241456    2.199    0.545
       150  -8.0606    205.3795    191.2943   4.3405861247e+01   4.7722828417e+00    0.1609237    0.1135107 -40.59 0.0007515921    1.580    0.367
       151  -8.0753    179.1815    191.2599   4.8478617757e+01   8.8653782994e+00      0.16391    0.1567315  52.28  0.000614709    1.351    0.260
       152 -10.2337     92.4961    188.8767   6.7903411340e+01   2.3328899652e+01    0.9830317    0.2280096  43.60  0.003045362    3.897    0.743
       153  -9.0545    192.0621    187.7384   4.5289070051e+01   7.3855069027e+00    0.3943999    0.2965879  87.98  0.001839497    3.216    0.689
       154  -8.4048    148.7199    189.3707   5.4644087260e+01   1.4200781508e+01    0.2219895    0.1765876 -66.88  0.001218145    1.653    0.395
       155  -7.4069    210.3055    189.6384   4.2206022645e+01   4.2814233652e+00     0.111376    0.1032387 -74.25 0.0007038802    1.733    0.423
       156  -8.7473    129.3119    188.4657   5.8936544629e+01   1.7594254263e+01    0.2847377     0.198204  64.53 0.0008268557    1.902    0.474
       157  -8.1629    237.1083    188.3544   3.7365094675e+01   6.3432625139e-01     0.161197       0.1306  -1.14 0.0005010237    1.062    0.058
       158  -8.9382    216.5968    187.6640   4.0721234099e+01   3.6394681705e+00    0.2201855    0.1959545 -18.25 0.0006772496    1.246    0.197
       159  -9.3014    155.9974    187.3357   5.2685013127e+01   1.3362795381e+01     0.301396    0.2216767 -57.15 0.0009039002    1.695    0.410
       160  -9.4540    120.4854    185.8676   6.0617396167e+01   1.9568886967e+01    0.4208981    0.2530439 -72.12  0.001859849    2.442    0.590
       161  -8.8737     54.8670    186.7609   7.7085868738e+01   2.8936714873e+01    0.4233672    0.1798533  66.38  0.001329508    3.446    0.710
       162  -8.4233     34.4399    188.1442   8.2289625290e+01   3.0951406130e+01    0.2539426    0.1146619  58.70  0.001171792    2.155    0.536
       163  -9.3092    249.4667    185.5460   3.4904032551e+01  -6.3896527745e-01    0.2719041    0.1820319 -39.29  0.001162759    1.682    0.405
       164  -8.1291    230.4900    187.0609   3.8222640242e+01   1.7263437546e+00    0.1777502    0.1051679 -31.63 0.0004850974    1.547    0.353
       165  -8.8348    164.8652    186.6293   5.0640813165e+01   1.2008696341e+01    0.2356912    0.2006026 -56.06 0.0007664862    1.457    0.314
       166  -9.0643    109.5039    185.9938   6.3300855275e+01   2.1317412717e+01    0.3733163    0.2424016  64.89  0.001146875    1.975    0.494
       167  -8.6531    202.9165    184.5000   4.2628286829e+01   6.1916399421e+00    0.2169609    0.1750786 -46.69 0.0006963424    1.556    0.357
       168  -8.5764    183.0056    184.5915   4.6508046417e+01   9.3607590331e+00    0.2323498    0.1836279 -54.32 0.0008377768    1.650    0.394
       169  -9.0771     66.6449    184.4312   7.3854778072e+01   2.7963873262e+01    0.3787265    0.2069166  65.19  0.001046577    2.145    0.534
       170  -8.5607    224.0693    183.4447   3.8648026113e+01   3.1570393473e+00    0.1876247    0.1428167 -23.04  0.000555671    1.187    0.157
       171  -9.0376    210.2409    183.7127   4.1135150827e+01   5.1823749718e+00    0.2911369    0.1813322 -34.39 0.0009189863    1.552    0.356
       172  -8.7765    174.2654    183.5686   4.8109146978e+01   1.0979560420e+01    0.2472888    0.2173402  85.40 0.0008037824    1.677    0.404
       173  -8.7990     44.6374    182.5110   7.9264138503e+01   3.1114774805e+01    0.3335662    0.1465307  53.57   0.00132636    2.204    0.546
       174  -8.0748      1.9962    183.5099   8.9833810032e+01   3.4965963481e+01    0.1714191    0.1022901  35.60  0.001021354    1.588    0.370
       175  -9.0825    147.5120    180.5118   5.3382112429e+01   1.6085524766e+01    0.3107744    0.2381323  67.86  0.001111041    1.789    0.441
       176  -9.3549     25.9989    179.3955   8.3727378078e+01   3.3801830167e+01     0.555251     0.213183  73.43  0.002123765    3.348    0.701
       177  -7.7094    240.6054    179.7854   3.5243111786e+01   1.3213693561e+00    0.1637526   0.09939978 -38.04 0.0009453857    1.660    0.398
       178  -8.5915    137.5523    178.9999   5.5416961616e+01   1.8094585495e+01    0.2948785     0.224632  71.88  0.001098297    1.800    0.444
       179  -9.4474    191.3515    178.1739   4.3658407210e+01   9.0615122796e+00    0.2642531    0.2500502 -79.84 0.0005673113    1.485    0.327
       180  -8.6878    250.4702    172.6600   3.2397080368e+01   9.3588372134e-01    0.2387773    0.1382146 -29.44 0.0005899912    1.457    0.314
       181  -9.2991    248.7881    177.0594   3.3465635374e+01   5.7294837612e-01    0.2707493    0.2349332 -53.11  0.001254473    1.803    0.445
       182  -8.7274    217.5631    177.0901   3.8590852726e+01   5.0641069610e+00    0.2370085    0.1828759 -50.59 0.0008845133    1.754    0.430
       183  -8.8750    204.9676    177.3855   4.0917241221e+01   6.9837592924e+00    0.2294864    0.1751452 -46.61 0.0007090628    1.587    0.370
       184  -8.0507    169.3976    178.3056   4.8163010771e+01   1.2733231049e+01    0.1759565    0.1309599 -52.87 0.0004366799    1.619    0.382
       185  -8.5263    129.1535    177.1968   5.7100331505e+01   1.9901432943e+01    0.2457938    0.1832855  86.04  0.000706161    1.953    0.488
       186  -8.8899     35.7523    176.3060   8.0987192156e+01   3.3529292763e+01    0.4923318    0.1881652  74.17   0.00165105    4.212    0.763
       187  -8.5118    231.1359    176.7075   3.6206725438e+01   3.0955902582e+00    0.2106501     0.145979 -35.32 0.0007009734    1.426    0.299
       188  -9.1860    183.1671    176.1408   4.4900849377e+01   1.0769975025e+01    0.2557812    0.2147457 -45.98 0.0006490682    1.381    0.276
       189  -8.7589     88.8508    176.5805   6.7124262261e+01   2.6593061620e+01    0.2602846     0.178406  82.55 0.0007860487    1.819    0.450
       190  -9.3755     58.4658    174.9774   7.4899103928e+01   3.1200774742e+01    0.5125834    0.2329333  62.23  0.001946033    2.845    0.648
       191  -9.1451     55.8004    170.4172   7.5087367582e+01   3.2611269606e+01    0.4583454    0.2258674  75.43  0.001790077    2.902    0.655
       192  -8.0504    197.2774    183.4451   4.3498209771e+01   7.2453643843e+00    0.2087408    0.1586941 -55.37 0.0007644695    1.857    0.461
       193  -9.3038    158.9726    174.8689   4.9781729254e+01   1.5172470719e+01    0.3827201    0.2827608  83.60  0.001257821    2.430    0.588
       194  -9.2922    104.1571    174.4813   6.2861501404e+01   2.4662701418e+01    0.5253582    0.2599423  59.72  0.001795424    3.148    0.682
       195  -8.3158     12.7443    176.3554   8.6848608540e+01   3.5710970959e+01    0.2150242     0.105496  58.91  0.000978774    1.825    0.452
       196  -8.6867    224.3464    174.0592   3.6845030752e+01   4.4861267327e+00    0.2428203    0.1385922 -39.23 0.0007566578    1.742    0.426
       197 -10.4649     75.8683    170.7406   6.9728024123e+01   2.9847849747e+01     1.030904    0.4473367 -82.97  0.003138465    4.766    0.790
       198  -8.1638    247.3170    173.6716   3.3064026051e+01   1.2300016399e+00    0.1621888    0.1125855  35.59 0.0006273995    1.607    0.378
       199  -9.4339    175.6805    172.0335   4.5651766908e+01   1.2773597517e+01    0.3300819    0.2414452 -37.35  0.001080367    1.390    0.281
       200  -8.2906    143.1525    172.5110   5.2941601795e+01   1.8416748192e+01    0.2401551    0.1719834 -79.10  0.000780989    2.208    0.547
       201  -8.4492    134.8223    171.5187   5.4733001342e+01   2.0087194876e+01    0.2549556    0.1943014 -78.42 0.0009368404    1.796    0.443
       202  -9.4635    121.4040    170.4972   5.7834544035e+01   2.2642307255e+01    0.3677358    0.2683854  88.73  0.001131127    1.956    0.489
       203  -9.0862     45.4114    171.4309   7.7985491257e+01   3.3613599860e+01    0.3602569    0.1925732  61.41  0.001564489    1.945    0.486
       204  -9.2442    230.4425    168.9677   3.4852774317e+01   4.3175048992e+00    0.4611172    0.1905924 -45.79  0.001931989    3.097    0.677
       205  -8.2601    205.9316    170.0053   3.9320941832e+01   8.0014702924e+00     0.185209    0.1617934 -64.30 0.0006129481    1.660    0.398
       206  -8.2013    198.4845    170.0573   4.0723082573e+01   9.2213070214e+00    0.1929957    0.1237856 -38.57 0.0005703156    1.550    0.355
       207  -8.6590    149.5926    169.3421   5.0855959085e+01   1.7901029400e+01    0.2772153    0.2185344  83.21  0.000934231    1.874    0.466
       208  -7.3844     68.5417    170.5418   7.1669386515e+01   3.0917824895e+01    0.1406452     0.122382  63.62 0.0001709778    1.057    0.053
       209  -8.5884    244.6805    169.1024   3.2612410619e+01   2.2242602572e+00    0.1863484    0.1362626 -39.21 0.0006868267    1.487    0.327
       210  -8.4049    237.3201    169.0913   3.3763064666e+01   3.2823054468e+00    0.1765705    0.1355303 -24.18 0.0008576324    1.142    0.125
       211  -9.1690    166.9112    168.3667   4.6802789916e+01   1.4987827752e+01    0.3109185    0.2307282  65.31  0.001150351    1.950    0.487
       212  -8.6357    218.7647    168.1866   3.6674116782e+01   6.2292543043e+00    0.1819487    0.1620208 -25.66 0.0005252494    1.217    0.178
       213  -7.8480    211.3846    168.1420   3.7966814145e+01   7.4123989416e+00     0.179093    0.1135834 -44.61 0.0009337686    1.749    0.428
       214  -8.7538    111.6898    167.1218   5.9707767175e+01   2.5042477903e+01    0.2896393     0.221559  77.64 0.0008607465    1.631    0.387
       215  -8.1095     88.6618    168.3767   6.5961137865e+01   2.8497808083e+01    0.2273576     0.152879  64.23 0.0008701071    1.691    0.409
       216  -8.9210    191.9061    166.6028   4.1310370648e+01   1.0913523598e+01    0.2432795    0.1880773 -40.44 0.0006266367    1.356    0.262
       217  -8.5537    185.0236    166.4925   4.2652752083e+01   1.2124846469e+01    0.2418086    0.1868212 -52.01 0.0004887775    1.562    0.360
       218  -9.5436    137.4723    164.7130   5.2830066293e+01   2.1021853763e+01    0.6883332    0.2825966  52.96  0.002171677    3.765    0.734
       219 -10.0045     94.9769    162.6788   6.3361257432e+01   2.8822974343e+01    0.8241726    0.4251415  70.90  0.002485942    4.624    0.784
       220  -8.9693     20.7512    166.2356   8.4099334914e+01   3.7379094570e+01    0.3262871    0.1097714  42.95  0.001363103    2.522    0.604
       221  -8.6396    234.0974    164.6857   3.3432424487e+01   4.3936490733e+00     0.214796    0.1480962 -36.37 0.0006875705    1.401    0.286
       222  -9.3525     34.1804    163.4042   8.0230574225e+01   3.6761375177e+01    0.6532295    0.1380818  46.34  0.002071856    4.267    0.766
       223  -8.8223    212.8868    163.4808   3.6780005937e+01   7.9041629725e+00     0.237908    0.1732902 -38.02 0.0004383728    1.376    0.273
       224  -8.7211    159.2447    163.9397   4.7618102962e+01   1.7211576253e+01    0.2446396    0.2313546 -82.25 0.0008018177    1.281    0.219
       225  -8.5919    246.2388    162.5758   3.1132582499e+01   2.9110590624e+00    0.2223769    0.1400839 -29.34 0.0005890736    1.342    0.255
       226  -8.4610    204.8290    162.4041   3.8021108822e+01   9.4144608516e+00    0.2163792    0.1664803 -38.14 0.0005748949    1.323    0.244
       227  -9.3667      3.6483    162.2480   8.8344061347e+01   3.9720407827e+01    0.4066949    0.1395027  50.16  0.001456045    2.562    0.610
       228  -9.0400    177.3843    160.2440   4.2958767008e+01   1.4600813037e+01    0.2816548    0.2360411 -68.65 0.0009156518    1.618    0.382
       229  -8.6538    151.8655    160.7571   4.8660341967e+01   1.9192906997e+01    0.2653823    0.1956025 -79.54 0.0009515769    2.142    0.533
       230  -8.6989     60.7321    160.1190   7.2455032685e+01   3.4457992460e+01     0.367342    0.1935877  68.56  0.001319653    2.519    0.603
       231  -8.7892    227.3520    159.0570   3.3426491029e+01   6.2657596620e+00    0.2513159     0.175312 -47.85  0.001167409    1.729    0.422
       232 -10.0729    249.3127    157.3580   2.9669324939e+01   3.1978052914e+00    0.3911076     0.319776  33.63  0.001701849    1.425    0.298
       233  -9.3128    241.9246    154.1697   3.0152538853e+01   4.7401960228e+00     0.319415    0.2463017  82.75  0.001742361    2.724    0.633
       234  -7.5918    242.2741    159.6985   3.1180821513e+01   3.8947831302e+00    0.1100275   0.09112345 -46.91 0.0003030748    1.536    0.349
       235  -8.5422    237.0046    158.7267   3.1808681266e+01   4.8231815642e+00    0.1707121    0.1451498  -8.51 0.0004754592    1.057    0.054
       236  -8.1730    128.0022    158.7849   5.4024186248e+01   2.3997411590e+01    0.2394151    0.1608641  62.46 0.0006531252    1.928    0.481
       237  -9.4673    105.8139    157.8416   5.9611317273e+01   2.8138332627e+01    0.4641742    0.2984713  71.18  0.001213527    2.264    0.558
       238  -8.4719    196.3361    157.7573   3.8670271350e+01   1.1651375890e+01    0.2258727    0.1544922 -38.27 0.0005717696    1.430    0.301
       239  -7.9719    187.8920    157.7646   4.0315241738e+01   1.3149111218e+01    0.1711741    0.1661747 -80.46 0.0006370753    1.301    0.231
       240  -9.1034    167.3871    156.9916   4.4417018847e+01   1.7044383554e+01    0.2966003    0.2448833 -72.20 0.0007172264    1.639    0.390
       241  -8.4442    218.0546    156.5463   3.4487443357e+01   8.1499061302e+00    0.2430429    0.1610351 -44.74 0.0007504573    1.641    0.391
       242  -9.2999     81.3683    155.0296   6.5868331564e+01   3.2770377728e+01    0.4451556    0.3588572 -82.29  0.001787441    1.299    0.230
       243  -8.8769    157.5097    155.8925   4.6382164404e+01   1.9106563343e+01    0.2613111    0.2260896  76.79 0.0007404023    1.480    0.324
       244  -9.1672    119.6054    155.0761   5.5453254782e+01   2.6335341535e+01    0.3739519    0.2615642  83.34   0.00139975    2.181    0.542
       245  -8.8921     49.9226    155.1544   7.4897195426e+01   3.7027830228e+01    0.4479136    0.1989372  57.51  0.001467927    2.694    0.629
       246  -8.1989    204.5530    155.0872   3.6584866255e+01   1.0666869751e+01    0.1996962    0.1226725 -36.64 0.0004687605    1.538    0.350
       247  -8.4055    144.4579    154.5865   4.9151133297e+01   2.1832155898e+01    0.2719889    0.2025185 -87.48 0.0009187455    2.091    0.522
       248  -8.0380    239.8707    163.8109   3.2348511614e+01   3.6619492281e+00    0.1603153    0.1343139 -35.95  0.000455977    1.341    0.254
       249  -9.5887    132.8760    152.7373   5.1604864103e+01   2.4402747803e+01    0.4478153    0.3066299  69.96  0.001224935    2.160    0.537
       250  -8.6492    133.7926    148.0112   5.0401534713e+01   2.5249275070e+01    0.2884324    0.2066564 -26.12 0.0007931555    1.677    0.404
       251  -8.9791     67.8104    153.5369   6.9512313134e+01   3.5111522435e+01    0.3817501    0.2099747  67.36  0.001408858    2.447    0.591
       252  -9.6903     29.8412    150.9183   8.0228973373e+01   4.0252793083e+01    0.4363234    0.1929068  57.32  0.001722455    2.444    0.591
       253  -8.9229    189.4680    150.0487   3.8391534695e+01   1.4225382205e+01    0.2562335    0.2146489 -59.94 0.0006931204    1.500    0.333
       254  -8.0343    182.4852    150.9736   3.9981701137e+01   1.5351253783e+01    0.2068344    0.1339519 -43.02 0.0009812992    1.562    0.360
       255  -8.2033    162.7952    150.7037   4.4109618232e+01   1.9123624195e+01    0.2603868    0.1941519 -74.40  0.001065184    2.032    0.508
       256  -8.6071     98.0704    150.4518   6.0379370127e+01   3.1176984839e+01    0.2776448    0.2049021 -83.10 0.0007042629    1.634    0.388
       257  -9.4608    248.8654    149.0684   2.8116746205e+01   4.4301288151e+00    0.2872407    0.1599427 -31.95 0.0007875135    1.504    0.335
       258  -8.9322    243.0789    149.8118   2.9116121831e+01   5.1948009754e+00    0.2290551    0.1513393 -30.37 0.0009581746    1.282    0.220
       259  -8.3089    212.9767    149.5269   3.3927349654e+01   1.0124246289e+01    0.1975652    0.1618791 -25.16 0.0003621905    1.100    0.091
       260  -8.5120    198.7601    148.9566   3.6378350575e+01   1.2723476636e+01    0.1980778    0.1787204 -50.67 0.0006433442    1.300    0.231
       261  -8.6305     91.3081    148.6694   6.1957754041e+01   3.2727731443e+01    0.3096831    0.2151007  58.15 0.0006910668    1.561    0.360
       262  -9.4206     88.4790    144.9770   6.2097795028e+01   3.4080114340e+01    0.3948568    0.2576935  89.27  0.001531414    2.134    0.531
       263  -9.5753     39.9753    147.8038   7.6912503928e+01   3.9988534815e+01    0.4886787    0.2273768  58.70  0.001914923    2.482    0.597
       264  -8.9395    233.5415    147.2594   3.0061796691e+01   7.0610071484e+00    0.2883816    0.1104942 -33.63 0.0008718011    2.327    0.570
       265 -10.2660     55.0732    144.7035   7.1979142866e+01   3.8996816978e+01    0.7900186    0.3591258  65.69  0.002641833    3.669    0.727
       266  -8.3333    223.0416    146.5664   3.1605463123e+01   8.8871875989e+00    0.1971077    0.1539308 -25.96 0.0003847158    1.125    0.111
       267 -10.3615    148.7287    144.9277   4.6097181357e+01   2.3010002694e+01    0.5677619    0.4002545 -85.16  0.001597441    2.479    0.597
       268 -10.0432    106.4238    144.1549   5.6846407116e+01   3.1204636944e+01    0.6800969    0.4093929  74.97  0.002132909    3.125    0.680
       269  -8.5303     77.9776    146.7508   6.5472495283e+01   3.5299705162e+01    0.2570109    0.1843139 -85.75 0.0007528984    1.585    0.369
       270  -8.9378     13.3008    146.0959   8.4586898924e+01   4.2891154494e+01    0.3218421     0.177022  70.92  0.001141375    1.785    0.440
       271  -7.7720    206.5185    146.4616   3.4427394780e+01   1.1756440888e+01    0.1339417    0.1223654 -19.70 0.0008078452    1.081    0.075
       272  -8.1868    175.5036    145.9399   4.0341232174e+01   1.7599551652e+01    0.2085764    0.1377456 -42.75 0.0004943795    1.519    0.341
       273  -9.5855    139.0700    144.9042   4.8428834663e+01   2.4900037796e+01    0.4074671    0.2980933  87.24  0.001352581    2.139    0.532
       274  -9.1144    240.2683    144.9749   2.8568365397e+01   6.3346522814e+00    0.1824205    0.1355921 -25.32 0.0004355536    1.132    0.117
       275  -9.6707    243.3376    141.0284   2.7315209940e+01   6.4318608280e+00    0.4183545    0.1306178 -31.21  0.001590983    3.103    0.678
       276  -8.9312    247.1853    143.5396   2.7261930764e+01   5.4726081203e+00    0.2244482    0.1438634 -31.69 0.0005301437    1.308    0.235
       277  -8.8744    165.4058    143.7785   4.2036249480e+01   1.9970713285e+01    0.2582411    0.2279598  85.82 0.0007418534    1.442    0.307
       278  -9.6441    124.9260    142.3910   5.1487516966e+01   2.8178613920e+01    0.4990683    0.3472479 -88.95  0.001649692    2.303    0.566
       279  -7.7645    194.3171    143.6876   3.6090131091e+01   1.4448680801e+01    0.1323986    0.1124514 -76.28 0.0003077098    1.643    0.391
       280 -10.4588     69.5393    141.0254   6.7021589105e+01   3.7964768801e+01    0.5342728    0.3384923  80.95   0.00181917    2.062    0.515
       281  -8.3785    182.0356    141.4964   3.8022881880e+01   1.7168028918e+01    0.2575041    0.1923124 -54.50 0.0005625263    1.565    0.361
       282  -9.2085      2.9409    141.8050   8.7268384669e+01   4.4687705198e+01    0.3230199    0.1603429  69.90  0.001524092    1.958    0.489
       283  -7.8894    250.4903    140.5140   2.6186171336e+01   5.4018431358e+00    0.1242653    0.1005907 -21.04 4.370059e-05    1.001    0.001
       284  -9.8529     23.5713    138.0307   8.0778064578e+01   4.4052525458e+01    0.5290222    0.2155787  60.48  0.001826557    3.003    0.667
       285  -7.7662    218.5329    138.4789   3.0653622224e+01   1.0941069566e+01    0.1332919    0.1170476 -20.73 0.0003849131    1.027    0.026
       286  -8.3534    207.3495    137.7933   3.2420512181e+01   1.3054585254e+01    0.2481119    0.1938457 -55.81 0.0008511529    1.557    0.358
       287  -8.7055    197.6433    137.4704   3.4106198773e+01   1.4910249317e+01    0.2666601    0.1938364 -57.41  0.001117741    1.738    0.425
       288  -8.7935    172.0638    137.6728   3.9237550972e+01   1.9836465631e+01    0.2698079    0.1987497 -56.48 0.0008225652    1.596    0.373
       289  -8.4723    149.6178    136.0387   4.3909594825e+01   2.4672687763e+01    0.3553017    0.2115296  -6.85  0.001097395    4.141    0.759
       290  -8.4084    246.9479    129.9092   2.4530777952e+01   7.4813463590e+00    0.2576065    0.1466235 -42.80 0.0008286471    1.663    0.399
       291  -8.9904    248.4233    134.8021   2.5324857105e+01   6.5393726341e+00    0.2988087    0.1478581 -36.09 0.0009732487    1.694    0.410
       292  -8.8762    250.8769    129.7839   2.3966070917e+01   6.8766456147e+00    0.4492855   0.09929812 -32.56  0.001431637    4.415    0.773
       293  -7.2450    192.3067    136.6297   3.4924568178e+01   1.6071488786e+01    0.1406866    0.1116247 -70.25 0.0007034103    1.759    0.432
       294  -8.2748    162.6520    136.1696   4.0943339279e+01   2.2012758656e+01    0.2247233    0.1832901 -56.91 0.0006384423    1.375    0.273
       295  -9.1470     38.9765    135.9983   7.5741986742e+01   4.3073210846e+01       0.2829    0.1810396  64.14 0.0008410719    1.659    0.397
       296  -7.6733    187.7334    135.3695   3.5525600675e+01   1.7179897182e+01     0.140122    0.1109613 -65.92 0.0006990614    1.661    0.398
       297 -10.2531     83.4798    133.0710   6.1322241305e+01   3.7805704160e+01    0.5604801    0.3230958 -72.01   0.00165504    2.101    0.524
       298  -8.7423     56.8475    134.8480   6.9933146409e+01   4.1256785321e+01    0.2829834    0.1739503  -0.32  0.001154231    2.682    0.627
       299  -8.6761    237.5333    133.4916   2.6620848827e+01   8.4814770245e+00    0.2256868    0.1000862 -43.52  0.000743447    2.221    0.550
       300  -7.8567    231.5815    133.8230   2.7585283458e+01   9.4248291843e+00    0.1764985    0.1079219 -41.47 0.0003800695    1.540    0.351
       301  -8.7934    112.8670    133.0774   5.2725208245e+01   3.2598516967e+01    0.3339417    0.2416953  76.84 0.0009981301    1.902    0.474
       302 -10.1390    132.0887    131.1284   4.7120751276e+01   2.9266526127e+01    0.4608559    0.3253732 -80.78  0.001149851    2.163    0.538
       303  -9.1092    143.1196    131.5899   4.4452510472e+01   2.6925641972e+01     0.329259    0.2597676 -74.25 0.0008590662    1.620    0.383
       304  -8.1798    204.5064    130.0094   3.1207120534e+01   1.4894887598e+01    0.1901789    0.1117734 -56.32 0.0008081423    2.380    0.580
       305  -8.1452    192.7189    129.9930   3.3353207684e+01   1.7168040878e+01    0.2024301    0.1663716 -35.57 0.0003662731    1.154    0.133
       306  -9.0716    168.2933    129.3289   3.8126768512e+01   2.2204807510e+01    0.2876613    0.2371391 -82.64 0.0007282567    1.618    0.382
       307  -9.4521    152.8958    128.8931   4.1479784567e+01   2.5473519049e+01    0.4069283     0.273917 -65.10   0.00111155    2.030    0.507
       308 -10.0616     99.2389    127.2520   5.5356377273e+01   3.6507240394e+01     0.760704     0.467775 -74.94  0.002687843    2.307    0.566
       309  -9.4805     73.2165    129.3826   6.3792528107e+01   4.0335817455e+01    0.3462835    0.2343822  78.11 0.0009910072    1.905    0.475
       310  -9.8833     12.9483    128.9946   8.3192274288e+01   4.7181150807e+01    0.4986049    0.2242219  64.15  0.002029576    2.532    0.605
       311  -8.5794    179.3210    133.6702   3.6819301090e+01   1.9147873457e+01    0.2584617    0.1679455 -49.57 0.0007252968    1.661    0.398
       312  -7.6618    220.5155    129.5435   2.8406010487e+01   1.2021109760e+01    0.1334287    0.1175836 -24.17 0.0001308545    1.024    0.024
       313  -8.2952    211.5062    128.9908   2.9771334406e+01   1.3753749850e+01    0.2080496    0.1218429 -39.36 0.0007936825    1.571    0.364
       314  -7.6586    186.2917    129.3260   3.4433339352e+01   1.8557514922e+01    0.1458097    0.1094865  -0.95 0.0003021692    1.618    0.382
       315  -8.9577     50.3570    128.6849   7.1026285765e+01   4.3640904486e+01     0.320004    0.2033555  68.10  0.001473879    1.844    0.458
       316 -10.5198     44.2613    123.1255   7.2155594872e+01   4.5780926604e+01    0.9768953    0.4651659  81.86  0.003194292    3.820    0.738
       317 -10.5563     60.3038    125.1640   6.7167322401e+01   4.3258347683e+01     0.764308    0.4144192  70.59  0.002810163    2.959    0.662
       318  -9.8867    117.8159    124.9462   4.9494307555e+01   3.3509461597e+01    0.5599989    0.3837786  76.38  0.001389891    2.240    0.554
       319  -7.6275    228.2942    125.3366   2.6277110042e+01   1.1302749354e+01    0.1331591   0.09524442  -3.52 0.0003896625    1.646    0.393
       320  -8.9655    179.1043    124.5330   3.4742514908e+01   2.0893452461e+01    0.2798738    0.2145651 -64.58 0.0005081626    1.648    0.393
       321 -10.2063     28.8127    122.5030   7.7263341879e+01   4.7528382564e+01    0.7175183    0.3111264  67.28  0.002520719    3.564    0.719
       322  -7.9907    188.5708    123.7786   3.2707204598e+01   1.9102167384e+01    0.1966621    0.1293338 -47.96 0.0007792173    1.577    0.366
       323  -9.4886    158.6564    121.3544   3.8344298895e+01   2.5789494945e+01    0.3787916    0.2824996 -79.65  0.001015085    1.965    0.491
       324  -7.9307    202.9883    121.9834   2.9657473687e+01   1.6551203646e+01    0.1702778    0.1500065 -27.88 0.0004053183    1.039    0.037
       325  -7.9998    194.7166    121.5302   3.1032944455e+01   1.8265292576e+01     0.257989    0.1188599 -38.30 0.0007126115    2.029    0.507
       326  -8.7526    171.9711    121.4362   3.5469355027e+01   2.2958674219e+01     0.264841     0.201256 -55.30 0.0005275871    1.459    0.315
       327  -9.4048     71.2407    119.8946   6.2546191627e+01   4.3016719634e+01    0.3674069    0.2377506  84.33  0.001193185    2.188    0.543
       328  -9.8236    141.5640    118.3450   4.1643455874e+01   3.0053773690e+01    0.4779134    0.3049972 -64.09  0.001228366    2.124    0.529
       329  -9.8076    130.7551    118.3329   4.4396030678e+01   3.2344901719e+01    0.4498608    0.3015774 -79.98     0.001428    2.519    0.603
       330  -9.6394      3.1686    117.3060   8.5291302015e+01   5.0756465137e+01     0.513492    0.2008307  64.10  0.002029364    3.111    0.679
       331  -7.7585    231.6689    117.3418   2.4041295249e+01   1.1940839216e+01    0.1320683   0.09562743 -59.97 0.0007051259    1.749    0.428
       332  -9.9159    109.4180    113.9653   4.9218337506e+01   3.7700923855e+01    0.5791383    0.3816239 -82.70  0.001318349    2.536    0.606
       333  -8.2554    185.6451    115.8337   3.1380503567e+01   2.1133812003e+01    0.2053832     0.126318 -46.62  0.000358031    1.639    0.390
       334  -8.6895     59.0415    115.1846   6.5701528629e+01   4.5966562283e+01    0.3482797    0.2071734 -20.52  0.001338447    2.839    0.648
       335  -8.1942    193.0193    115.0053   2.9805649234e+01   1.9755149314e+01    0.2191837    0.1672238 -64.04 0.0005128498    1.624    0.384
       336  -8.4968     83.7905    122.4522   5.9037019398e+01   4.0374481732e+01    0.2759512     0.210576 -56.55  0.001047782    1.293    0.227
       337 -10.0278     92.8604    112.6535   5.3925586892e+01   4.1173997867e+01    0.5261531    0.3552518 -75.22  0.001362012    1.928    0.481
       338  -9.9091     79.1796    112.5136   5.8313797590e+01   4.3593485862e+01    0.5658731    0.3692961  81.91  0.001821479    2.380    0.580
       339  -9.7973    121.8717    112.3408   4.5267743678e+01   3.5527337515e+01    0.3585464    0.2860311 -79.45 0.0005114125    1.559    0.358
       340  -8.6743    174.8748    111.6487   3.2472568455e+01   2.4186593313e+01    0.2951642    0.1814745 -54.09 0.0006906206    1.879    0.468
       341  -8.5865    159.1352    111.6727   3.5821580320e+01   2.7607608308e+01    0.2561485    0.2011478 -52.29 0.0005871172    1.328    0.247
       342  -9.7783     14.5214    111.2876   8.0769201564e+01   5.1554224623e+01    0.3805257    0.1805474  65.27  0.001245543    2.610    0.617
       343  -9.7557    133.5416    108.9298   4.1262153648e+01   3.3780240432e+01     0.561769    0.2860086 -47.54  0.001698804    1.997    0.499
       344 -10.1015     66.4164    109.3362   6.1926182781e+01   4.6392032567e+01    0.6261656    0.3045275 -64.53  0.002202529    2.177    0.541
       345  -8.7733    189.3801    108.1774   2.8821214459e+01   2.1715004550e+01    0.2970613    0.1926864 -68.33 0.0006614279    2.401    0.584
       346  -9.1940      3.2979    109.1187   8.4482036185e+01   5.2805020962e+01    0.2399269    0.1348546  32.85  0.001261516    1.913    0.477
       347 -10.8812    248.4400    107.6860   1.9691545627e+01   1.0461495203e+01    0.5343136    0.2206638 -38.23  0.002497202    1.980    0.495
       348 -10.8040     22.7018    102.5562   7.6603110256e+01   5.3159550267e+01    0.6985518    0.3627415  66.63  0.002047655    2.547    0.607
       349  -9.6128    150.5859    103.0047   3.5504800880e+01   3.1223204494e+01    0.4941781    0.2792771 -58.21  0.001160912    2.333    0.571
       350  -9.2948    139.7625    104.1928   3.8424271897e+01   3.3406288120e+01    0.3918684    0.2668993 -66.41  0.000816677    1.953    0.488
       351  -8.5576     93.4328    104.5483   5.1710318173e+01   4.2998203678e+01    0.3110876    0.1994444   4.17  0.001121077    2.895    0.655
       352  -8.1358    167.2260    114.1546   3.4685127942e+01   2.5363729817e+01    0.2063339    0.1776242 -71.33 0.0005549378    1.352    0.260
       353  -8.3705    166.8405    104.0643   3.2199012633e+01   2.7372027305e+01    0.2311225    0.1977856 -64.61 0.0006295037    1.285    0.222
       354 -10.0827    128.5098    101.8156   4.0673687383e+01   3.6395422902e+01    0.3912673     0.306611 -82.94 0.0009055673    1.664    0.399
       355 -10.7027    109.1835     98.9268   4.5321660089e+01   4.1169851538e+01    0.8863525    0.4871973  65.80  0.001825417    3.369    0.703
       356  -8.7946    107.3653     92.7315   4.4113077071e+01   4.2922474216e+01    0.4688162    0.2623737  25.85  0.001681533    2.630    0.620
       357  -8.8176      6.9164    102.8046   8.2513237785e+01   5.4191029587e+01    0.2537439    0.1392178  70.63  0.001023652    2.037    0.509
       358  -7.9033    175.6216    101.8626   2.9847994384e+01   2.5828773061e+01    0.2166225     0.129521 -48.57  0.000613086    1.722    0.419
       359  -8.2857    159.7058    100.6407   3.2823468610e+01   2.9625867481e+01     0.261654    0.1735212 -56.83 0.0007931542    1.740    0.425
       360  -9.1233     82.1684     99.8831   5.4215928342e+01   4.6157059703e+01    0.3581119    0.2572234 -84.17  0.001058456    1.886    0.470
       361  -9.1387     95.0494     96.8854   4.9138930558e+01   4.4478038215e+01    0.3184532    0.2473118 -72.20 0.0006823873    1.521    0.343
       362 -10.0393     64.0129     95.7692   5.9608027614e+01   5.0118549770e+01    0.5878088    0.3706357  84.87  0.001639107    2.671    0.626
       363  -8.5260      7.3550     97.2906   8.1692022902e+01   5.5554757001e+01    0.1368382   0.08258034 -42.83 0.0007027762    1.681    0.405
       364  -8.1526    130.6234     96.6994   3.8696518517e+01   3.7002698975e+01    0.1623516    0.1236771  10.26   0.00020442    1.760    0.432
       365  -8.2240    165.0396     94.0780   2.9933573833e+01   2.9645539242e+01    0.2371374     0.178399 -70.17 0.0005480548    1.651    0.394
       366  -8.1940    176.4611     93.0404   2.7391132625e+01   2.7228380562e+01    0.2232418    0.1381951 -41.49  0.000451254    1.544    0.352
       367  -9.1642    139.0751     92.0403   3.5230639396e+01   3.6030341262e+01    0.3664011    0.2636603 -72.65 0.0007489928    1.882    0.469
       368 -10.0173    123.7186     91.0535   3.8925144444e+01   3.9725012624e+01    0.5734182    0.4271032  26.75      0.00108    1.571    0.363
       369  -8.9137     47.3580     91.8816   6.5025086999e+01   5.3357873364e+01    0.4449432    0.1993812  15.78  0.001586929    3.297    0.697
       370  -9.4412     35.1069     90.0538   6.9511348526e+01   5.5194233482e+01    0.4532288    0.2653444  87.54   0.00142842    2.375    0.579
       371  -9.4204      4.9656     91.7428   8.1923533957e+01   5.7077649380e+01    0.3232664    0.1561041  50.93  0.001142781    2.423    0.587
       372  -8.9494    109.9718    106.8944   4.7241120333e+01   3.9210877885e+01    0.3816966    0.2115597  20.58  0.001242198    3.288    0.696
       373  -8.9120     23.1171     89.9570   7.4361629709e+01   5.6317313427e+01    0.2994626    0.1965612   0.46   0.00118483    1.868    0.465
       374  -8.5366    150.5110     88.7941   3.1611327044e+01   3.4004928305e+01    0.3565538    0.2169838  71.95  0.001372834    2.374    0.579
       375  -9.9106     86.5138     85.8501   4.8820696858e+01   4.8638529688e+01    0.6496047    0.4187243 -61.85  0.001787835    1.809    0.447
       376  -7.8732    164.2029     86.9308   2.8155216195e+01   3.1144330470e+01    0.1987171    0.1161627 -39.33 0.0003894775    1.663    0.399
       377  -8.3506     65.1180     87.3481   5.7002708359e+01   5.1990707465e+01    0.2860317    0.1429614  23.45   0.00107849    2.560    0.609
       378  -8.0395     79.9495     85.9649   5.1151059191e+01   4.9825045767e+01     0.176051    0.1729969  -1.20 0.0004083804    1.023    0.023
       379  -9.7206     48.7301     84.3700   6.2662157700e+01   5.5035872748e+01    0.5435988    0.3196493  63.10  0.002037202    2.651    0.623
       380  -8.2384    157.7601     83.9517   2.8656503149e+01   3.3198429543e+01     0.211633    0.1891319 -41.56 0.0004473952    1.102    0.093
       381  -9.7523    104.8079     82.2052   4.1744312946e+01   4.5736455031e+01    0.7001281    0.3050441 -46.55    0.0020989    2.325    0.570
       382  -9.0702    140.8850     82.4529   3.2006129607e+01   3.7474098963e+01    0.3881543    0.2572921 -54.94  0.001045335    1.683    0.406
       383  -8.0163    157.8396     91.7948   3.0832245817e+01   3.1731519183e+01    0.2078683    0.1758325 -68.66 0.0004666819    1.308    0.236
       384  -9.5742     24.6123     80.4955   7.1914909167e+01   5.8552816758e+01      0.45351    0.2601421  84.06  0.001474258    2.458    0.593
       385  -9.3355      9.7971     80.8989   7.8381262084e+01   5.9510602739e+01    0.3739561    0.1852771  56.41  0.001453295    2.661    0.624
       386  -8.2014    150.4727     80.4951   2.9233818515e+01   3.5559871840e+01    0.2659315    0.1342182 -48.51 0.0007790385    2.118    0.528
       387  -8.7196     74.9259     80.4940   5.1349886310e+01   5.1970276774e+01    0.2813787    0.2089556 -70.58 0.0007978495    1.636    0.389
       388 -10.4139     45.6557    102.0008   6.7863207322e+01   5.1019596023e+01     0.824477    0.4276883  68.92  0.002888377    3.508    0.715
       389  -8.5420    119.3414     80.0609   3.6823518300e+01   4.2960746347e+01     0.270755    0.2171378  85.36 0.0008840176    1.564    0.361
       390  -8.2541    166.9797     79.3207   2.5486411790e+01   3.1835967063e+01    0.2013789    0.1916772 -68.53 0.0004921246    1.037    0.036
       391  -8.1364    184.3739     77.7836   2.1921157365e+01   2.8021779861e+01    0.2017363    0.1351549 -24.44 0.0007030295    1.653    0.395
       392  -7.8515    157.4812     76.4778   2.6571554276e+01   3.4599768500e+01     0.152619    0.1420326 -72.19 2.010595e-05    1.086    0.079
       393  -9.2464    128.0160     75.0285   3.2929233989e+01   4.1927738162e+01    0.3384472    0.2483555 -59.62 0.0006848871    1.562    0.360
       394  -8.3520    140.3301     75.0449   2.9909933780e+01   3.8987596426e+01    0.2221297    0.1887533 -47.57 0.0007843029    1.184    0.155
       395  -9.8747     63.1875     73.5204   5.3736501316e+01   5.5522030857e+01    0.4489177    0.2920124 -69.28  0.001197012    1.994    0.498
       396  -9.5764     82.4773     72.3957   4.6033938043e+01   5.2375192123e+01    0.4405524    0.3059974 -73.14 0.0008967489    2.112    0.527
       397  -8.2772    163.4776     73.1056   2.4400175073e+01   3.3737625469e+01     0.229697    0.1426253 -38.88  0.001020476    1.569    0.363
       398  -7.8265    151.5561     72.7933   2.6726170663e+01   3.6676202468e+01    0.2136894    0.1377923 -48.60 0.0005178439    1.595    0.373
       399  -8.3681    115.7125     72.4441   3.5419041765e+01   4.5292380902e+01    0.2747844    0.1815968 -51.26 0.0006280771    1.633    0.388
       400  -9.0368    105.9515     71.4984   3.7963714196e+01   4.7683287558e+01    0.2836638    0.2100037 -59.07 0.0007094609    1.555    0.357
       401  -9.0659     95.1548     70.9934   4.1207251221e+01   5.0118130770e+01    0.3414917    0.2326592 -56.61  0.000935669    1.678    0.404
       402  -9.5226     51.5351     69.5264   5.7346590552e+01   5.8176997159e+01    0.4537931    0.2698253 -76.57  0.001444411    2.729    0.634
       403  -8.5955    147.0804     68.0174   2.6239736788e+01   3.8595243286e+01    0.2334668    0.2131243 -65.23 0.0006592005    1.113    0.102
       404  -8.8743    121.6171     65.6389   3.1568394989e+01   4.5188928855e+01    0.3007398    0.2223677 -56.98 0.0007310295    1.522    0.343
       405  -8.5627     37.3369     64.2704   6.2127784534e+01   6.1190105154e+01    0.2582437    0.1871311  71.73  0.001118737    1.991    0.498
       406  -8.8228    110.2919     63.6047   3.4011711720e+01   4.8215964205e+01    0.3020858    0.2378431 -78.53 0.0007068266    1.647    0.393
       407  -7.9522    158.3395     61.7624   2.2053090310e+01   3.6862751763e+01    0.1985259    0.1397985 -26.18 0.0004604422    1.555    0.357
       408  -9.2252     97.6917     60.5366   3.6763782656e+01   5.1627648595e+01    0.3031935    0.2525963  60.17 0.0009586629    1.286    0.222
       409  -9.6055     73.3481     59.3753   4.4933021511e+01   5.6814328340e+01    0.4087134    0.2505093 -51.16  0.001377417    1.741    0.426
       410  -8.9857     16.8163     69.9433   7.3197720058e+01   6.1740464946e+01    0.2494788    0.1807254  71.48 0.0008741667    1.702    0.413
       411  -8.0185     89.1463     59.2304   3.9117344883e+01   5.3711116861e+01    0.1990865    0.1768403 -81.64 0.0004471745    1.357    0.263
       412  -8.7789    138.5188     65.7741   2.7445780687e+01   4.1079048266e+01    0.3229896    0.2188746 -63.69 0.0008095571    1.849    0.459
       413  -9.6862     23.5098     56.2770   6.6540278833e+01   6.4430865301e+01    0.4519917    0.2797282  79.89  0.002005313    2.823    0.646
       414  -9.2928      7.5095     56.8937   7.4912330322e+01   6.5436046828e+01    0.3227605     0.204107  81.55  0.001237158    2.070    0.517
       415  -8.4065    130.6863     57.1844   2.6474948714e+01   4.4460901605e+01    0.2349934    0.1806362 -56.35  0.001136461    1.418    0.295
       416  -7.8665    139.9890     55.9704   2.3968903310e+01   4.2352360311e+01    0.1762931    0.1703557 -53.66 0.0003537386    1.051    0.048
       417  -8.9432    119.1313     55.2544   2.8683412973e+01   4.7604603327e+01    0.3957377     0.217178 -45.71  0.001197247    1.942    0.485
       418  -8.6578     44.0620     55.5339   5.6165913014e+01   6.2318221215e+01    0.2523195    0.1903028 -67.99 0.0008918757    1.589    0.371
       419  -9.3115     62.7768     53.8871   4.7172573424e+01   5.9811055110e+01    0.4990229    0.2035594 -52.53  0.001788405    2.857    0.650
       420  -8.7499     54.2458     53.7847   5.0845157978e+01   6.1223302181e+01    0.3111202    0.1851993 -63.60 0.0009752739    2.325    0.570
       421  -8.7921    169.9228     53.3404   1.7507213316e+01   3.5298251889e+01    0.2493912    0.2075236 -25.88 0.0003206484    1.292    0.226
       422  -8.3936    105.9286     52.9686   3.1502468256e+01   5.1126645754e+01    0.2351248    0.1823884 -76.03  0.000610254    1.703    0.413
       423  -9.4021     92.5252     50.5425   3.4734438417e+01   5.4581865013e+01    0.3784014    0.2520495 -54.85 0.0009708612    1.831    0.454
       424  -8.2563    144.6471     48.7756   2.0662427363e+01   4.2297889030e+01    0.2079894    0.1295792 -43.42 0.0006016872    1.625    0.385
       425  -7.9589    129.8439     48.8328   2.3837137805e+01   4.6008077172e+01    0.2065891    0.1718831 -69.21 0.0005180551    1.330    0.248
       426  -7.9450    120.5480     47.4946   2.5578845788e+01   4.8519277513e+01    0.1468945    0.1420334  62.35 7.404859e-05    1.013    0.013
       427  -8.2666    112.1461     46.8388   2.7505316358e+01   5.0667794138e+01    0.2227861    0.1969962 -77.23 0.0007767469    1.275    0.216
       428  -9.1292     82.1715     46.3505   3.6632398540e+01   5.7534897783e+01    0.3047095    0.2207568 -49.92  0.000595101    1.551    0.355
       429  -8.3705     45.1601     44.6344   5.1591091312e+01   6.4442805827e+01    0.2249643    0.1779066 -54.27 0.0006210808    1.382    0.277
       430  -8.6309     16.6263     44.5695   6.6711962978e+01   6.7635330253e+01    0.2325836    0.1852885 -80.00 0.0006906069    1.512    0.338
       431  -8.2562    132.6956     42.5720   2.1046394691e+01   4.6227482490e+01    0.2523084    0.1344154 -31.72 0.0008473166    1.962    0.490
       432  -9.2955     69.6006     41.2971   3.9300852033e+01   6.0943827348e+01    0.3849418    0.2685556 -59.14  0.001311455    1.948    0.487
       433  -8.8673     58.3227     42.2410   4.4457895689e+01   6.2830503028e+01    0.2967685    0.2043003 -53.49  0.001031653    1.703    0.413
       434  -9.3075      5.3792     42.0651   7.2424707613e+01   6.8941094536e+01    0.2763303    0.2084896  80.97  0.001161901    1.727    0.421
       435  -8.8219    105.8503     41.2736   2.7119780794e+01   5.3043058400e+01    0.2484571    0.1936585 -48.40 0.0005885585    1.401    0.286
       436  -7.7832    140.2193     41.0233   1.8976938959e+01   4.4541043667e+01    0.1871682    0.1202567 -30.97 0.0005214796    1.633    0.388
       437  -8.3481     36.7975     40.7471   5.4279048409e+01   6.6356028550e+01    0.1686551      0.15807  55.84 0.0007072655    1.351    0.260
       438  -8.5445     95.8532     38.1007   2.8763398048e+01   5.5871772830e+01    0.2199023    0.1940702 -69.33  0.000579531    1.336    0.251
       439  -8.1290     80.8650     36.8155   3.3138472500e+01   5.9402272774e+01    0.1865552    0.1715011 -82.96 0.0004028241    1.333    0.250
       440  -9.1941     26.2536     35.3663   5.7908870141e+01   6.8682184256e+01    0.2619198    0.2158393 -72.76   0.00089671    1.593    0.372
       441  -7.9913    125.9859     35.4903   1.9988931488e+01   4.8912789619e+01    0.2120738    0.1371573  61.71 0.0003358844    1.466    0.318
       442  -8.7786    111.6720     33.9553   2.2750999307e+01   5.2693285149e+01    0.3195114    0.1629053 -37.36 0.0008251798    2.030    0.507
       443  -8.6412    119.3710     32.7548   2.0454604645e+01   5.0943840347e+01    0.2665973    0.1310037 -35.01 0.0004883977    2.088    0.521
       444  -8.5938     60.8927     32.4885   3.9027728501e+01   6.4085544986e+01    0.2387374    0.1876627 -51.74 0.0006474164    1.540    0.351
       445  -8.9799     48.5394     32.9316   4.4920383149e+01   6.6142846397e+01    0.2223911    0.2109215  85.00 0.0006531504    1.417    0.294
       446  -8.5874     72.2592     31.1532   3.3794773649e+01   6.2083748564e+01    0.2340426    0.1843432  82.87 0.0005733466    1.896    0.473
       447  -8.7073     13.0189     30.2510   6.3897934627e+01   7.0963446217e+01    0.2805656    0.1730101 -70.47  0.001198394    2.065    0.516
       448  -8.4889    101.8741     29.1869   2.3392575247e+01   5.5721001728e+01    0.2170116    0.1901864 -82.22 0.0006700708    1.316    0.240
       449  -7.9268     42.2997     29.6703   4.6549254189e+01   6.7688223056e+01    0.1201379     0.108046  89.22 0.0004337025    1.643    0.391
       450  -8.9843     81.6793     27.3343   2.8681221375e+01   6.0639440937e+01    0.2745573    0.2210426 -73.03 0.0008923126    1.710    0.415
       451  -8.7939      3.9538     27.5135   6.8797617547e+01   7.2155505593e+01    0.2105797    0.1621387 -76.06 0.0008150687    1.558    0.358
       452  -9.0444     91.9612     26.4885   2.5055976168e+01   5.8423942344e+01    0.2651757    0.1892559 -47.78 0.0008581629    1.624    0.384
       453  -8.4582    209.2819     24.9456   4.9097413369e+00   2.9618307219e+01    0.1734302    0.1491776 -51.12  0.001097103    1.093    0.085
       454  -8.5714    121.0039     21.5073   1.5856166666e+01   5.1919222438e+01    0.2050521    0.1907299 -26.84 0.0005282619    1.167    0.143
       455  -8.4075    104.4880     22.5319   1.9973689828e+01   5.5926025238e+01    0.1398824    0.1308312  61.77 0.0002197735    1.053    0.050
       456  -8.8445     63.7294     21.0575   3.2327094981e+01   6.5283218434e+01    0.2819248    0.1971793 -52.22 0.0009482848    1.920    0.479
       457  -8.8268     48.6018     21.5759   3.9346182247e+01   6.8015480807e+01    0.2296897    0.2160794 -28.67 0.0007168546    1.248    0.199
       458  -7.7097     34.3517     22.6971   4.7466919221e+01   7.0052702959e+01    0.1170876    0.1042327  69.54 0.0007039867    1.702    0.412
       459  -9.0664     74.0866     19.1832   2.7477119142e+01   6.3383076171e+01    0.2709186    0.1873534 -35.83 0.0006916788    1.560    0.359
       460  -8.7597     87.7881     17.2138   2.2148857923e+01   6.0544935760e+01    0.2097172     0.166501 -50.89 0.0006299033    1.495    0.331
       461  -8.3100    112.7918     16.6047   1.5654329425e+01   5.4534797851e+01    0.1902564    0.1274659  76.49 0.0003899677    1.555    0.357
       462  -7.9694     97.0365     14.9848   1.8634694914e+01   5.8597938437e+01    0.2105062    0.1606508 -65.71 0.0007189368    1.637    0.389
       463  -8.0075     30.3038     15.6750   4.6127603934e+01   7.1783403147e+01    0.1101551    0.1034268  87.69  0.000703232    1.641    0.391
       464  -7.8571     17.3706     14.1509   5.3659104753e+01   7.3627192973e+01     0.157463    0.1093596 -52.56 0.0004733557    1.658    0.397
       465  -9.4150    233.2787    246.2239   4.7433541266e+01  -5.9930437169e+00    0.4126164    0.2038543 -23.39  0.002166009    1.959    0.490
       466  -8.0511    191.7397    249.5997   5.5118650648e+01  -1.4055281581e+00    0.1561911   0.08615639  36.68 0.0009377512    1.654    0.395
       467  -9.1921    175.5631    247.2982   5.7805453121e+01   9.7891319714e-01    0.2545778    0.2324815 -62.69  0.001240832    1.734    0.423
       468  -9.0452    156.3186    248.0918   6.1595215734e+01   3.4362389306e+00    0.2871237    0.1930391  57.28  0.001290475    2.214    0.548
       469  -8.9997    132.3182    247.9292   6.6315210260e+01   6.7126529407e+00    0.2398176    0.1662471  59.72 0.0009449709    1.857    0.461
       470  -8.3428    112.9955    248.4614   7.0264476554e+01   9.2372787172e+00    0.1994343    0.1546913  75.42 0.0009739744    1.656    0.396
       471  -9.2065    103.9890    247.0777   7.1956405575e+01   1.0659758482e+01    0.3656396    0.2074032 -87.08  0.001841722    3.183    0.686
       472  -8.4698     27.4772    250.0000   8.7437360273e+01   1.9265973252e+01    0.2381099    0.0498827  30.39 0.0009391384    3.970    0.748
       473  -8.7136    218.5470    246.8767   5.0000856881e+01  -4.3651821821e+00    0.2888931   0.09616692 -34.57  0.001441641    3.166    0.684
