#   1 NUMBER                 Running object number                                     
#   2 MAG_AUTO               Kron-like elliptical aperture magnitude                    [mag]
#   3 X_IMAGE                Object position along x                                    [pixel]
#   4 Y_IMAGE                Object position along y                                    [pixel]
#   5 X_WORLD                Barycenter position along world x axis                     [deg]
#   6 Y_WORLD                Barycenter position along world y axis                     [deg]
#   7 A_WORLD                Profile RMS along major axis (world units)                 [deg]
#   8 B_WORLD                Profile RMS along minor axis (world units)                 [deg]
#   9 THETA_WORLD            Position angle (CCW/world-x)                               [deg]
#  10 FWHM_WORLD             FWHM assuming a gaussian core                              [deg]
#  11 ELONGATION             A_IMAGE/B_IMAGE                                           
#  12 ELLIPTICITY            1 - B_IMAGE/A_IMAGE                                       
         1 -13.1189      2.5487     76.6160   1.2427026593e+02   5.9462494715e+01     1.175871    0.1897017 -73.46  0.003951717    4.006    0.750
         2 -13.4055    205.8470     35.0237   5.3240335723e+01   2.9050910913e+01     1.283819    0.8193977 -23.10   0.00534678    1.458    0.314
         3 -13.9141    226.1997     16.9221   4.5968172445e+01   2.6109901435e+01     1.109025    0.9041688  17.54   0.00140562    1.393    0.282
         4 -12.8390      3.8154      4.4207   1.0702573967e+02   7.6280265316e+01    0.7559034    0.6186542 -43.19  0.005279999    1.059    0.055
         5 -12.7609      4.1787     20.6313   1.1313603246e+02   7.2711347485e+01    0.9044358    0.1808629 -59.58  0.003521777    2.924    0.658
         6 -10.1216    197.9842    245.4844   9.9390868035e+01   3.2763064351e+00    0.1624287   0.07389527  34.61 0.0008805867    1.592    0.372
         7 -11.7245    142.7907    249.0008   1.0879191576e+02   9.9747628153e+00    0.3475164      0.15991  49.50  0.002082375    2.175    0.540
         8 -12.3141    124.8975    240.7334   1.1105494739e+02   1.3260630754e+01     0.530114    0.2991852  15.44   0.00294426    2.926    0.658
         9 -11.5868    134.5211    249.6142   1.1023478587e+02   1.0948967417e+01    0.6384854     0.115907  41.80  0.002630624    3.858    0.741
        10 -11.3508    117.0906    249.7579   1.1318201888e+02   1.3101734499e+01    0.3910503    0.2882577  46.13  0.002116631    1.113    0.101
        11 -11.5075    110.4952    247.5234   1.1411678165e+02   1.4192320391e+01    0.4145178    0.3029753  62.14  0.003334439    1.438    0.305
        12 -12.8306    102.8274    230.2937   1.1402283007e+02   1.7469423295e+01     0.776854    0.3655514  31.38   0.00453305    1.962    0.490
        13 -11.7784    104.5324    236.9716   1.1428387255e+02   1.6324485718e+01      0.29842     0.243199  70.83  0.001758037    1.357    0.263
        14 -10.1009     81.6000    247.6903   1.1904532563e+02   1.7589032112e+01      0.28197    0.1009638 -75.66  0.001449735    4.623    0.784
        15 -11.7463     87.6923    248.6810   1.1807816758e+02   1.6755837437e+01    0.5078012    0.2591643  43.39  0.002545256    1.377    0.274
        16 -10.5857     84.2226    230.4576   1.1739109971e+02   1.9724521531e+01    0.2088373    0.1500341 -81.88  0.001255182    1.665    0.399
        17 -12.4950     88.6606    238.5413   1.1719818761e+02   1.8033192179e+01    0.6735021    0.3487642  57.73  0.004402367    1.853    0.460
        18 -11.2126     68.3315    245.6092   1.2117005012e+02   1.9361514017e+01    0.2637329    0.1359839  54.61  0.001866996    1.544    0.352
        19 -12.5165     35.3551    205.9283   1.2493658260e+02   2.9065433476e+01    0.6196006     0.461031  51.83  0.004859619    1.097    0.089
        20 -15.1218     22.0285    219.8567   1.2801289144e+02   2.7992636024e+01      1.41231     1.027082  66.04   0.01185201    1.100    0.091
        21 -11.4093     68.9949    237.5247   1.2057368293e+02   2.0444277645e+01    0.3625299    0.2106409  20.58  0.002276514    2.433    0.589
        22 -10.7205     73.2341    236.9628   1.1979609986e+02   2.0049253871e+01    0.2770967    0.1538601  50.10  0.001054576    1.349    0.259
        23 -10.3723    245.4925    241.4880   9.1653657562e+01  -2.2153313351e+00    0.1014951   0.06696294  16.90 0.0001742434    1.003    0.003
        24 -11.5684     73.8859    243.5206   1.2009711668e+02   1.9038350137e+01    0.2688307    0.2219036 -88.56  0.002367669    1.440    0.305
        25  -9.3112     52.5148    231.6602   1.2313120452e+02   2.3110995848e+01    0.1477107    0.0909891 -75.22 0.0006097166    1.869    0.465
        26 -10.7836     83.9567    241.4520   1.1822481709e+02   1.8177729747e+01    0.3648516    0.1395554  41.47  0.002191453    1.823    0.451
        27  -8.4944     62.3027    233.2882   1.2149412034e+02   2.1811227847e+01   0.08512413   0.07443181  18.23 0.0003614569    1.564    0.361
        28 -11.6938     58.3933    246.8172   1.2291451802e+02   2.0262719947e+01     0.375616    0.3401954  45.40   0.00351459    1.378    0.274
        29  -8.8521    153.5276    230.4712   1.0501570976e+02   1.0771412551e+01    0.1093642   0.08193837  32.62 9.508183e-07    1.013    0.013
        30 -10.5013    113.5743    230.0648   1.1206637052e+02   1.6133386059e+01    0.1785051    0.1248009  22.44  0.001046984    1.566    0.361
        31 -10.5667     56.5884    228.2463   1.2221742442e+02   2.3200693095e+01    0.2036937     0.160429  58.81 0.0003241834    1.099    0.090
        32 -10.8165     97.4757    239.5174   1.1572802022e+02   1.6840448457e+01    0.2260251    0.1621341  66.06  0.001320259    1.447    0.309
        33  -9.1727     90.9885    220.0608   1.1532358127e+02   2.0463304900e+01    0.1714578   0.09966798  57.95 0.0005678688    1.628    0.386
        34 -11.3638     90.6448    224.9888   1.1579638992e+02   1.9759541611e+01    0.3993328    0.1784264  47.81  0.002369914    1.770    0.435
        35 -11.1122     78.6236    225.5966   1.1804895768e+02   2.1117180632e+01    0.2791866     0.232732 -71.80  0.002286434    1.485    0.327
        36 -10.5955     99.2721    250.4101   1.1624209534e+02   1.5171660559e+01    0.3475215     0.185132  24.56  0.002173564    2.237    0.553
        37  -8.5328     65.0914    224.6053   1.2045601076e+02   2.2829655718e+01    0.1646245    0.1283076 -23.45  0.001177127    2.259    0.557
        38 -10.3543    181.1935    243.3783   1.0183734013e+02   5.6409060586e+00    0.1532766   0.07276496  42.20  0.000859339    1.775    0.437
        39 -10.3197     71.5977    219.9533   1.1893843923e+02   2.2816449696e+01    0.3038764    0.2014255  48.83  0.002212633    1.142    0.124
        40  -9.0506     60.0763    220.4784   1.2111403371e+02   2.4040378675e+01    0.1519215   0.08039072  39.73 0.0003454903    1.480    0.324
        41 -10.1667     50.8686    218.6299   1.2270637101e+02   2.5337867066e+01    0.3040691     0.123924  61.37  0.001103584    2.361    0.576
        42 -10.0676     46.5562    214.5253   1.2327594481e+02   2.6466736830e+01    0.2654512   0.07821017  49.66  0.001361177    2.492    0.599
        43 -14.3167      7.1976    213.2891   1.3045037249e+02   3.0377617434e+01     2.173742    0.7647841 -85.08   0.01288293    2.727    0.633
        44  -9.4897    106.7878    216.6237   1.1204227373e+02   1.8961919695e+01    0.1597057   0.07846177  44.56 0.0003203084    1.602    0.376
        45 -11.2067     98.7976    246.8354   1.1605777720e+02   1.5695661436e+01    0.4389092    0.1284463  37.45  0.002290689    2.435    0.589
        46  -9.1511     87.8524    212.9370   1.1530710080e+02   2.1968768217e+01    0.1698281    0.1037374  70.99 0.0007817866    1.879    0.468
        47 -11.4487    101.7373    240.0132   1.1502242237e+02   1.6253924501e+01    0.3355761    0.2090858 -80.39  0.001496218    2.262    0.558
        48  -9.5128     99.5448    210.0591   1.1278916259e+02   2.0926924096e+01    0.2377605   0.09843851  58.40   0.00104133    3.410    0.707
        49  -9.7565     55.9268    208.8718   1.2114962744e+02   2.6407833614e+01    0.2408481    0.1337064 -62.92  0.001563381    2.116    0.527
        50 -10.2818     62.7999    208.7653   1.1981319012e+02   2.5655370608e+01    0.3006958    0.1048368  48.00  0.001273265    2.216    0.549
        51  -9.7677     66.2444    205.6176   1.1891053481e+02   2.5791317006e+01    0.3521613    0.1178536  46.86  0.001780125    2.301    0.565
        52  -9.0046    113.5713    204.0902   1.0943637796e+02   1.9977091328e+01    0.1479682    0.0929536  81.54 0.0008057174    2.522    0.604
        53  -9.5585    106.8837    203.5727   1.1069534990e+02   2.0978801598e+01    0.1791733    0.1525336 -36.51 0.0005095331    1.533    0.348
        54  -9.8842     73.8516    200.8323   1.1701788270e+02   2.5706665659e+01    0.1546367    0.1047772  60.44 0.0003547405    1.297    0.229
        55  -9.2901    250.5332    200.4831   8.4807304701e+01   6.6112031723e-01    0.1108386   0.07886777  10.78 5.951727e-05    1.002    0.002
        56 -10.7959     46.3857    198.3980   1.2234548586e+02   2.9259367583e+01    0.3304335    0.1521712  34.16  0.001617281    1.939    0.484
        57 -11.9572     49.3691    191.7664   1.2129913137e+02   3.0138343274e+01    0.2934289    0.2319871 -44.31 0.0006591811    1.814    0.449
        58 -10.2352    250.0000    194.4896   8.3897691993e+01   1.2935513359e+00    0.2186996   0.05475412 -28.34 0.0009349488    3.936    0.746
        59 -11.1902     20.5327    191.3511   1.2713668352e+02   3.3069464221e+01    0.4647483    0.1566716  61.52  0.002377669    2.604    0.616
        60 -10.3505     35.8932    191.7888   1.2405971048e+02   3.1534498567e+01    0.2735796    0.1492014  40.99  0.001213978    1.521    0.342
        61  -8.9324    191.5284    191.5097   9.2954067742e+01   1.0124347690e+01    0.1203655   0.09552772  20.45 0.0001060824    1.012    0.011
        62  -9.5925    109.0831    191.1431   1.0885461351e+02   2.2719380121e+01    0.1736726    0.1430167  47.09 0.0003148384    1.019    0.019
        63  -9.6010     57.4479    190.4408   1.1952914541e+02   2.9485723985e+01    0.1129471   0.08910857  59.17 0.0001159859    1.008    0.008
        64 -14.0662      6.8859    244.6492   1.3129038961e+02   2.5492130631e+01     1.101298    0.6614997  54.34  0.009505159    1.088    0.081
        65  -8.7841     67.5175    187.9693   1.1721450349e+02   2.8762635782e+01    0.2100497    0.1390276 -13.76  0.001044893    3.481    0.713
        66  -8.5024     70.7004    187.2585   1.1647819138e+02   2.8507067237e+01    0.1170458   0.07054599  58.68            0    1.507    0.336
        67 -13.8529     25.3747    248.0103   1.2841337208e+02   2.3366506613e+01     1.906711    0.6276215  28.84   0.01033468    3.364    0.703
        68 -12.1613     56.2501    184.2054   1.1928968528e+02   3.0780629988e+01    0.3069262    0.2024261  43.18   0.00109439    1.302    0.232
        69 -10.9869    116.3675    239.1358   1.1239326344e+02   1.4551182885e+01    0.2600745    0.1694286 -32.46  0.001767572    2.468    0.595
        70  -8.7365     23.6597    184.2874   1.2616440627e+02   3.4102768007e+01    0.1175756   0.05759626  58.01 0.0007020006    1.640    0.390
        71  -9.8969     36.8942    180.4832   1.2315917593e+02   3.3560730713e+01      0.23006    0.1528821 -80.02 0.0006508346    1.472    0.321
        72  -8.6126    110.4613    178.4449   1.0697959831e+02   2.4721674859e+01    0.1223312    0.1058132  45.57 7.396814e-05    1.019    0.019
        73  -9.6278     59.2495    177.0562   1.1803626184e+02   3.1801575026e+01    0.3761581   0.09949064  42.55  0.001418145    2.849    0.649
        74 -12.1875     12.2633    171.9478   1.2798326330e+02   3.7476058250e+01     0.517918    0.2936865 -61.59  0.003299617    2.032    0.508
        75 -12.1196      8.5397    164.9117   1.2848511546e+02   3.9175497233e+01    0.5231338    0.3248396 -29.72  0.003026289    3.044    0.672
        76  -8.6172     87.9568    175.4914   1.1152270353e+02   2.8469012455e+01     0.169402    0.1049456  40.39 0.0003084159    1.416    0.294
        77 -11.3874    248.9088    172.3804   8.0190389690e+01   3.6432244024e+00      0.36772    0.2313733  -1.32   0.00232776    1.406    0.289
        78 -10.8969     68.8070    172.3682   1.1546131829e+02   3.1565844725e+01    0.2058347    0.1875035  71.06  0.000229261    1.118    0.105
        79  -9.3845     18.4885    172.4744   1.2666317044e+02   3.6846344454e+01    0.2169229    0.1444296  65.17  0.001034037    1.184    0.156
        80 -11.0371     19.8076    168.3621   1.2615910086e+02   3.7549313707e+01      0.19495    0.1707361  83.67 0.0002858912    1.207    0.172
        81 -10.3962      2.9742    172.9269   1.3000148949e+02   3.8018862864e+01     0.211751    0.1326658  37.26 0.0006773482    1.526    0.344
        82 -10.9072     53.5201    171.2164   1.1880201055e+02   3.3604639475e+01    0.2571794    0.2290325  45.71 0.0009613102    1.217    0.178
        83 -10.9683     27.0342    171.7246   1.2475416945e+02   3.6227297409e+01    0.2172422    0.2057969 -13.98 0.0004456305    1.518    0.341
        84 -10.4565     40.1262    168.2426   1.2159204154e+02   3.5644726767e+01    0.2611111    0.2162659  44.41  0.001276188    1.230    0.187
        85 -12.1843    249.2175    159.8050   7.7782358715e+01   4.9283883780e+00    0.6928945    0.5864121 -52.91  0.004558987    2.102    0.524
        86  -8.7145     68.2611    166.6141   1.1498972702e+02   3.2773359873e+01    0.1274047   0.07865525  69.61 0.0006975924    1.687    0.407
        87  -8.8919     37.4511    162.5207   1.2177183949e+02   3.7082905178e+01    0.1170628   0.09397853  69.62 6.287015e-05    1.009    0.009
        88 -10.4280     23.8374    161.9444   1.2487953998e+02   3.8495478848e+01    0.1775407    0.1404564  54.19 0.0003664899    1.150    0.131
        89 -12.1286     76.9825    164.2458   1.1270251741e+02   3.2129003185e+01    0.4909791    0.4401518 -85.32  0.003376151    1.149    0.130
        90  -8.5223     58.6843    159.3232   1.1647729285e+02   3.5423857564e+01    0.1303338   0.07718783  64.29 0.0003262214    1.664    0.399
        91 -11.3369      3.5268    157.8005   1.2930663851e+02   4.0999646500e+01    0.2280719    0.1775905  44.18  0.001719177    1.303    0.232
        92 -11.2708     23.4014    149.7778   1.2419006375e+02   4.1085716863e+01    0.3019222    0.1951192 -47.99  0.001564792    2.020    0.505
        93 -11.0168     26.4528    155.8964   1.2387567996e+02   3.9515702617e+01    0.2646146     0.171367  45.53  0.000600375    1.386    0.279
        94 -11.0727     21.8638    156.1635   1.2497870601e+02   3.9869030866e+01    0.2752945     0.178898 -84.25  0.001460669    1.368    0.269
        95 -11.4202     12.7122    154.0396   1.2700918528e+02   4.1077387511e+01    0.2991065    0.1278308 -76.36  0.001628299    2.066    0.516
        96  -8.3317    228.3101    155.6317   8.0209714100e+01   8.6987853064e+00    0.1112656   0.09825495 -51.66 0.0007036476    1.763    0.433
        97 -11.0356    249.6178    150.8942   7.5978552625e+01   5.8400004985e+00    0.3608066    0.2106753 -22.17  0.002116395    1.518    0.341
        98 -11.9496    243.9027    120.4208   7.0387616559e+01   1.0315375353e+01     0.523204    0.3533053 -58.68  0.002573797    2.805    0.643
        99 -11.5742    239.2146    121.1165   7.1227126295e+01   1.1058694995e+01    0.4871598    0.2094873 -13.36   0.00187197    3.143    0.682
       100 -12.9873    248.5746    133.8249   7.2624669485e+01   7.9374516134e+00      1.18455    0.4109809 -24.29   0.00499725    2.711    0.631
       101 -10.9736     91.9083    149.7326   1.0721571145e+02   3.2995462586e+01    0.2845223    0.2768411  43.51 0.0009464192    1.139    0.122
       102  -9.3501     95.6897    145.8330   1.0569075018e+02   3.3233026794e+01    0.1789476     0.176904  80.59 0.0008811282    1.119    0.106
       103 -11.0756      5.2603    150.4393   1.2858542886e+02   4.2400578036e+01    0.1973052    0.1393751  25.25  0.001362477    1.676    0.403
       104 -13.0803      9.2527    143.2356   1.2725890380e+02   4.3640039267e+01    0.6971061    0.2157489 -77.55  0.003223059    2.716    0.632
       105 -12.8562      4.4289    142.5375   1.2841082999e+02   4.4139338001e+01     0.538422    0.3640953 -73.57  0.001583508    1.409    0.290
       106 -10.4569     80.1441    148.5981   1.0995288843e+02   3.4917851236e+01    0.2175687    0.1992896  81.77 0.0003559236    1.057    0.054
       107  -9.9439     38.8591    148.9322   1.2031283465e+02   3.9806282055e+01    0.1665485     0.147909 -69.79 0.0003531849    1.267    0.211
       108 -11.6215     68.4154    143.6089   1.1224170497e+02   3.7557002644e+01    0.6135832    0.3149652  64.08  0.002082477    2.393    0.582
       109  -9.2138    235.8188    146.1395   7.7109287783e+01   8.6019172546e+00     0.174843    0.1225686   6.39 0.0004733829    1.292    0.226
       110  -8.7702    133.4116    141.1934   9.5829264190e+01   2.7868720354e+01    0.1880867    0.1317032 -61.15 0.0009543667    1.706    0.414
       111  -9.7064     44.9833    139.8015   1.1786459800e+02   4.1166753888e+01    0.2057621    0.1573167 -82.93 0.0002925604    1.188    0.159
       112 -10.0555    106.0414    135.3238   1.0132366103e+02   3.3773119136e+01    0.4255571    0.2857472  -6.82  0.001827839    2.844    0.648
       113 -13.2348     13.0983    101.1046   1.2309958097e+02   5.2963215321e+01    0.8461593    0.2972337 -61.28  0.003849897    2.393    0.582
       114 -13.1454      8.5397    112.1639   1.2544826308e+02   5.0665536659e+01    0.6798835    0.3059662 -86.55  0.003463153    1.903    0.475
       115  -8.3515     92.3132    133.2713   1.0447764615e+02   3.6407785625e+01    0.1260222    0.1064257 -11.69 0.0003072089    1.553    0.356
       116  -9.3536     44.3583    130.1587   1.1696597785e+02   4.3402561418e+01    0.1759838    0.1047461 -87.23 0.0004354726    1.642    0.391
       117 -12.3682     17.4050    132.6304   1.2449764076e+02   4.5343942398e+01     0.339485    0.2916685  30.05  0.001689017    1.394    0.283
       118 -12.6331     15.3470    121.2542   1.2419235951e+02   4.8083906792e+01     0.516218    0.2353575 -78.25   0.00129049    1.851    0.460
       119 -11.9676    247.7770    142.3551   7.4521715298e+01   7.0893715843e+00    0.5159325    0.3584093  24.46  0.003219485    1.322    0.244
       120 -13.0184    248.1413    101.4226   6.5458145412e+01   1.1841578835e+01    0.9919397    0.4852524 -22.61  0.004785789    1.790    0.441
       121 -12.2249    247.7962    112.9478   6.8157942813e+01   1.0525544405e+01    0.5744215    0.4204006  31.74  0.003288093    1.385    0.278
       122 -12.7141      3.1984    100.1510   1.2615918901e+02   5.3806063206e+01    0.6976287     0.316761 -84.35  0.003601248    1.811    0.448
       123 -10.5418    232.0598    116.3218   7.1211013413e+01   1.2958005951e+01    0.1842385    0.1614146   9.15  0.000777232    1.099    0.090
       124 -13.2617      4.5927    122.1222   1.2725301006e+02   4.8637354255e+01    0.7733786    0.5114817 -81.54  0.005006932    1.262    0.207
       125 -11.0290    170.4526    247.7430   1.0408386888e+02   6.5724841436e+00    0.3481242    0.1591159  17.49  0.001571145    4.180    0.761
       126 -10.1670    249.5638    117.5136   6.8938464810e+01   9.6747642440e+00    0.2463347     0.184098 -21.64 0.0007586986    1.185    0.156
       127  -9.5217    162.2290     79.9831   7.4172753706e+01   3.3261385314e+01    0.2077767    0.1222536 -33.79 0.0006145998    1.646    0.392
       128 -11.7165    154.4888    246.8145   1.0662067747e+02   8.7275896902e+00    0.2924153    0.2265704  -4.91  0.001767337    1.604    0.376
       129 -12.0174    122.6926    248.9486   1.1216704259e+02   1.2509413400e+01    0.4487672    0.3059498  23.34  0.002264151    1.514    0.340
       130 -11.7675    131.2057    240.5301   1.0994521156e+02   1.2477470024e+01    0.3210064    0.1601151  23.05  0.001768109    2.558    0.609
