#   1 NUMBER                 Running object number                                     
#   2 MAG_AUTO               Kron-like elliptical aperture magnitude                    [mag]
#   3 X_IMAGE                Object position along x                                    [pixel]
#   4 Y_IMAGE                Object position along y                                    [pixel]
#   5 X_WORLD                Barycenter position along world x axis                     [deg]
#   6 Y_WORLD                Barycenter position along world y axis                     [deg]
#   7 A_WORLD                Profile RMS along major axis (world units)                 [deg]
#   8 B_WORLD                Profile RMS along minor axis (world units)                 [deg]
#   9 THETA_WORLD            Position angle (CCW/world-x)                               [deg]
#  10 FWHM_WORLD             FWHM assuming a gaussian core                              [deg]
#  11 ELONGATION             A_IMAGE/B_IMAGE                                           
#  12 ELLIPTICITY            1 - B_IMAGE/A_IMAGE                                       
         1 -11.9689    189.7682     35.8157   5.6379524531e+01   3.2809852188e+01     1.022161    0.9030635 -26.62  0.003698491    1.151    0.131
         2 -12.1646    197.6299     26.5003   5.2456826402e+01   3.1883569201e+01    0.7810316    0.6925304  12.85  0.001400064    1.264    0.209
         3 -10.5769     49.6275     11.8830   8.3186499350e+01   6.8037062810e+01    0.2530107    0.1744596  46.73  0.001467233    1.824    0.452
         4 -10.8168    219.4657      2.2122   4.3195834999e+01   2.8830587845e+01    0.7566941    0.2634872  76.24  0.002844062    2.890    0.654
         5  -8.9043     60.6586      3.3224   7.4033279521e+01   6.7448673194e+01      0.11745   0.09978323 -57.55 0.0004556982    1.725    0.420
         6  -9.9510     49.3930      2.2586   7.8138519326e+01   6.9439400495e+01    0.2256744    0.1371403  27.74   0.00126374    1.682    0.405
         7  -9.5823     76.2531    233.7043   1.2061847869e+02   1.9580984077e+01    0.1706623    0.1309096  70.50 0.0008328198    1.139    0.122
         8  -9.9740    118.9471    249.4287   1.1467714305e+02   1.1421166504e+01    0.2664932    0.1654022  24.41  0.001620254    2.324    0.570
         9 -19.4157     11.2460    136.1413   1.2610095150e+02   4.5447764318e+01     16.85179     2.517203 -77.35   0.04998505    6.390    0.844
        10  -9.7064    192.8873    192.1315   9.4060445322e+01   7.5316349001e+00    0.3981557    0.3365011 -43.68  0.002581573    1.468    0.319
        11  -8.9972     81.9644    195.2789   1.1619786826e+02   2.5400583988e+01    0.2750493    0.2066568   5.06  0.001567868    2.550    0.608
        12  -9.2018    178.3617    224.7953   1.0163209620e+02   5.6162687840e+00    0.1446726    0.1070581 -20.58 0.0006130106    1.737    0.424
        13  -8.0339    198.4951    222.5101   9.7819799915e+01   2.6687207159e+00    0.1188013   0.09117679  30.74 -2.952781e-06    1.008    0.008
        14  -8.6016     99.1533    181.0753   1.1104986454e+02   2.5552856335e+01    0.1790217    0.1645034  39.86  0.000749018    1.269    0.212
        15 -10.3686     77.5378    177.5027   1.1519488685e+02   2.9426226375e+01    0.2757935    0.2487575  73.16 0.0005809413    1.150    0.130
        16 -11.2513     81.9191    172.0278   1.1360831364e+02   2.9901232821e+01    0.5039268    0.3560994 -52.86  0.003004411    1.666    0.400
        17  -8.6705    172.3218    218.3465   1.0181720566e+02   7.4397500097e+00    0.1200647   0.08292601  16.43 0.0007049611    1.736    0.424
        18  -7.6757    165.3014    172.6333   9.5981856879e+01   1.5571945703e+01    0.1325992    0.1039036  80.63 0.0007034035    1.736    0.424
        19  -9.9418    104.1335    172.1709   1.0879262815e+02   2.6494475784e+01     0.282655    0.1786237  43.64   0.00113116    1.442    0.307
        20  -9.3995    194.5388    167.9543   8.9404441495e+01   1.0756373986e+01    0.2829107    0.2352391  14.25  0.001015397    1.176    0.150
        21 -10.1419    183.9208    216.6273   9.9507594132e+01   5.7616148294e+00     0.194181    0.1600861  -5.48  0.001340788    1.400    0.286
        22 -10.8707     95.0063    155.5338   1.0841385604e+02   3.1318478127e+01    0.5359739    0.3832218 -33.18  0.002032649    2.063    0.515
        23  -7.9841    163.4614    204.0106   1.0140104747e+02   1.0947006371e+01    0.1566277     0.125046 -44.39 0.0004282915    1.527    0.345
        24  -8.8502    140.2494    156.9631   9.8411808429e+01   2.3118685131e+01    0.2353287    0.1783198  67.48 0.0005060656    1.463    0.316
        25  -8.1856    188.3438    153.6854   8.7768263562e+01   1.4214111554e+01    0.1354807    0.1113685  83.71 0.0007047632    1.711    0.415
        26  -9.6707    134.1880    147.6168   9.8013642352e+01   2.6082124308e+01    0.8502225    0.1750247 -52.33  0.002163653    6.283    0.841
        27 -10.8216     94.8461    140.6485   1.0605664078e+02   3.4509396948e+01    0.2714709    0.2546958 -58.61  0.000490345    1.186    0.157
        28  -9.1328    106.1331    130.8567   1.0146062653e+02   3.4726620008e+01    0.3251464    0.2306947 -63.98  0.001672917    1.441    0.306
        29 -10.2081    114.4520    130.7243   9.9362546240e+01   3.3261304471e+01    0.2781089    0.2413205   2.15 0.0008590356    1.489    0.328
        30  -9.3138    101.9300    126.9208   1.0175096112e+02   3.6314195182e+01    0.2782516    0.2328535 -31.55 0.0006439486    1.456    0.313
        31 -10.1200    107.1741    139.9226   1.0291707013e+02   3.2600505262e+01    0.4687199    0.2870138 -32.61  0.002048263    2.523    0.604
        32  -8.8822    110.0238    119.5792   9.8145883331e+01   3.6471447929e+01    0.2355784    0.1886569 -67.35  0.000459356    1.277    0.217
        33  -8.1385    168.0021    112.8222   8.2692465573e+01   2.5736026655e+01    0.2500857    0.1798203  81.43   0.00107977    2.039    0.510
        34  -8.5289    108.1256    203.8318   1.1198641244e+02   2.0033625164e+01    0.1564194    0.1278661  37.10 0.0002780386    1.307    0.235
        35  -9.4550    120.6013    110.7959   9.3411560232e+01   3.6338280622e+01    0.2746306    0.1400496 -59.12  0.001052156    2.371    0.578
        36  -8.4346    206.0046    110.4770   7.4572963761e+01   1.7503759809e+01    0.2189726    0.1423835  50.42 0.0004088107    1.549    0.354
        37  -8.2001    102.9599    110.4805   9.7987016055e+01   3.9743535274e+01    0.2099062     0.139695  43.72 0.0005405973    1.528    0.346
        38  -8.2719    156.1727    200.8991   1.0232438100e+02   1.2663713895e+01    0.2330779    0.1504502 -75.88  0.001160726    2.756    0.637
        39 -10.8963     41.7042     91.0216   1.1194907854e+02   5.2911904329e+01    0.4289542    0.1800402 -68.37  0.001578068    2.209    0.547
        40  -8.6936     94.9673    200.2096   1.1414969385e+02   2.2641558349e+01    0.2125705    0.1381749  72.85 0.0006644455    1.586    0.370
        41  -9.6146    163.6800     64.6007   7.0035251209e+01   3.5387470982e+01    0.3137719    0.2603253 -85.42 0.0004779932    1.426    0.299
        42 -11.1558    178.7433     45.7798   6.1248339673e+01   3.4374379969e+01     0.506445    0.4080698  34.80  0.001050046    1.328    0.247
        43  -9.6290    139.3208    249.2503   1.1124782100e+02   8.4972784281e+00     0.243618    0.1125526  48.42  0.001432131    1.669    0.401
        44  -9.8490    126.4198    248.2004   1.1331050865e+02   1.0515823529e+01    0.2353471    0.1485684  42.53  0.001633832    1.212    0.175
        45  -9.5664    134.1929    246.3641   1.1182061897e+02   9.6277425801e+00    0.1453799    0.1179752  44.60 0.0004461594    1.127    0.113
        46  -9.2601    140.0188    238.8527   1.1004302097e+02   9.7659246324e+00    0.1969875    0.1021491  57.76  0.001095944    2.069    0.517
        47  -8.6728    209.7650    199.7172   9.2312984409e+01   3.6060564943e+00    0.1656174   0.09693853 -46.00 0.0005134394    2.359    0.576
