#   1 NUMBER                 Running object number                                     
#   2 MAG_AUTO               Kron-like elliptical aperture magnitude                    [mag]
#   3 X_IMAGE                Object position along x                                    [pixel]
#   4 Y_IMAGE                Object position along y                                    [pixel]
#   5 X_WORLD                Barycenter position along world x axis                     [deg]
#   6 Y_WORLD                Barycenter position along world y axis                     [deg]
#   7 A_WORLD                Profile RMS along major axis (world units)                 [deg]
#   8 B_WORLD                Profile RMS along minor axis (world units)                 [deg]
#   9 THETA_WORLD            Position angle (CCW/world-x)                               [deg]
#  10 FWHM_WORLD             FWHM assuming a gaussian core                              [deg]
#  11 ELONGATION             A_IMAGE/B_IMAGE                                           
#  12 ELLIPTICITY            1 - B_IMAGE/A_IMAGE                                       
         1 -13.3706    166.8934     57.2001   6.4916991342e+01   3.5797182253e+01     1.942379     1.152813  24.70  0.006116038    2.327    0.570
         2 -13.2511    181.0276     42.1526   5.7763132900e+01   3.4305151272e+01    0.9765342    0.8799715 -16.29  0.003028293    1.077    0.071
         3 -13.8473    202.1249     11.3830   4.5724926922e+01   3.2331910248e+01      1.21105    0.9700731  -3.24  0.004403771    1.327    0.246
         4 -11.1033    189.9200     14.9922   4.8006012140e+01   3.5041764476e+01    0.3217268    0.2871393  52.82 0.0009513107    1.166    0.143
         5 -12.8502    229.8210      4.0259   4.1561772605e+01   2.6444596470e+01     1.314171    0.4326298  76.05  0.005229566    3.263    0.694
         6 -11.1365     15.6742    213.5276   1.2823899090e+02   3.0060964034e+01    0.1245559    0.1049233  35.28 0.0007303931    1.408    0.290
         7 -11.7707    248.6916    247.3742   9.0957136761e+01  -2.6883682468e+00    0.3909167    0.1779287 -20.67  0.002691011    2.291    0.564
         8 -18.7622     45.8233    237.7606   1.2388832036e+02   2.3305890617e+01     5.260375     4.354841  55.12   0.03999108    1.181    0.153
         9  -9.8294    222.9989    198.5033   8.7638373395e+01   5.0327398775e+00    0.1660023    0.1258543  -4.27  0.001188686    1.200    0.166
        10 -12.6351     69.0381    193.0916   1.1639507995e+02   2.8110279396e+01    0.4930567    0.3910978   3.26  0.002142277    1.841    0.457
        11 -19.1229     33.5601    103.4304   1.1544844313e+02   5.1171087613e+01     16.54601    0.7281706 -69.12    0.0254619   18.233    0.945
        12 -10.5326     60.9545    190.2567   1.1785143620e+02   2.9583451493e+01    0.3621639    0.1808315 -75.51  0.002040418    2.197    0.545
        13 -10.1399    156.5089    189.9247   9.8069685182e+01   1.6194977337e+01    0.1837016    0.1423802  33.31 0.0004981083    1.081    0.075
        14 -11.3781    150.2525    188.2241   9.9034847088e+01   1.7426449744e+01    0.2893511    0.1821011  42.70  0.001202133    1.401    0.286
        15 -10.6868    160.0316    205.9442   9.9724425582e+01   1.3403972814e+01    0.1868816      0.14751  29.33 0.0006621801    1.016    0.015
        16 -11.2611    204.1369    200.2028   9.1026637834e+01   7.5760213556e+00    0.4607088    0.1389662  32.36  0.001850509    3.424    0.708
        17 -10.7598    151.6219    181.0488   9.7657324314e+01   1.8306293215e+01    0.2813013    0.2092915 -81.96  0.001260633    2.321    0.569
        18 -11.3148    145.5105    181.5076   9.8957725557e+01   1.9212690144e+01    0.2792983    0.2391836  41.55  0.001230525    1.107    0.096
        19 -12.4176    141.9309    175.2868   9.8714076216e+01   2.0788158112e+01    0.5871567    0.3974011  65.03  0.003108271    2.092    0.522
        20 -11.1166    188.6088    176.3423   8.9778673749e+01   1.2964828263e+01    0.5591801    0.3608283 -52.58  0.002058519    2.414    0.586
        21 -11.0298      1.5621    177.1497   1.2967179064e+02   3.7792597965e+01    0.1324886   0.09743161  81.39  0.000310919    1.149    0.130
        22 -12.1148    125.0414    172.4012   1.0183616430e+02   2.3984940388e+01    0.4704126    0.3266566  32.72  0.002725707    1.343    0.255
        23  -8.9417    194.4921    172.5284   8.8031487326e+01   1.2513227766e+01    0.1261982    0.1034023  16.00 6.802902e-06    1.015    0.015
        24  -9.6783    116.6278    161.9713   1.0207272309e+02   2.7202959545e+01    0.3227185    0.1641544  40.96  0.001561038    1.764    0.433
        25 -11.1035     96.5899    156.3374   1.0586246133e+02   3.1394681543e+01     0.251367    0.2130323  44.37 0.0002568196    1.094    0.086
        26 -12.1888    101.0977    150.2971   1.0383846838e+02   3.1911133765e+01     0.545814    0.4204598 -22.99   0.00160187    1.747    0.428
        27 -10.4549    113.7491    151.8439   1.0107398288e+02   2.9587529203e+01    0.3661442    0.2260114  70.64  0.001635646    2.556    0.609
        28 -11.1700    133.8101    145.3551   9.5247888492e+01   2.7395143020e+01     1.023315     0.281831 -53.65  0.002864657    5.838    0.829
        29 -10.3775    143.7359    146.4712   9.3239288403e+01   2.5416767815e+01     0.322697      0.19457 -55.68  0.001538754    2.066    0.516
        30 -11.4844    110.8067    137.0382   9.9134583337e+01   3.3008254951e+01     0.509124     0.298239 -34.23   0.00229916    2.262    0.558
        31  -9.8541    174.8471    149.1433   8.7270850674e+01   1.9303638296e+01    0.1906822    0.1821598  42.24  0.000554489    1.223    0.182
        32 -11.7959    100.0649    136.0124   1.0164973537e+02   3.4996409245e+01    0.2516233    0.2387663  31.70 0.0003322436    1.103    0.093
        33 -11.2890    105.9018    130.8588   9.9186845611e+01   3.5104767454e+01     0.373571    0.3108775 -66.81  0.001155991    1.270    0.212
        34 -10.1285    136.0000    129.9067   9.1600057077e+01   2.9890844563e+01    0.3682616   0.07984166 -45.41  0.001037015    4.805    0.792
        35 -11.1311      4.0926    228.5064   1.3076817417e+02   2.8603617593e+01   0.07973479   0.04482642 -78.23 0.0005863332    1.913    0.477
        36 -10.7023    117.2022    128.2411   9.5797157140e+01   3.3676100064e+01    0.2735535    0.2311426  -3.72 0.0008008213    1.420    0.296
        37 -10.4891    105.2555    123.8493   9.7950169287e+01   3.6680464435e+01    0.2524352    0.2220896 -22.22 0.0005637734    1.300    0.231
        38 -10.1280    160.5308    127.2931   8.5534761068e+01   2.5617552431e+01    0.2532852    0.2134839 -60.62  0.001387915    1.464    0.317
        39  -9.0790    154.6969    121.3280   8.5421273639e+01   2.7824334873e+01    0.1381888    0.1152801 -84.22 0.0007033584    1.647    0.393
        40  -9.7225    135.0000    119.9637   8.9618113777e+01   3.1981679316e+01    0.2320568   0.08109692 -44.36 0.0008011788    2.934    0.659
        41  -9.4871    111.9292    117.9240   9.4931518921e+01   3.6741784506e+01    0.2095232    0.1998143  43.69 0.0004293754    1.035    0.034
        42  -9.9015    231.2363    113.7725   6.9624004534e+01   1.3773793300e+01     0.231434    0.1934718  14.44 0.0008213578    1.121    0.108
        43 -10.1290    168.0902    113.1136   8.0587649261e+01   2.6507768343e+01     0.334448    0.2720221 -75.86  0.001115559    1.746    0.427
        44 -10.4197    134.6105    105.8102   8.6273587256e+01   3.4792097360e+01    0.4560149    0.1403961 -44.84  0.001457108    3.317    0.699
        45 -11.4050    119.0908    109.9014   9.1203542212e+01   3.7060796877e+01     0.547625    0.3838612  60.36  0.002621436    1.676    0.403
        46  -8.5962     91.6574    112.2590   9.9219326839e+01   4.1475642667e+01    0.1408237    0.1048215  69.30 0.0004979302    1.590    0.371
        47  -9.8854    205.3043    110.2586   7.2905446639e+01   1.9274272777e+01    0.2876956    0.1836359  41.46  0.001132716    1.570    0.363
        48  -9.4517     77.3040    104.4658   1.0175891271e+02   4.5504176322e+01     0.182119    0.1281365  50.23 0.0007675939    1.483    0.326
        49 -10.5659     64.9107     98.8899   1.0444837071e+02   4.8590542105e+01    0.3259352    0.2552049  74.94  0.001369392    1.415    0.293
        50  -9.1806    127.6120     95.2325   8.5224463857e+01   3.8301272436e+01    0.2052968    0.1385743 -31.52 0.0005608136    1.586    0.369
        51 -10.1670     79.7497     75.4886   9.3631127641e+01   5.1652388075e+01    0.2419858    0.2124158 -59.25 0.0004498894    1.118    0.105
        52  -9.3493    167.8949    248.6313   1.0363830146e+02   7.1676918363e+00     0.148482    0.1194144 -11.83 0.0008294603    1.486    0.327
        53 -11.3919    193.3577    195.5907   9.2151872006e+01   9.7328453790e+00    0.9933472    0.5387511 -55.78  0.004188554    4.918    0.797
        54 -12.5155    185.9271     35.7911   5.5053857893e+01   3.3844807967e+01     0.613851    0.4606604  15.22  0.001575644    1.524    0.344
        55  -9.5779     13.6311     60.0271   1.1570009795e+02   6.3189888307e+01     0.183675    0.1637673  71.77  0.000457613    1.231    0.188
        56  -8.9970    166.3100    235.6530   1.0241729983e+02   8.8142778717e+00    0.1002705   0.07384411  53.93 0.0007045023    1.707    0.414
        57  -9.3448    186.8256    186.5930   9.1853154635e+01   1.1885071976e+01    0.1571501    0.1356825  42.62 0.0006827506    1.349    0.259
