#   1 NUMBER                 Running object number                                     
#   2 MAG_AUTO               Kron-like elliptical aperture magnitude                    [mag]
#   3 X_IMAGE                Object position along x                                    [pixel]
#   4 Y_IMAGE                Object position along y                                    [pixel]
#   5 X_WORLD                Barycenter position along world x axis                     [deg]
#   6 Y_WORLD                Barycenter position along world y axis                     [deg]
#   7 A_WORLD                Profile RMS along major axis (world units)                 [deg]
#   8 B_WORLD                Profile RMS along minor axis (world units)                 [deg]
#   9 THETA_WORLD            Position angle (CCW/world-x)                               [deg]
#  10 FWHM_WORLD             FWHM assuming a gaussian core                              [deg]
#  11 ELONGATION             A_IMAGE/B_IMAGE                                           
#  12 ELLIPTICITY            1 - B_IMAGE/A_IMAGE                                       
         1 -10.4695    182.4249     40.2065   7.0163327872e+01   3.4748056989e+01    0.3361052    0.2744149  31.53  0.001129705    1.527    0.345
         2 -11.0017     69.4391     27.2354   9.2225622278e+01   6.0914903480e+01    0.4703526    0.1850265 -37.42  0.002150937    2.706    0.631
         3 -11.9447     76.8295     25.0338   8.8977586254e+01   5.9930890977e+01    0.4726129    0.2844201  -6.85  0.001510788    1.932    0.482
         4 -11.3847     92.3044      8.7178   7.8365905124e+01   5.8728135863e+01    0.3546771    0.2933868  43.33  0.001447088    1.109    0.098
         5 -10.9758     90.1631     16.2515   8.1730094304e+01   5.8433183613e+01    0.2936758    0.1895764  -4.58 0.0003077541    1.731    0.422
         6 -10.5723     87.4251     12.1753   8.0958264740e+01   5.9357591618e+01    0.2968942    0.2328933  37.96  0.001238872    1.090    0.083
         7 -10.8227     13.2531     15.9008   1.1011675467e+02   6.9421581202e+01    0.3565024    0.1594489  23.05  0.002128425    2.241    0.554
         8 -11.2854     41.1245     19.2095   9.9424305734e+01   6.6035005997e+01    0.4758375    0.3030207  25.14  0.003093305    1.442    0.306
         9 -10.2910     38.4842      2.4770   9.3273417893e+01   6.8275193034e+01    0.3775265    0.1507947 -22.10  0.001959525    2.587    0.613
        10 -11.0339     22.2522      9.2355   1.0320855058e+02   6.9442815845e+01    0.3619118     0.185957  11.59    0.0021468    2.037    0.509
        11 -11.7360     30.2305      7.4150   9.8906857023e+01   6.8777069463e+01    0.3334557    0.2480753  16.40  0.001236592    1.214    0.177
        12 -12.0681     39.9753      8.7124   9.5441033324e+01   6.7421607856e+01     0.438832    0.2606205  -9.16  0.001692715    1.603    0.376
        13 -10.9660     31.0113     20.5808   1.0414861149e+02   6.7053477992e+01    0.2496892    0.1417259 -37.02 7.964356e-05    1.685    0.406
        14 -10.6994    100.1555     18.8421   8.0023873715e+01   5.6190122870e+01    0.3502215    0.2366388 -52.83  0.001893491    2.163    0.538
        15 -11.2567    155.8659     13.9462   6.7224252575e+01   4.4207058745e+01    0.3863642    0.2338481  39.30  0.001995478    1.843    0.457
        16 -10.3504    119.2174     12.0591   7.3278526911e+01   5.2806358776e+01    0.2207746    0.1594697  54.51 0.0004028733    1.181    0.153
        17 -10.5119     50.0163      2.0197   8.8664421902e+01   6.6692379173e+01    0.3665776    0.2841391 -23.88  0.002036638    1.481    0.325
        18 -11.8449     55.7412      7.5815   8.9014340847e+01   6.5288846454e+01    0.4874293    0.3731686  28.71   0.00228891    1.177    0.151
        19 -11.3288     56.7477      3.6575   8.6990820050e+01   6.5508374035e+01    0.4660709    0.2059101  35.39  0.002522337    1.953    0.488
        20 -10.4358    148.4756      9.5269   6.7140919640e+01   4.6369738230e+01    0.2104926    0.1494715  22.00  0.001184931    1.772    0.436
        21 -11.5042    151.2634      7.1650   6.6032092629e+01   4.5931266567e+01    0.3036407    0.2454171 -27.70  0.001144895    1.464    0.317
        22 -11.8600     10.6438      6.4168   1.0736963435e+02   7.0899949324e+01    0.4652288    0.4031498   2.18  0.003585558    1.488    0.328
        23  -9.9900      2.3448      2.9590   1.0992752959e+02   7.2015888259e+01    0.2123023    0.1336689 -13.06  0.001104923    1.201    0.168
        24 -11.1635      4.1757      9.8494   1.1195385473e+02   7.0972661879e+01    0.1990977    0.1478546 -15.52 0.0003023504    1.088    0.081
        25 -10.6388      2.5337      6.5037   1.1136192479e+02   7.1542268207e+01    0.1917865    0.1156023   1.47 0.0006561198    1.460    0.315
        26 -10.7890    210.0681      7.4999   5.8879219707e+01   3.2066457124e+01    0.1861497    0.1544218 -62.74  0.001092035    1.192    0.161
        27 -11.5781     69.7998      6.3609   8.3839986868e+01   6.3105760171e+01    0.7047459     0.201625  47.81  0.003038808    2.919    0.657
        28 -10.9042    120.3820      4.3931   7.0537061793e+01   5.3213776205e+01     0.360101    0.1504407  50.54  0.001062969    1.910    0.476
        29  -9.8588    235.5956      4.2546   5.5940154645e+01   2.6714680919e+01    0.1439676    0.1150772 -29.71 0.0009521958    1.667    0.400
        30 -11.6137    130.2031      3.5934   6.8454116442e+01   5.1089643271e+01    0.2847587    0.2002107  73.85  0.001061456    1.386    0.278
        31 -10.4312     16.7209      3.3287   1.0311849320e+02   7.0710230720e+01    0.1737394    0.1174315 -16.79 0.0003006211    1.165    0.142
        32 -10.6690     19.6910      2.6713   1.0144504720e+02   7.0484423818e+01    0.1980612    0.1358943 -11.34  0.000745425    1.122    0.109
        33 -10.7095    176.3388      2.3308   6.1338031320e+01   4.0457163133e+01    0.3199371     0.174775  48.52  0.001663249    1.910    0.476
        34 -11.0738    159.7085      2.3141   6.3470160543e+01   4.4376135781e+01    0.3591378    0.2025119 -87.17  0.001768867    2.095    0.523
        35 -11.8523     80.3777      1.8432   7.8932256567e+01   6.1595391701e+01    0.3480407    0.1535271  49.23  0.001061153    1.863    0.463
        36  -9.6568    100.0605      2.0141   7.4032817166e+01   5.7727833886e+01    0.1715907    0.1436736 -66.34  0.001119806    1.652    0.395
        37  -9.6227    204.1928      1.3962   5.8111530390e+01   3.4043573777e+01    0.1731582   0.09792415  86.88 0.0003830516    1.586    0.369
        38 -11.4360    194.5942      3.9209   5.9655754924e+01   3.6018629434e+01    0.3261873     0.195085 -67.86  0.001778076    1.719    0.418
        39 -11.5981     35.1221     12.9271   9.9240705927e+01   6.7549859922e+01    0.3213965    0.2374427 -30.13   0.00137833    1.468    0.319
        40 -10.5249      3.2132    138.4607   1.4131692447e+02   4.5821876946e+01    0.2415533    0.1118498  27.71  0.001304293    2.627    0.619
        41 -11.7535     17.9969    248.9608   1.4740712863e+02   2.0523840390e+01    0.2462557    0.2089535  10.50  0.001777608    2.289    0.563
        42 -12.3096      4.9515    240.5979   1.4905011371e+02   2.3523160040e+01    0.5342681    0.2200309  56.75  0.003145026    1.935    0.483
        43 -11.1523     12.4892    249.0041   1.4830207987e+02   2.1118136379e+01    0.2492848    0.1423914 -69.30  0.001663963    1.781    0.439
        44 -11.9333      3.4399    248.3293   1.4970509018e+02   2.2196491122e+01    0.4168324    0.3207496  54.82  0.003319384    1.411    0.291
        45 -12.1789     10.4831    244.9821   1.4839802020e+02   2.2101662132e+01    0.2746611    0.2023506  44.87  0.002054741    1.577    0.366
        46 -11.0339     12.4284    130.2233   1.3795304483e+02   4.7059420822e+01     0.363952    0.1933906  63.30   0.00113357    2.484    0.597
        47  -9.2464     51.5118    130.4628   1.2729662850e+02   4.3291611153e+01    0.1360175    0.1179377 -64.30 1.578223e-05    1.004    0.004
        48 -10.1924    248.3235    129.6600   8.0966704258e+01   4.8135273145e+00    0.1431475    0.1022693 -67.74 0.0007050943    1.724    0.420
        49  -9.4857     21.0606    125.9962   1.3503373879e+02   4.7366424109e+01    0.1729162     0.141107 -66.57 0.0004201473    1.017    0.017
        50 -11.8002     23.6918    121.5943   1.3362387327e+02   4.8168318377e+01     0.521902    0.2561247 -84.25   0.00083583    2.655    0.623
        51 -10.7472      3.3971    118.8927   1.3886076728e+02   5.0250407548e+01    0.1931671     0.168725 -35.17  0.000674639    1.326    0.246
        52  -9.0563    132.3010    114.2880   1.0104649902e+02   3.3452601779e+01    0.1526009     0.124753  -0.53 0.0004065121    1.560    0.359
        53  -9.5837      5.5222    113.4475   1.3751487504e+02   5.1341945688e+01      0.12073   0.09265616 -62.59 5.429441e-05    1.029    0.028
        54 -10.1135    249.1626    111.8271   7.7002152091e+01   7.8308474952e+00    0.1838602    0.1624629 -16.47  0.001061245    1.322    0.244
        55  -9.5856     65.6722    110.3322   1.1902614323e+02   4.6227585774e+01    0.1391329    0.1069289  81.35 0.0007051594    1.715    0.417
        56 -11.1555     58.2669    108.0052   1.2075949934e+02   4.7726319049e+01    0.3177333    0.2172195 -15.38  0.001244942    1.946    0.486
        57 -11.5685      4.7048    108.6212   1.3704060332e+02   5.2468600873e+01    0.3351438    0.2150925  11.11  0.002096864    2.041    0.510
        58  -9.6496     79.2830    106.9994   1.1411015402e+02   4.5009402679e+01    0.2034858    0.1759197 -48.64 0.0003971436    1.070    0.065
        59  -9.6168     93.6697    104.6541   1.0922298989e+02   4.3163226384e+01    0.1538762     0.112617 -15.34 0.0007050068    1.757    0.431
        60  -9.6768    113.5124    102.5182   1.0296893182e+02   3.9912138025e+01    0.1493988    0.1456531 -30.34 0.0001038192    1.004    0.004
        61 -10.9045     57.5068    101.6191   1.1952781536e+02   4.9261611379e+01    0.3124297    0.2359533  37.62  0.001388335    1.494    0.331
        62 -10.3062     62.1297     98.6940   1.1736592645e+02   4.9317964377e+01    0.2381272    0.1757599 -61.47 0.0008344706    1.368    0.269
        63 -10.2256     15.3121     96.6879   1.3185573165e+02   5.4417756092e+01    0.1650192     0.138836 -43.42 0.0004052273    1.127    0.112
        64 -12.2183     17.9729     94.3366   1.3056850854e+02   5.4741873879e+01    0.4796407    0.3313934 -70.07  0.002778922    1.369    0.270
        65  -9.4117    129.5075     97.4836   9.7275291966e+01   3.7635998181e+01     0.150117    0.1497498 -33.47 0.0008104153    1.004    0.004
        66  -9.4388    101.0895     95.9604   1.0471328017e+02   4.3704113453e+01    0.3244013    0.2044416 -73.01  0.001246267    2.791    0.642
        67 -10.5944     78.9208     94.9678   1.1113180580e+02   4.7713991607e+01    0.2109717    0.1891661 -30.74 0.0003255279    1.044    0.042
        68  -9.6860      3.5055     95.5002   1.3532773758e+02   5.5414810160e+01    0.1190523   0.09084917 -57.66 -8.681909e-05    1.007    0.007
        69  -9.6428     83.9506     94.0000   1.0931492884e+02   4.7117057275e+01    0.2276411   0.08122761  37.72 0.0008057812    2.966    0.663
        70  -9.4841     43.6512     93.6932   1.2211112099e+02   5.2605773607e+01    0.1369417   0.08692998 -29.05  0.000327182    1.704    0.413
        71 -11.1996     27.2864     91.0545   1.2688165773e+02   5.4727176737e+01     0.493593    0.3154737  51.61  0.002730973    2.180    0.541
        72 -10.5627     25.2889     84.9915   1.2622164210e+02   5.6186410723e+01    0.3278291     0.206478 -44.69  0.001669927    1.303    0.233
        73 -10.6603     58.5493     91.2581   1.1665277953e+02   5.1396946184e+01     0.306808    0.2144682 -23.36 0.0008999404    1.577    0.366
        74 -10.9795      1.8405     89.9636   1.3490743972e+02   5.6693451049e+01    0.2442366    0.1260979 -63.83 0.0002607206    1.503    0.334
        75 -11.5831     11.2389     87.8162   1.3148502017e+02   5.6601948520e+01    0.5572874    0.2054877 -62.11  0.002655201    2.140    0.533
        76 -10.2129     17.2407     88.7229   1.2969665143e+02   5.6004731168e+01    0.3753968    0.2008724 -22.06  0.001948984    2.359    0.576
        77  -9.7041    118.6523     90.3348   9.8164422133e+01   4.1396052204e+01    0.1541379    0.1205457 -88.10 1.222787e-05    1.774    0.436
        78 -11.3217     76.3154     89.3073   1.1041628637e+02   4.9316412028e+01    0.2493799    0.2230195 -25.40 0.0003271214    1.047    0.045
        79 -10.9911     98.5840     89.2884   1.0357659327e+02   4.5553172369e+01    0.2550485    0.1802616  15.89  0.001042565    1.772    0.436
        80  -9.7069     43.8226     89.5730   1.2107814161e+02   5.3476981513e+01    0.1714106    0.1164608  42.55 0.0009459454    1.795    0.443
        81  -9.1654     40.3320     87.1439   1.2165599775e+02   5.4357643607e+01    0.1681957     0.107837 -65.06            0    1.654    0.395
        82  -9.3570    124.2194     86.6033   9.5594975164e+01   4.0956967429e+01    0.2099565     0.138422  36.13 0.0005585474    1.606    0.377
        83 -10.4587     54.5486     84.4924   1.1621384873e+02   5.3324576561e+01    0.2476088    0.1974347 -55.53  0.001008069    1.255    0.203
        84 -10.3629     77.8363     83.1507   1.0820288539e+02   5.0345879814e+01    0.2547179    0.1866907  29.85 0.0004086524    1.433    0.302
        85 -10.6445      4.0178     82.7646   1.3289429245e+02   5.8094587878e+01    0.2677324    0.1331386 -62.57  0.001245914    1.591    0.372
        86  -9.7121    100.5826     82.2465   1.0094087111e+02   4.6586918913e+01    0.2119806    0.1323366 -32.87 0.0009634864    1.674    0.403
        87 -11.6294     63.5349     80.2328   1.1204281144e+02   5.3034601159e+01    0.3804685    0.3605647 -52.23  0.002422201    1.194    0.163
        88 -10.0671     89.2856     80.3146   1.0377691665e+02   4.9014098517e+01    0.2728492    0.1863456 -52.41 0.0008016021    1.580    0.367
        89  -9.2536    132.3358     79.3254   9.1377855667e+01   4.0556713394e+01    0.1550082    0.1170598  12.17 0.0007051394    1.718    0.418
        90  -9.5787    124.3839     79.1732   9.3381841084e+01   4.2335217181e+01    0.1986478    0.1367222 -51.53  0.000352382    1.598    0.374
        91  -9.4289     23.8309     79.1826   1.2539657139e+02   5.7516973731e+01    0.1791782    0.1159216 -36.48  0.001072439    1.363    0.266
        92 -10.4094    176.4930     77.3757   8.1007832481e+01   3.0472751974e+01    0.3208806    0.2539639  34.27  0.001589478    1.478    0.323
        93 -11.7597     55.7509     75.5924   1.1336259833e+02   5.4984158242e+01    0.3614346    0.2625319  -2.83  0.002038407    1.542    0.352
        94  -9.6813    250.2575     80.9861   7.0240884562e+01   1.2884854431e+01    0.1769571    0.1035035 -42.90  0.000604519    1.521    0.343
        95 -10.3301     15.2833     75.7131   1.2758262139e+02   5.8860688318e+01     0.175037    0.1430845  13.27 0.0006829046    1.442    0.307
        96 -11.0514     36.2516     72.4066   1.1932053208e+02   5.7794724942e+01     0.397074    0.2543383 -54.21 0.0007260147    1.448    0.309
        97  -9.6974     32.1910     73.1219   1.2095875267e+02   5.8036230505e+01    0.1837281     0.167171  12.53 0.0002518995    1.272    0.214
        98 -11.4344      4.0618     73.9139   1.3111858004e+02   5.9914900352e+01    0.3212135    0.2131982  23.57  0.001154378    1.858    0.462
        99  -9.1866    224.0246     74.2403   7.2281471767e+01   1.9706945695e+01    0.1694923    0.1146966  64.38 0.0003298487    1.497    0.332
       100  -9.3610    136.4872     74.4970   8.8932636447e+01   4.0491848577e+01    0.1471796    0.1423132  38.52 0.0004996168    1.012    0.012
       101  -9.3270     96.1221     73.3643   9.9590015445e+01   4.9108847751e+01    0.1899634    0.1301467  51.23  0.000459688    1.642    0.391
       102 -10.8357    105.9824     71.4165   9.6090692943e+01   4.7573304104e+01    0.2588413    0.2176387 -23.12 0.0005737983    1.195    0.163
       103  -9.4151     92.4658     72.4653   1.0042187860e+02   4.9943250563e+01    0.1378201    0.1305319  -8.59 0.0001715813    1.047    0.045
       104  -9.4885     81.0045     72.4930   1.0402219033e+02   5.1914947186e+01    0.1796811    0.1197631  62.38 0.0008089513    2.426    0.588
       105  -9.2886     46.0309     68.6202   1.1476745985e+02   5.7507014243e+01    0.2500323    0.1706893  85.77    0.0010774    3.759    0.734
       106  -9.9266     10.2072     68.8061   1.2781220446e+02   6.0583056930e+01     0.262553    0.1206253 -49.84  0.001458031    1.612    0.380
       107  -9.0247    122.2988     68.6904   9.0776908762e+01   4.4663275123e+01    0.1410444    0.1157813 -81.17 0.0002903377    1.598    0.374
       108 -10.1655    114.2384     66.6504   9.2299862516e+01   4.6728491094e+01    0.2209692    0.2031035  68.07 0.0002833679    1.228    0.186
       109 -11.6556     34.2221     65.0464   1.1803197302e+02   5.9427248957e+01    0.4031956    0.2392223 -26.06 0.0004278597    1.690    0.408
       110 -11.2831     39.0182     62.5052   1.1552759318e+02   5.9428595963e+01    0.7447245    0.2652881 -31.45   0.00258551    4.284    0.767
       111 -10.3686    131.7670     64.6225   8.7141169866e+01   4.3252835194e+01    0.3785046    0.2554063  61.46  0.001791203    1.597    0.374
       112 -10.2661     14.4725     63.9876   1.2508197444e+02   6.1251514761e+01    0.2707778     0.161081 -75.16  0.001439608    2.470    0.595
       113  -9.7165     72.6269     63.5064   1.0394694792e+02   5.4895998077e+01    0.2109947    0.1185865 -41.96 0.0006553264    1.702    0.413
       114 -11.4424      3.9865     61.5750   1.2840801059e+02   6.2363571774e+01    0.3817461    0.2601349  72.52  0.001401973    2.688    0.628
       115 -11.1949      9.6391     60.3119   1.2597248474e+02   6.2275447200e+01    0.3040249    0.1781699 -34.64 0.0001579359    1.430    0.301
       116 -10.5558     62.5078     62.0193   1.0692420150e+02   5.6653284717e+01    0.2792661    0.2058685 -34.26  0.001127314    1.230    0.187
       117 -10.3918     60.4969     58.0732   1.0635682909e+02   5.7631722426e+01    0.2458304    0.2104155 -31.81  0.000812118    1.150    0.130
       118 -10.6218      1.7557     54.7937   1.2761145752e+02   6.3774258279e+01    0.1618893    0.1343922 -59.06 0.0007111911    1.303    0.233
       119 -11.1960      5.5538     51.2101   1.2519577356e+02   6.4227961441e+01    0.4106396    0.1366925 -38.49  0.001095742    2.444    0.591
       120 -11.9158     15.0682     46.1068   1.1991205607e+02   6.4519577296e+01    0.7166656    0.4101397  -4.63  0.003559493    1.923    0.480
       121 -13.0855     20.8090     57.1105   1.2084733941e+02   6.2094790747e+01    0.4244246    0.3807701 -81.96  0.003052129    1.582    0.368
       122  -9.6006     17.3391     64.3016   1.2409434143e+02   6.0989272731e+01    0.2009206    0.1286069 -29.98 0.0005515289    1.396    0.283
       123  -9.3475    100.6854     61.3715   9.4450216602e+01   5.0352803798e+01    0.1371821    0.1120978 -77.94 0.0007034284    1.784    0.440
       124 -11.1686     53.2303     58.2619   1.0901325335e+02   5.8562383340e+01    0.5119597    0.3700498  54.44  0.002416265    2.134    0.531
       125  -9.6035     54.2686     55.3277   1.0768580370e+02   5.8943623517e+01    0.1508033    0.1436308 -36.11 0.0002158167    1.311    0.237
       126  -9.1218     67.4330     60.5173   1.0474076139e+02   5.6210915456e+01    0.1320346    0.1129665 -13.10 0.0001116622    1.032    0.031
       127 -10.9188     83.5095     56.9500   9.8242545400e+01   5.4239982323e+01    0.2125459    0.1818818  36.53 0.0003178761    1.220    0.180
       128 -11.9015     87.5755     53.9775   9.5966174890e+01   5.4007504225e+01    0.4258277    0.2972699  30.44  0.001383552    1.398    0.285
       129 -10.2863    224.9086     55.3164   6.7852804264e+01   2.2488869801e+01    0.3390857    0.2590505  -9.79  0.001767304    2.039    0.510
       130 -10.1625     99.7832     56.1971   9.3027106971e+01   5.1372003112e+01    0.1837497    0.1485766   1.40  0.000356553    1.293    0.226
       131 -10.7588     20.3674     51.0829   1.1927609890e+02   6.3231427316e+01    0.3194824    0.1495728 -42.82  0.001034444    1.678    0.404
       132 -11.3702    114.7063     53.9262   8.8139617888e+01   4.8690604664e+01     0.332659    0.2703184  35.36   0.00105093    1.165    0.142
       133 -10.1291    106.1535     53.0670   9.0181766971e+01   5.0595762960e+01    0.2471724    0.2213466 -84.30  0.001351842    1.451    0.311
       134 -12.2362     65.9030     52.5954   1.0264006048e+02   5.7787423030e+01    0.4472992    0.2146952  32.39  0.001464195    2.143    0.533
       135 -10.5331     75.5918     49.7679   9.8381236789e+01   5.6729870790e+01    0.4292889    0.2653793  -0.18  0.001868349    2.205    0.547
       136 -10.0407     78.7047     45.6792   9.5935348950e+01   5.6838800582e+01     0.240705    0.1838125  36.78 0.0007406695    1.296    0.228
       137 -10.0812     34.3966     53.4112   1.1450546326e+02   6.1559034723e+01    0.2647793    0.1559568 -26.82  0.001024427    1.594    0.373
       138  -9.2156    198.5423     53.5269   7.1079924563e+01   2.8959502951e+01    0.1409145    0.1262258 -87.65 7.084365e-05    1.007    0.007
       139  -9.0493     71.4847     57.5148   1.0237849346e+02   5.6116283394e+01    0.1317745     0.115177  -7.81  2.54871e-05    1.001    0.001
       140  -9.1848    211.9970     48.9701   6.8079896341e+01   2.6421121216e+01     0.162383    0.1396088 -88.41            0    1.033    0.031
       141  -8.7263    147.6804     49.6909   7.9055133437e+01   4.1855064454e+01    0.1452897    0.1051813  28.36 0.0001775753    1.641    0.391
       142  -9.7937     38.0592     49.1209   1.1171614750e+02   6.1928853451e+01    0.1812285    0.1310774 -18.95  0.000504621    1.213    0.176
       143  -9.2287     87.5061     48.4722   9.4114742738e+01   5.4875658349e+01     0.134155    0.1168744   8.66 0.0002407489    1.034    0.033
       144 -10.0411     53.0718     48.3094   1.0576693057e+02   6.0282128655e+01    0.2732964    0.1449492  24.50 0.0007942837    2.011    0.503
       145 -10.2877    103.3686     47.4159   8.9081696857e+01   5.2001220254e+01    0.3761936    0.1414482  41.54  0.001453037    2.599    0.615
       146 -10.3238     30.9901     45.9369   1.1344047840e+02   6.3192830208e+01    0.2179586    0.1638549 -49.66 0.0009403834    1.476    0.323
       147  -9.5377     64.9845     46.2371   1.0076298658e+02   5.8944781664e+01    0.1710113    0.1425701  14.71            0    1.120    0.107
       148 -11.1509     25.6432     43.7621   1.1487259969e+02   6.4061569728e+01    0.2842468    0.2142226 -47.40  0.001155282    1.401    0.286
       149  -9.7381     30.4841     30.5414   1.0824336973e+02   6.5699140030e+01    0.2033456    0.1510817  29.28  0.001398851    1.566    0.361
       150 -10.5342     22.6960     38.5904   1.1435936735e+02   6.5183363875e+01      0.19964    0.1806793 -15.03 0.0007973192    1.299    0.230
       151 -11.4915     26.4560     35.5408   1.1173916349e+02   6.5331062642e+01    0.3938407    0.1929456 -30.18  0.001809189    1.824    0.452
       152  -9.3223     91.4151     44.5177   9.1556624553e+01   5.4740306784e+01    0.1320315    0.1165778  10.40 0.0001133077    1.018    0.018
       153 -10.7770     70.1682     41.5110   9.7290313929e+01   5.8860125153e+01    0.3598659    0.2302227 -27.63  0.002019864    1.507    0.336
       154 -10.4805     36.3892     41.2432   1.0970391902e+02   6.3416245438e+01    0.2469891    0.1796286 -23.92  0.001016259    1.133    0.117
       155  -9.7923      2.4685     42.3476   1.2399377954e+02   6.5995638540e+01    0.1583698   0.09500598   9.65 0.0007033887    1.821    0.451
       156 -10.6279     34.0069    247.2234   1.4461982116e+02   1.9003927325e+01    0.1616146    0.1166107  67.04 0.0004364025    1.081    0.075
       157  -9.5325    159.9585     40.4887   7.4004376439e+01   4.0173167777e+01    0.2095707    0.1267263  61.84 0.0003344497    1.506    0.336
       158 -10.5663    132.1343     38.5176   7.8994600835e+01   4.7000104400e+01    0.4351595    0.3159724  85.93  0.002213851    1.804    0.446
       159 -11.1283    134.1189     34.0492   7.7171747326e+01   4.7104480973e+01    0.2134181    0.1772721  40.49 0.0002917231    1.139    0.122
       160  -9.3579     43.1193     40.6542   1.0685343415e+02   6.2749345764e+01    0.1554502   0.09910123  14.10  0.000499803    1.589    0.371
       161 -10.2207     12.8889     38.2186   1.1835265300e+02   6.6031415143e+01    0.3441768    0.1136249 -56.76  0.001400281    4.035    0.752
       162 -12.2066    121.8225     36.7267   8.0777739321e+01   4.9547211858e+01    0.4922462    0.4467606  36.79  0.002965252    1.018    0.017
       163  -9.4490    101.7955     39.2118   8.6731072619e+01   5.3459642512e+01    0.1843623     0.140222  19.57 0.0004409575    1.326    0.246
       164  -9.2293    236.5466     37.5756   6.2635127197e+01   2.2409599330e+01    0.1290867    0.1069896 -78.15 0.0001309312    1.022    0.022
       165 -10.5670      1.9694     35.5164   1.2217290104e+02   6.7198615427e+01    0.2251577    0.1495179 -28.11  0.001434374    1.166    0.142
       166 -10.4103      3.3296     32.6724   1.2068529608e+02   6.7591444335e+01    0.1655274    0.1526515  -5.88  0.001077015    1.408    0.290
       167  -9.2101      5.5820     39.4345   1.2182684894e+02   6.6316968672e+01    0.1126803   0.07931443 -31.63 0.0008004303    1.062    0.059
       168  -9.0016     38.4982     35.5498   1.0682965774e+02   6.4074811728e+01    0.1174142   0.09503157 -11.96 4.433113e-05    1.043    0.041
       169  -9.4336     54.6888     34.6326   1.0025384405e+02   6.2163338445e+01    0.2166077    0.1053447  26.08  0.001070501    2.185    0.542
       170 -10.1992     50.4198     33.8804   1.0156914680e+02   6.2851728673e+01    0.1960707    0.1735624  12.30 0.0005988999    1.247    0.198
       171 -10.4845    145.0099     32.9885   7.4636602893e+01   4.4694398090e+01    0.1978772    0.1766783  57.43  0.001190748    1.006    0.006
       172 -11.0599     20.0844     31.6390   1.1304411471e+02   6.6521691686e+01    0.4161565    0.2065927  -4.60   0.00192608    2.645    0.622
       173  -9.5420    166.4348     31.0657   7.0268810666e+01   3.9794986157e+01    0.1843076    0.1345533 -33.37 0.0003632697    1.529    0.346
       174 -10.1263    126.8461     30.7847   7.7716041827e+01   4.9151203716e+01    0.2119488    0.1658891  34.90 0.0007595246    1.239    0.193
       175 -11.5942     44.0373     29.3430   1.0230131780e+02   6.4319913793e+01    0.4134999    0.2737854 -21.84  0.002630549    1.327    0.247
       176 -10.1140    205.1800     30.3896   6.4603359777e+01   3.0549731727e+01    0.1934517    0.1127336  82.34 0.0009482997    1.697    0.411
       177 -10.9195    139.2982     40.3371   7.8009906610e+01   4.5109913417e+01    0.2813027    0.2412613 -87.14  0.001604888    1.319    0.242
       178 -10.4627    149.3027     28.8619   7.2608106072e+01   4.4167206553e+01    0.4670302    0.2848978 -89.23   0.00210653    2.313    0.568
       179  -9.4758    224.5350    246.5359   1.0821361694e+02  -1.0654517290e+01    0.1241723   0.09986828  12.75 0.0001312112    1.035    0.034
       180 -10.0244    140.6014     27.0793   7.3716804785e+01   4.6420096843e+01    0.2894213    0.2001713  68.54  0.001370085    1.401    0.286
       181 -10.2843      7.2658     27.9188   1.1735219500e+02   6.8101819670e+01    0.2082609    0.1634371  28.06  0.001381969    1.708    0.414
       182 -10.3517    155.6187     26.0795   7.0686990544e+01   4.2981054175e+01    0.4414759    0.2059045  74.06  0.001701023    2.501    0.600
       183  -9.1961    136.3280    245.6795   1.2525845053e+02   4.0622228970e+00    0.1342719   0.09042443  66.71 0.0005951516    1.687    0.407
       184 -11.0422     74.6902     21.6731   8.8368694752e+01   6.0692342172e+01    0.2861042    0.2113184  -6.75 0.0008799292    1.308    0.236
       185 -10.2266    113.9348     25.2122   7.8838002227e+01   5.2629952296e+01    0.2098771     0.188824 -12.63 0.0007940308    1.207    0.171
       186 -10.0257    100.9611     25.7679   8.2270440719e+01   5.5281150797e+01    0.2108553    0.1612096 -44.23  0.001072584    1.613    0.380
       187  -8.3636     18.4381     26.4411   1.1186320225e+02   6.7458953637e+01    0.1149143   0.08042373 -18.07 0.0002427688    1.116    0.104
       188  -9.6075    246.6978     25.6952   5.9222665089e+01   2.1773612209e+01    0.1079839   0.09434993  50.02 0.0003148107    1.595    0.373
       189 -10.0214    218.8048     25.5964   6.1947849393e+01   2.7972962618e+01    0.1812837    0.1065988  86.89 0.0004040078    1.646    0.392
       190 -10.1463     59.1201     24.3973   9.4697302896e+01   6.2890995265e+01    0.2247667    0.1444804  -9.80 0.0009418207    1.553    0.356
       191  -9.7170     52.4521     24.9400   9.7352105650e+01   6.3792775310e+01    0.1507177   0.09898999 -51.96 0.0008085995    2.608    0.617
       192  -9.2578     94.0455     23.9155   8.3471527054e+01   5.6866546431e+01    0.1481205    0.1273427  26.36 0.0004558214    1.013    0.013
       193  -9.7094    217.4763    245.0000   1.0927648755e+02  -9.3591415812e+00    0.2795719   0.06189136  39.37 0.0009439362    4.009    0.751
       194 -10.1007     85.2143     20.9116   8.4870517890e+01   5.8884620593e+01    0.3197044    0.1242985  38.33 0.0009236389    2.440    0.590
       195  -9.9656     89.3608     21.9624   8.4067846160e+01   5.7987727803e+01    0.3770031    0.1482808 -25.37  0.001655531    2.816    0.645
       196 -11.3888     38.2098    242.2944   1.4353584864e+02   1.9456895229e+01    0.4106528    0.1290645  59.82   0.00169343    3.383    0.704
       197  -9.3235     74.4427    243.5888   1.3705053860e+02   1.4335107829e+01     0.123895   0.09740122  67.57 0.0001089186    1.010    0.010
       198 -11.4692     13.2835     20.7272   1.1200269341e+02   6.8735911693e+01    0.2435435    0.1815501 -32.03 0.0008365143    1.255    0.203
       199 -10.6697     19.9797     16.7728   1.0740813335e+02   6.8697247056e+01    0.1896999    0.1387352  14.30 0.0003745064    1.327    0.247
       200  -9.4730    202.4452    240.3314   1.1136955533e+02  -6.2704738109e+00    0.2104406    0.1213735 -34.43 0.0008759944    1.922    0.480
       201 -10.4158      2.1064     22.2355   1.1769953172e+02   6.9326115872e+01    0.2480548    0.1148842 -42.74 0.0009654824    1.672    0.402
       202  -9.8672    132.1500     20.3751   7.3312318587e+01   4.9097097920e+01    0.2108996    0.1753919  14.88 0.0008327415    1.340    0.254
       203  -9.8454    124.3886     20.8708   7.5061728945e+01   5.0799738207e+01    0.2368208    0.1084449 -37.37  0.001079017    2.456    0.593
       204 -12.8089     25.6916    235.8218   1.4526060278e+02   2.2230376202e+01    0.3952509    0.3355542  64.25  0.002572015    1.315    0.240
       205 -12.1509      2.3075    219.8669   1.4828967252e+02   2.7925346742e+01    0.6969004    0.1303535 -75.24  0.002660684    4.220    0.763
       206 -13.2880     10.1504    230.2128   1.4757578012e+02   2.5044272799e+01    0.6960308    0.3558449 -87.00  0.003221724    1.585    0.369
       207 -12.0137      4.1736    232.4948   1.4872141176e+02   2.5192633656e+01    0.4602681      0.20783  81.42 0.0003684116    1.904    0.475
       208  -9.1521     60.5707    241.0000   1.3939580013e+02   1.6806906085e+01     0.254674     0.060369  38.67 0.0009336563    3.926    0.745
       209  -9.8894    249.1647    234.1381   1.0159852329e+02  -1.2549024117e+01    0.1845727    0.1364819   3.72 0.0005110413    1.187    0.158
       210 -10.3401     26.4437     16.5106   1.0444346658e+02   6.8084371605e+01    0.2332418     0.185192  26.12  0.001737426    1.519    0.342
       211 -10.3982    175.0294     20.5386   6.6150836767e+01   3.8935564926e+01    0.2066536    0.1146118  67.31 0.0005529593    1.566    0.362
       212  -9.4762    140.2363    227.3972   1.2187780519e+02   6.7870782361e+00    0.2035534    0.1117077  50.29 0.0009463078    1.702    0.412
       213  -9.8467    148.3955     18.7039   6.9805988606e+01   4.5493980568e+01    0.1962887     0.142357 -76.14 0.0005096158    1.650    0.394
       214 -10.4752     57.1165     15.2288   9.1720877639e+01   6.4274373965e+01    0.2147483    0.1490288 -40.85  0.001123511    1.917    0.478
       215  -9.4653    227.3004     18.3617   5.9530461062e+01   2.6926267037e+01     0.115787   0.09404619  42.41  0.000703569    1.721    0.419
       216 -10.2300    199.9309     17.1129   6.2127666548e+01   3.3374593738e+01    0.1985258    0.1632715 -89.01 0.0004912915    1.025    0.025
       217 -10.4273     32.8150    225.0661   1.4318160265e+02   2.3607897759e+01    0.2885458    0.1451876  46.19  0.001640816    1.806    0.446
       218 -10.5929    190.6266     13.8773   6.2451695756e+01   3.5929569056e+01    0.2240964    0.1530269  64.62 0.0007719199    1.302    0.232
       219  -9.2081     75.6672     14.7264   8.5361506449e+01   6.1271349473e+01    0.1260459   0.07681736  23.08 0.0002078653    1.596    0.374
       220  -9.9760     68.9944     13.6685   8.7046774477e+01   6.2533296949e+01    0.1726279    0.1363561  51.00 0.0008657444    1.512    0.339
       221 -10.0597     62.5546     13.7655   8.9224317826e+01   6.3583191785e+01    0.1469039    0.1045167 -29.56 0.0003073308    1.549    0.354
       222 -10.3069     25.6208    225.1771   1.4450707444e+02   2.4410672619e+01    0.1620178   0.08771358 -68.24  0.000951072    1.728    0.421
       223 -11.7144      7.9697    217.7138   1.4715686740e+02   2.7821998944e+01    0.2995102    0.2249129  79.22  0.001892255    1.064    0.060
       224 -10.9629      4.3306    212.8342   1.4748707237e+02   2.9191609335e+01    0.2993661     0.147419  61.53  0.001660548    1.767    0.434
       225  -9.6523    246.4758    216.5169   9.8890877990e+01  -9.6242967228e+00    0.1286371    0.1045393  -1.68 0.0001986547    1.059    0.056
       226 -10.9784     15.9107    212.3362   1.4533703661e+02   2.8155144998e+01     0.260618    0.1940005 -53.66  0.001750144    1.778    0.438
       227  -9.4469    209.5155    211.5163   1.0491856982e+02  -2.7792620604e+00    0.1351136    0.1220308  11.59 0.0008102201    1.015    0.015
       228  -9.9035     20.6069    209.7717   1.4425927049e+02   2.8215619785e+01    0.1642834   0.08832657  89.80 0.0003447545    1.596    0.374
       229  -9.8228    246.7378    207.0259   9.7063090384e+01  -8.2142167581e+00    0.1865126    0.1440947 -24.82  0.001133198    1.180    0.153
       230  -9.2104    197.3102    204.2906   1.0600772530e+02   6.9030797723e-01    0.1403863    0.1048776   4.57 0.0005004474    1.583    0.368
       231 -11.7232      9.2796    203.5044   1.4592841794e+02   3.0703878809e+01    0.2503823    0.1819054  66.07 0.0009035943    1.218    0.179
       232  -9.1001    181.5115    199.4740   1.0837374418e+02   4.5644844460e+00    0.1422179    0.1347066  36.30 0.0001816637    1.042    0.041
       233  -9.3569     22.9998    197.4951   1.4277356070e+02   3.0650977930e+01    0.1622929    0.1124235  42.62 0.0006401942    1.577    0.366
       234 -10.2785      6.8316    191.8123   1.4551714324e+02   3.3476450617e+01    0.2826966    0.1210919  68.33  0.001376674    2.470    0.595
       235  -9.6220     15.3775    185.1759   1.4324104682e+02   3.4165176285e+01    0.1750246   0.09072062 -86.94 0.0009384477    1.677    0.404
       236  -9.5171      1.3236    183.2128   1.4594175086e+02   3.5848356120e+01    0.1631318   0.08284884 -85.38 0.0004822545    1.582    0.368
       237 -11.1159      4.5700    167.2079   1.4391634808e+02   3.9168653713e+01    0.3179827    0.2134069  62.09  0.001662328    1.482    0.325
       238  -9.8509     14.3174    164.3466   1.4148115294e+02   3.9012734745e+01    0.1231471   0.07713002 -50.65 0.0007048475    1.725    0.420
       239  -9.1277     41.7552    158.0431   1.3423529694e+02   3.7789023787e+01    0.1783665   0.09654346 -69.14 0.0008793071    1.581    0.368
       240  -9.0467    247.4645    155.5021   8.6596795363e+01   3.3907346133e-01    0.1379419    0.1219716 -30.42 0.0001274458    1.003    0.003
       241 -10.3306      2.8447    153.5729   1.4300551874e+02   4.2399597836e+01    0.2423576   0.07967246  38.05  0.001146639    3.164    0.684
       242 -10.2728     23.8533    150.8622   1.3770449577e+02   4.1306766779e+01    0.1873685     0.147466 -59.18 0.0004165906    1.218    0.179
       243  -9.6220     15.4324    150.5244   1.3971398530e+02   4.2119951302e+01    0.1244318   0.09701135 -78.31 0.0001040517    1.012    0.012
       244 -10.4475     21.9984    143.2039   1.3718993992e+02   4.3270987715e+01    0.2347319    0.1526452 -72.12  0.001176848    1.247    0.198
