#   1 NUMBER                 Running object number                                     
#   2 MAG_AUTO               Kron-like elliptical aperture magnitude                    [mag]
#   3 X_IMAGE                Object position along x                                    [pixel]
#   4 Y_IMAGE                Object position along y                                    [pixel]
#   5 X_WORLD                Barycenter position along world x axis                     [deg]
#   6 Y_WORLD                Barycenter position along world y axis                     [deg]
#   7 A_WORLD                Profile RMS along major axis (world units)                 [deg]
#   8 B_WORLD                Profile RMS along minor axis (world units)                 [deg]
#   9 THETA_WORLD            Position angle (CCW/world-x)                               [deg]
#  10 FWHM_WORLD             FWHM assuming a gaussian core                              [deg]
#  11 ELONGATION             A_IMAGE/B_IMAGE                                           
#  12 ELLIPTICITY            1 - B_IMAGE/A_IMAGE                                       
         1 -13.6691    215.9139     28.3978   6.0956529457e+00   2.8178015017e+01    0.8533498    0.7621677 -73.67  0.004061521    1.160    0.138
         2 -11.5260    227.2466      9.5198   1.3222950377e+00   2.7923669516e+01    0.2536292    0.1821797  89.68 0.0007532426    1.153    0.133
         3 -12.1677     91.9479    241.0520   7.5863486729e+01   1.1963082139e+01    0.2598895    0.1803707 -60.65  0.001482579    1.630    0.386
         4 -12.9519    248.0411    245.1586   4.4433468374e+01  -1.1473358637e+01    0.6309253    0.4006402 -38.18   0.00402187    1.763    0.433
         5 -15.4866    121.0088    234.6140   6.8622135167e+01   8.7948969403e+00     7.056269     4.278811 -67.33   0.03478435    2.152    0.535
         6 -11.2825     67.8153    213.8729   7.8241100901e+01   2.1164986116e+01    0.1890095     0.167153  60.80 0.0003390805    1.021    0.020
         7 -19.4130     20.8637    139.8608   8.1534727489e+01   4.4297626852e+01     18.25027     3.267691 -71.06    0.0474952    6.055    0.835
         8 -10.9025    152.7042    207.0080   5.7103848782e+01   9.0119069951e+00    0.2661191    0.1937532   7.80 0.0008503099    1.619    0.382
         9 -10.0974    161.6154    199.9809   5.3816647542e+01   8.8602046941e+00    0.4094297    0.2154704  50.87   0.00165946    2.316    0.568
        10  -9.9854    210.9848    198.7625   4.3126178150e+01   6.9749912482e-01    0.2154052    0.1787796 -22.24 0.0004857288    1.113    0.102
        11  -9.1927     45.5433    198.5457   8.1847726562e+01   2.7539386297e+01    0.1295874    0.1166688  80.96 0.0008068506    1.047    0.045
        12  -9.3011     69.2284    195.3774   7.5649904316e+01   2.5225249629e+01    0.3699784    0.1594181 -65.76    0.0013773    2.366    0.577
        13 -12.4722     47.9372    228.7808   8.4212971732e+01   2.0479329134e+01    0.2746728    0.2260626 -62.69  0.001774497    1.382    0.276
        14 -11.3163     82.1863    194.9052   7.2326268261e+01   2.3461552682e+01    0.4095524    0.2906128  47.44 0.0008060532    1.333    0.250
        15  -9.9208     49.5528    195.2885   8.0520084956e+01   2.7820394418e+01    0.2770789    0.1596444  45.96 0.0008557548    1.636    0.389
        16 -10.3146     54.8663    191.5927   7.8775353240e+01   2.8034744609e+01    0.3128401    0.1757877 -74.39 0.0005994421    1.797    0.443
        17 -10.9899     62.7976    238.6350   8.1917686986e+01   1.6521240765e+01    0.1112127   0.09019223 -48.97 0.0004049489    1.557    0.358
        18 -11.7087     59.8924    227.1949   8.1453682835e+01   1.9303925286e+01    0.1874227     0.168912 -75.09 0.0005175865    1.221    0.181
        19  -7.8749     70.4480    233.4721   7.9757324151e+01   1.6562083433e+01    0.1242609    0.1144594  52.67 0.0002590943    1.133    0.117
        20  -9.2066     78.3124    184.2170   7.1771113053e+01   2.6580655947e+01    0.1298454    0.1100524  -5.09 0.0002985073    1.477    0.323
        21 -12.4069    143.6774    181.8717   5.4639728488e+01   1.5929510609e+01    0.6092741    0.3341711  21.22  0.002262674    2.574    0.611
        22 -10.7970     73.4820    179.2116   7.2299107486e+01   2.8499076530e+01     0.476133    0.2745707 -86.71  0.001167946    2.375    0.579
        23 -11.9423     59.2673    179.1819   7.6061246871e+01   3.0461190386e+01    0.4369003    0.2929543 -39.24  0.001360655    1.818    0.450
        24 -10.3128    174.5698    179.4938   4.6972504731e+01   1.0645835814e+01    0.2388331    0.2211671   3.67 0.0007366753    1.021    0.021
        25 -12.0975    172.5676    174.4621   4.6402173832e+01   1.2047943340e+01    0.5729815    0.4641744 -18.27  0.001286242    1.312    0.238
        26 -11.6399    179.5445    168.8546   4.3704600077e+01   1.1864872512e+01    0.6315379    0.5119085 -35.82  0.002799109    1.216    0.178
        27  -9.9469     63.5872    181.6280   7.5258758857e+01   2.9292572035e+01    0.1664288    0.1283276 -83.66 0.0002052733    1.300    0.231
        28 -10.8756     90.1546    221.8466   7.3985702988e+01   1.6198709294e+01    0.3836839    0.2953744  -2.26   0.00203467    1.839    0.456
        29 -12.0915    133.6174    145.1455   4.9526203399e+01   2.6162922490e+01     1.157195    0.3132808 -53.14  0.002940195    4.751    0.790
        30 -10.9429    112.1719    150.3931   5.6446968524e+01   2.9112397666e+01     0.346637    0.2304046  73.67  0.001360066    2.349    0.574
        31 -10.1770    115.3241    147.6752   5.4995093832e+01   2.9165249398e+01    0.2317522    0.1795399  76.18   0.00105044    1.655    0.396
        32 -11.7206    108.8949    145.2996   5.6270205859e+01   3.0936931581e+01    0.3529573    0.3472904 -46.22 0.0006736669    1.023    0.023
        33  -9.5076    113.2739    144.6814   5.4910395580e+01   3.0262983444e+01    0.2408104     0.194676 -78.81 0.0003151746    1.475    0.322
        34 -11.1368     90.6187    148.4058   6.2147385807e+01   3.3411131042e+01    0.2769908    0.2616205 -17.49 0.0003784899    1.120    0.107
        35 -12.9616     95.8746    143.4343   5.9597898086e+01   3.3728346042e+01    0.8779544    0.6623738 -36.84   0.00203502    1.421    0.296
        36 -11.3409    106.1552    138.8045   5.5621730939e+01   3.2994178025e+01    0.5298764    0.3354104  80.20   0.00144915    3.121    0.680
        37 -12.3468    106.4185    131.6184   5.3909986211e+01   3.4645747203e+01    0.6273411    0.4784714 -63.68  0.002595536    1.447    0.309
        38 -11.9720     95.8654    130.8579   5.6844015302e+01   3.6758539487e+01    0.3948765    0.2964268 -45.16 0.0005154277    1.327    0.246
        39 -11.3344    135.3687    130.4389   4.5645612825e+01   2.9119038581e+01    0.4846334    0.2611193 -49.57  0.001573186    1.916    0.478
        40 -10.3980    161.2817    126.9288   3.8438351457e+01   2.4318151212e+01    0.3932713    0.2476698 -28.04   0.00162633    1.946    0.486
        41 -10.2710    131.0579    125.9567   4.5692698640e+01   3.1018722678e+01    0.2452528    0.1928142  -3.72 0.0005659306    1.626    0.385
        42 -10.6014    102.4671    120.4332   5.2401035081e+01   3.7994846351e+01    0.2891827    0.2495307  -6.93  0.001458374    1.285    0.222
        43  -9.8279    162.3079    119.8318   3.6487233194e+01   2.5556267814e+01    0.2704382    0.2076049 -59.65 0.0007109088    1.437    0.304
        44  -9.9996    159.7697    116.0885   3.6144694738e+01   2.6879651911e+01    0.2775275    0.2112831 -70.08  0.000789018    1.617    0.382
        45 -11.0665    114.8274    125.3842   5.0012884406e+01   3.4465169033e+01    0.3278718    0.2639793  23.64 0.0008015127    1.332    0.249
        46 -12.2380     68.8155    115.8222   6.1909903228e+01   4.4750613959e+01    0.5470906    0.4254953 -46.90  0.002436795    1.223    0.182
        47 -10.1709    110.0592    115.4947   4.8924951177e+01   3.7648735599e+01    0.2291047    0.2061731 -43.94 0.0004008569    1.121    0.108
        48 -10.2674    155.9918    111.2325   3.5800079244e+01   2.8704305724e+01    0.2747065    0.2085076 -70.27 0.0006988982    1.628    0.386
        49 -11.6759    116.9876    109.1715   4.5295567695e+01   3.7636227177e+01    0.4161974    0.3169644  54.98  0.001970058    1.411    0.291
        50 -10.5340    134.5652    106.2255   3.9751839187e+01   3.4498565419e+01    0.3004277    0.1500923 -47.43  0.001145778    2.090    0.521
        51 -11.8770    119.1316    103.9534   4.3303934830e+01   3.8300312387e+01    0.3374562    0.3110906 -64.07  0.001777889    1.176    0.150
        52  -9.3470     84.6960    104.3331   5.3863105178e+01   4.4864999840e+01    0.1469321    0.1194006  80.05 0.0003109279    1.660    0.398
        53 -11.4604    111.7071     98.9648   4.4065651143e+01   4.0890882534e+01    0.4497025    0.2942825  68.16  0.001802438    2.332    0.571
        54  -9.8381     64.8000     99.6119   5.9360929583e+01   4.9083512797e+01    0.2017973    0.1284063  41.52 0.0009486898    1.701    0.412
        55 -12.0439     89.2416    215.3600   7.3373284472e+01   1.7745033991e+01    0.5969653    0.3148458 -56.18  0.002321952    2.016    0.504
        56  -9.5167    114.4952     88.9878   4.0461053700e+01   4.2323664339e+01    0.2152388    0.1492234 -42.43 0.0004099774    1.493    0.330
        57 -10.5479     98.2029     88.3261   4.5123391110e+01   4.5783188638e+01    0.5170283     0.306013  71.15  0.001614307    4.404    0.773
        58 -12.5573     53.6312    230.4139   8.3128709816e+01   1.9422484002e+01    0.3351594    0.1966244 -88.70  0.001773368    1.844    0.458
        59 -10.9654     56.0640    236.6361   8.3169262834e+01   1.7808240586e+01    0.1090695   0.05775388 -77.63            0    2.033    0.508
        60 -10.2324     83.6239    221.5331   7.5459191687e+01   1.7234416900e+01    0.2858655    0.1629514 -64.74   0.00124739    1.886    0.470
        61 -13.0430    173.9453     67.3685   2.0851702797e+01   3.2413820218e+01    0.5419961    0.5205735  54.15 0.0008557022    1.130    0.115
        62  -9.3016     99.2736     64.3517   3.7466030028e+01   5.0012249502e+01    0.1450477    0.1073902   5.60 0.0007001411    1.636    0.389
        63 -13.7433    190.8496     53.6166   1.4753053226e+01   3.0508100495e+01     1.164646    0.8802498  36.39  0.004115608    1.719    0.418
        64 -11.9905    196.6948     48.6028   1.2765433748e+01   2.9863920043e+01    0.3417497    0.2943955  50.39  0.001109934    1.339    0.253
        65  -9.7558     75.0127     53.9752   4.1937483166e+01   5.6402465576e+01     0.164428    0.1444882  12.42 0.0003317662    1.001    0.001
        66 -11.2929     36.6666     50.6472   5.6022089923e+01   6.2657208805e+01    0.2271826    0.2019883  -4.68 0.0007272309    1.144    0.126
        67 -10.2835     60.9474    219.0819   8.0395851146e+01   2.0929993738e+01    0.1606848    0.1296518  78.24 0.0002978793    1.163    0.140
        68 -15.9149     68.3454    143.0046   6.7699607399e+01   3.8195122604e+01     2.836051     2.234353  77.29   0.01448123    1.480    0.324
        69 -11.2257     60.7095     21.4375   3.4819209118e+01   6.3480386146e+01    0.2264291    0.1878247  40.62 0.0008396407    1.286    0.222
