#   1 NUMBER                 Running object number                                     
#   2 MAG_AUTO               Kron-like elliptical aperture magnitude                    [mag]
#   3 X_IMAGE                Object position along x                                    [pixel]
#   4 Y_IMAGE                Object position along y                                    [pixel]
#   5 X_WORLD                Barycenter position along world x axis                     [deg]
#   6 Y_WORLD                Barycenter position along world y axis                     [deg]
#   7 A_WORLD                Profile RMS along major axis (world units)                 [deg]
#   8 B_WORLD                Profile RMS along minor axis (world units)                 [deg]
#   9 THETA_WORLD            Position angle (CCW/world-x)                               [deg]
#  10 FWHM_WORLD             FWHM assuming a gaussian core                              [deg]
#  11 ELONGATION             A_IMAGE/B_IMAGE                                           
#  12 ELLIPTICITY            1 - B_IMAGE/A_IMAGE                                       
         1 -16.4762     72.4237    151.8939   1.1052798199e+02   3.4887001716e+01     2.890701     1.746952  86.49   0.01410826    1.907    0.476
         2 -16.4014     93.6343    114.6141   9.8176182746e+01   4.0331863965e+01     4.010582     2.406262  18.11   0.01567487    2.929    0.659
         3 -12.3769    105.4288     44.5354   7.2931676705e+01   5.2927396388e+01     1.098519    0.6542706 -16.23  0.004531692    2.135    0.532
         4 -14.2816     96.5191     59.3624   8.1278077309e+01   5.2073603761e+01     1.737863    0.6956879 -44.95   0.00470603    2.398    0.583
         5 -14.0808    196.1685     35.2007   5.1265180879e+01   3.1418177488e+01     1.153879     1.024062  16.12   0.00541501    1.280    0.219
         6 -14.4426    206.8990     23.0398   4.6362475926e+01   3.0155653030e+01     1.112131    0.8646882  23.25  0.003067927    1.597    0.374
         7 -12.6947     70.5838     22.2324   7.4496231856e+01   6.3510593565e+01    0.5405247    0.3413205 -28.92  0.001529433    1.449    0.310
         8 -11.5151    230.4367      1.7344   3.8455265784e+01   2.6644167367e+01    0.3722988    0.1723245  74.32  0.001721346    2.147    0.534
         9 -10.8994     29.1790      2.3680   8.2044658774e+01   7.2839914818e+01    0.1492316    0.1091902  38.91 0.0009499975    1.731    0.422
        10 -10.1298    141.1808    198.1517   1.0214165308e+02   1.4474275807e+01    0.1725928    0.1384163  65.36  0.000387606    1.315    0.239
        11 -13.4514     73.8171    176.0721   1.1334546335e+02   2.9359269308e+01     1.039882    0.5744143 -34.26  0.004000224    4.560    0.781
        12 -16.0868      2.8218     87.4943   1.2113639740e+02   5.7150975602e+01     20.21712     2.134313 -75.40   0.03493494   15.649    0.936
        13 -13.2991     21.8782    193.6746   1.2560656080e+02   3.1844806126e+01    0.5428373    0.3012708  54.86 0.0005551775    1.461    0.316
        14 -17.1815     54.7478    203.3157   1.1995565829e+02   2.6305981523e+01      5.46075     3.202493  67.34   0.03361331    1.485    0.327
        15 -12.5632    108.3126    203.4257   1.0940641435e+02   1.8852866329e+01     0.266274     0.201124  47.25  0.000826899    1.154    0.134
        16 -13.9991    103.8407     86.0824   8.7820560819e+01   4.5017336585e+01     1.687196      1.16219 -25.79  0.006630512    1.782    0.439
        17 -12.7054    170.2176    232.0129   1.0142260357e+02   4.5892757477e+00    0.4093291    0.2691739 -62.77  0.002152879    2.443    0.591
        18 -12.4481    104.1691    140.8814   1.0083429150e+02   3.2435900784e+01    0.6095316    0.3742349 -29.52  0.002495039    2.722    0.633
        19  -9.8789    164.3178    170.4454   9.2808553178e+01   1.5235245477e+01    0.2085089     0.162945 -70.10 0.0005775832    1.678    0.404
        20 -12.6799     96.8023    192.5218   1.1041885492e+02   2.2666917922e+01    0.3372794    0.2793222 -21.66  0.001403406    1.863    0.463
        21 -10.9782    112.6083    131.1044   9.6745364382e+01   3.3140269873e+01    0.2932281    0.2518529  -9.31  0.000961206    1.505    0.336
        22 -11.2825    105.9390    130.7341   9.8371329512e+01   3.4434578516e+01    0.3740091    0.3021773 -77.91  0.001233263    1.278    0.218
        23 -12.7067    118.5253    126.7914   9.4304574808e+01   3.2998076082e+01    0.7794164    0.3524391 -45.74  0.002995203    2.237    0.553
        24 -11.6269     99.8052    127.8115   9.9359893521e+01   3.6186264453e+01     0.403893    0.2688377 -40.15   0.00117406    1.719    0.418
        25 -10.5416    125.6623    127.3463   9.2639790007e+01   3.1486345647e+01    0.2322451     0.175874  85.95 0.0006424002    1.682    0.405
        26 -12.0185     15.9724    122.9836   1.2137218667e+02   4.7891246889e+01    0.3046404    0.1774905  35.88  0.001783869    1.934    0.483
        27 -14.9934     10.2580    206.5624   1.2841899742e+02   3.0469098249e+01    0.5433494    0.5175962 -82.30  0.002425686    1.592    0.372
        28 -10.5150    194.2449    167.1260   8.6214581628e+01   1.0133277198e+01    0.2484383    0.2162774  36.91 0.0009540357    1.132    0.117
        29 -10.1482    167.7363    112.5055   7.9120967368e+01   2.5572610064e+01    0.3259442    0.2333062 -67.36  0.001414278    1.871    0.466
        30 -15.6127     88.3756    140.5539   1.0475142379e+02   3.5123780688e+01     2.382456       1.3599 -87.98  0.003784112    2.609    0.617
        31 -11.2874    134.2154    146.5857   9.4721481241e+01   2.5667903807e+01     0.827337    0.1805762 -52.31  0.002096629    5.614    0.822
        32  -9.9653    205.7076    110.0793   7.0980979811e+01   1.7414262558e+01    0.2127565    0.1837528 -23.73 0.0005877979    1.088    0.081
        33 -14.8322     87.2194    131.4835   1.0340176345e+02   3.7419134606e+01     1.015197    0.5628166  38.39  0.003371504    1.915    0.478
        34 -10.9882     86.3909     99.3298   9.6630593152e+01   4.5151449278e+01    0.3309737     0.228681  67.86 0.0006393219    1.873    0.466
        35 -10.8951     41.8715     91.8903   1.0898859142e+02   5.3005718604e+01    0.2025294    0.1580205 -48.91 0.0004707745    1.237    0.191
        36 -11.5197     53.5068     90.6152   1.0488092609e+02   5.1989240048e+01    0.2434431    0.2224665 -46.50   0.00150126    1.146    0.127
        37 -17.0983      5.7610    239.5482   1.3045025535e+02   2.5055207709e+01      1.98465     1.318336  84.54   0.01383899    1.280    0.219
        38 -14.0424     95.5698     74.1720   8.6634530388e+01   4.9206069822e+01     1.357418    0.7020509 -37.49  0.004088182    1.972    0.493
        39 -12.9775     96.6744    200.6797   1.1140989971e+02   2.1123478100e+01    0.3859402    0.3101791 -14.88  0.001293678    2.098    0.523
        40 -12.0041     53.4222    172.8572   1.1747405879e+02   3.2701017512e+01    0.2355747      0.18178  79.19 0.0007352668    1.073    0.068
        41 -13.2305     58.7846     69.5300   9.7564792040e+01   5.6241616120e+01     1.185549     0.689089 -22.59  0.004750629    2.702    0.630
        42 -11.5781     13.4694     59.8776   1.1252811235e+02   6.2962043262e+01    0.2088008    0.1862418 -65.57 0.0004267115    1.149    0.129
        43 -11.2740    153.7343     56.6497   6.5424159512e+01   3.9308005877e+01    0.4032913    0.2860306 -76.61 0.0008508702    1.933    0.483
        44 -10.9837    156.1344     50.5579   6.2860108286e+01   3.9671278115e+01    0.3453164    0.2567918 -81.35  0.001082864    1.716    0.417
        45 -13.4849    186.7154     42.3371   5.4805006087e+01   3.2917509293e+01    0.8800249     0.582814  -1.88 0.0009790065    1.997    0.499
        46 -12.4287     99.3312    180.7381   1.0836985038e+02   2.4624612383e+01    0.2869752    0.2319062  35.25 0.0009513638    1.357    0.263
        47 -10.0931    155.7098    200.0625   9.9566772539e+01   1.1687421641e+01    0.2928419    0.1547019 -64.24  0.001193132    3.310    0.698
        48 -10.2569     27.0215     35.5172   9.9365941736e+01   6.7215407072e+01    0.1558526     0.100721  54.02 0.0008100377    2.520    0.603
        49 -10.3722     77.5138     28.9691   7.5194492954e+01   6.1188606733e+01    0.2154171    0.1258176 -33.31  0.001029257    1.582    0.368
        50 -11.6846    193.7026    193.1299   9.1187135273e+01   6.2051312999e+00    0.6717861    0.3695069 -47.36  0.003357491    2.295    0.564
        51  -9.2005    145.4910     19.5485   5.3737988304e+01   4.6636896760e+01    0.1455345     0.138222 -70.27 0.0002566841    1.101    0.092
        52 -16.6804     72.1364    247.9211   1.2015857242e+02   1.6342860243e+01      7.48094      1.91103  34.84   0.02787908    5.203    0.808
