#   1 NUMBER                 Running object number                                     
#   2 MAG_AUTO               Kron-like elliptical aperture magnitude                    [mag]
#   3 X_IMAGE                Object position along x                                    [pixel]
#   4 Y_IMAGE                Object position along y                                    [pixel]
#   5 X_WORLD                Barycenter position along world x axis                     [deg]
#   6 Y_WORLD                Barycenter position along world y axis                     [deg]
#   7 A_WORLD                Profile RMS along major axis (world units)                 [deg]
#   8 B_WORLD                Profile RMS along minor axis (world units)                 [deg]
#   9 THETA_WORLD            Position angle (CCW/world-x)                               [deg]
#  10 FWHM_WORLD             FWHM assuming a gaussian core                              [deg]
#  11 ELONGATION             A_IMAGE/B_IMAGE                                           
#  12 ELLIPTICITY            1 - B_IMAGE/A_IMAGE                                       
         1 -14.3842     68.6052    144.2931   9.8552526163e+01   3.7382101764e+01     4.526743      2.42708  75.62  0.005266746    4.101    0.756
         2 -13.3854    201.5632     42.5827   3.9812857446e+01   2.9961447264e+01     1.180443     1.027143 -24.93  0.004164277    1.376    0.273
         3 -13.4947    212.4697     32.3441   3.6190398377e+01   2.8839083856e+01    0.8909723    0.7680604  38.73   0.00218978    1.549    0.354
         4 -11.5374      2.0591     28.9839   9.6322792622e+01   7.0212710941e+01    0.7014809    0.1507869 -53.09   0.00282198    3.461    0.711
         5 -12.3368      2.1131     11.8554   8.9281120990e+01   7.3098432974e+01     1.915785    0.2190283 -49.17  0.005645547    7.533    0.867
         6 -12.8334    238.1338      6.6072   2.8639936915e+01   2.6403392624e+01    0.7939258    0.5952007 -79.79  0.004889348    1.091    0.083
         7 -11.4024      1.5813     49.0234   1.0286145265e+02   6.6368052354e+01     1.072958     0.145487 -61.85  0.003104736    6.146    0.837
         8 -10.1751    102.0000    249.0280   1.0503633367e+02   8.3157197151e+00    0.2347484    0.1814525 -59.30 0.0007866448    1.504    0.335
         9 -11.2358    101.1467    243.0543   1.0454774693e+02   9.5702541770e+00    0.6131003    0.2506103 -57.65  0.001967744    2.737    0.635
        10 -15.5578     44.0405    193.2119   1.1211291938e+02   2.8114108286e+01     6.978179      2.81258  59.09   0.01682157    3.131    0.681
        11  -8.7822     82.4137    194.7237   1.0281746743e+02   2.2749270570e+01    0.1965796    0.1264889 -53.11 0.0009490962    1.612    0.380
        12 -10.2223    147.9939    189.4820   8.5684829830e+01   1.3089876773e+01    0.7541012    0.4758927  86.53  0.002403025    4.510    0.778
        13 -10.2212    111.0054    203.3318   9.7020270418e+01   1.6347874274e+01    0.2494526    0.2211235  58.13 0.0003888878    1.122    0.109
        14  -9.4768    118.6838    191.1544   9.3156203055e+01   1.7836562880e+01     0.229396    0.1886715 -82.56  0.001044534    1.423    0.297
        15  -9.0469     84.9924    185.7969   1.0087412450e+02   2.4513792148e+01    0.3422286    0.3098843 -40.55  0.001931749    1.218    0.179
        16 -10.0666     81.2365    182.0271   1.0128475563e+02   2.5992019071e+01    0.4601969    0.3671744  60.93  0.001718057    1.268    0.211
        17  -9.5434     99.3059    180.8991   9.6371915573e+01   2.3474769956e+01    0.2681231    0.2156902  26.55 0.0006390265    1.307    0.235
        18  -9.0681     88.8008    210.0919   1.0332396780e+02   1.8258322240e+01    0.2103372    0.1714152  70.55 0.0004641432    1.238    0.192
        19 -10.3981    186.6983    174.8442   7.3933079763e+01   9.1268729470e+00    0.3894481    0.3630674 -63.62  0.001336238    1.311    0.237
        20  -8.8406     90.5134    175.5070   9.7796992789e+01   2.6193709215e+01     0.147176    0.1401152  78.64 2.652105e-05    1.020    0.020
        21 -12.1870     80.3545    158.7846   9.7730241009e+01   3.1959888735e+01     1.110735    0.6318905  58.63 0.0008365678    2.271    0.560
        22 -12.7650     68.4810    153.9308   1.0029937786e+02   3.4913434875e+01    0.6941316    0.4439709 -51.74  0.001031368    1.496    0.332
        23 -11.2546    194.0210    197.0147   7.6821375315e+01   3.5954598469e+00    0.5225852    0.2958944 -58.17  0.002125625    2.910    0.656
        24 -10.7008    241.2885    169.4203   6.2325686625e+01   9.1549764117e-01    0.2647595    0.1278103  38.86  0.001243628    2.346    0.574
        25  -8.9049    110.8448    168.0668   9.1012131486e+01   2.4658900219e+01    0.2379428    0.2073785  82.24 0.0005775276    1.280    0.219
        26 -13.8472     18.8868    218.8744   1.1987433404e+02   2.4897338263e+01    0.7752706    0.6024724 -39.12  0.005001434    1.853    0.460
        27 -10.4534     33.2616    156.1376   1.1070645932e+02   3.8477225188e+01    0.3037928    0.2875917  60.80 0.0008481612    1.154    0.134
        28 -11.5370     87.6756    152.1177   9.4395698093e+01   3.2528198075e+01    0.7140806     0.466568 -23.98  0.002957304    2.167    0.539
        29 -10.4955    133.7937    145.0195   7.9992356024e+01   2.5924262028e+01     1.232769    0.3013872 -54.04   0.00264124    6.372    0.843
        30  -8.4772    112.0187    150.4768   8.7130751757e+01   2.8769955885e+01    0.2249167    0.1543194  37.03  0.000379884    1.476    0.323
        31 -10.7320     53.9859    148.2301   1.0360658985e+02   3.8257796354e+01    0.4646114    0.2359316 -57.75  0.002023969    1.749    0.428
        32 -11.5373     67.5926    171.5104   1.0334837380e+02   3.0545034166e+01    0.4920168    0.3369645 -27.82   0.00229122    1.995    0.499
        33  -9.1888    175.0341    149.0248   7.0854776940e+01   1.6687002724e+01    0.2340802    0.1927392 -83.88 0.0005885066    1.656    0.396
        34  -9.7996     29.2386    144.0177   1.1029805811e+02   4.1951774698e+01    0.3462881    0.2071453   1.62  0.001632105    2.390    0.582
        35 -10.0123    101.8081    138.3146   8.7386217275e+01   3.3629780762e+01    0.5748267    0.3576913 -21.89  0.002158518    2.463    0.594
        36 -11.5544     89.0763    137.7756   9.1057576006e+01   3.5947964961e+01     0.302168    0.2688037 -38.56 0.0003926194    1.119    0.107
        37 -10.2848     25.7980    137.6059   1.1046027360e+02   4.3892369598e+01    0.3791832    0.1938661  35.59  0.001222731    2.120    0.528
        38 -10.1250    105.9001    130.9540   8.4483002199e+01   3.4706983099e+01    0.5291913    0.3720002 -61.64  0.002344018    1.536    0.349
        39  -9.6032    111.1909    129.1066   8.2489894499e+01   3.4162579832e+01    0.3387586    0.2513653  11.16   0.00108783    1.692    0.409
        40 -10.0896    134.8468    128.5781   7.5766045913e+01   2.9549583827e+01     0.330321    0.2993484  14.72  0.001450935    1.157    0.135
        41  -8.8408    161.0000    127.9952   6.9064870637e+01   2.4122363477e+01    0.2699595   0.08753897 -43.57 0.0008092138    2.990    0.666
        42 -10.2720     98.0958    125.1364   8.5429333388e+01   3.7556530372e+01    0.3344274    0.2645147  -8.25 0.0006640831    1.527    0.345
        43 -10.0935    117.2165    123.8356   7.9443466281e+01   3.4251702849e+01    0.3122738    0.2146801   7.86  0.001240927    2.119    0.528
        44 -11.4405     71.9134    167.0575   1.0148350261e+02   3.1077227863e+01    0.4149884    0.2907562 -45.38   0.00202932    1.510    0.338
        45  -9.2191    107.6576    118.1440   8.0791089495e+01   3.7471170542e+01     0.216766    0.1907377 -35.61 0.0003902466    1.114    0.102
        46  -9.3454     32.4988    118.5242   1.0539690601e+02   4.8167850532e+01    0.1399903    0.1194261 -56.05  0.000160763    1.025    0.024
        47  -9.9188    231.2914    113.7747   5.2162862994e+01   1.2363983465e+01    0.2796986    0.2244682 -43.83 0.0007435019    1.084    0.077
        48  -9.0129     84.7181    118.8480   8.8094365693e+01   4.1407684282e+01    0.2902942    0.1933676  62.19  0.001207439    2.097    0.523
        49 -10.8899    113.2701    173.1319   9.1325131377e+01   2.3008536845e+01    0.4961478    0.2186871  38.64  0.001851356    2.203    0.546
        50 -10.3332    247.6972    110.9985   4.9199961117e+01   9.8321475050e+00    0.1987834    0.1523539 -41.13 0.0009676869    1.086    0.079
        51  -9.1710    205.5532    110.1888   5.5548828649e+01   1.8137639143e+01     0.243146    0.2072428  54.86  0.000609858    1.283    0.221
        52 -10.0787    115.7936    108.9275   7.5939929048e+01   3.7998697504e+01    0.4090688     0.251728 -23.06  0.001545575    2.281    0.562
        53 -10.3244     33.4865    108.6694   1.0325333744e+02   5.0552756056e+01     0.410237    0.1895625 -59.63  0.001808977    1.804    0.446
        54 -17.1308     13.6580    242.3149   1.2226307098e+02   2.0526463295e+01     5.524478     2.050026  25.64    0.0254136    3.521    0.716
        55 -10.1586    241.1809    101.6262   4.8092759058e+01   1.2578700077e+01     0.173892    0.1231698  42.79 0.0009550358    1.744    0.427
        56  -9.7815     35.6849    101.0523   1.0092347446e+02   5.2227370782e+01    0.2986612    0.1829571  43.36  0.001457288    1.975    0.494
        57 -10.0942    120.9707     98.9944   7.1672722051e+01   3.9111373801e+01    0.2430408    0.2386916 -29.77  0.000591537    1.039    0.037
        58 -14.9065      9.5477    207.3734   1.2108786976e+02   2.8315391611e+01     1.242471     1.018048 -34.75  0.005861549    1.742    0.426
        59  -9.9555    122.3626    199.1121   9.3585815919e+01   1.5421363091e+01    0.3263236    0.2537847 -85.70  0.001187749    1.631    0.387
        60  -8.5653     75.4970     85.4609   8.2220827039e+01   5.0743212689e+01    0.1464752    0.1369535 -19.41 0.0008090325    1.041    0.040
        61  -8.7131    159.4518     83.4663   5.7618617575e+01   3.3453421350e+01    0.1480866    0.1465263 -74.36 0.0002388041    1.011    0.011
        62  -8.6672    150.9964     82.9975   5.9356780121e+01   3.5526109054e+01    0.2505417    0.1864619 -79.67  0.001120104    1.807    0.447
        63  -8.8175    109.6864     79.5798   6.9136847006e+01   4.5503350740e+01    0.2017051    0.1449517  52.80 0.0008138817    1.499    0.333
        64  -8.8061     53.7187     65.0723   8.4111508559e+01   5.8297421576e+01    0.1896962    0.1561388 -27.39 0.0003244675    1.079    0.073
        65 -10.5771     13.4852     59.7512   1.0012630170e+02   6.3460040135e+01    0.2625571    0.1911057 -41.09 0.0006518228    1.087    0.080
        66 -12.8449    191.5847     49.8893   4.2923861417e+01   3.1255791241e+01    0.8298061    0.6946318  17.97  0.001133678    1.623    0.384
        67 -10.6628    191.4994    192.0003   7.6376817243e+01   4.9522059448e+00    0.4653389    0.3016983 -69.50  0.001815961    3.391    0.705
        68 -15.4259      5.5079    173.9896   1.1969106782e+02   3.6422849880e+01     9.123305    0.8343673 -73.95   0.02361309    6.731    0.851
        69 -10.0057    119.7729    244.9736   1.0077902432e+02   6.4774694355e+00    0.1728107    0.1610285  42.62 0.0005007994    1.096    0.088
        70  -9.2729    158.3191    225.6479   8.9608796622e+01   4.1013024131e+00    0.1326366    0.1053123  65.03 0.0007047402    1.744    0.427
        71  -8.6743    187.6600     30.7322   3.8620995002e+01   3.4672136398e+01    0.1274533    0.0941816  44.71 0.0004750304    1.600    0.375
        72  -8.8493    198.0552     23.4698   3.5651586951e+01   3.3127647698e+01    0.1887913    0.1572608 -49.94 0.0006252348    1.210    0.173
        73  -8.8375    189.5235     15.0080   3.4526904192e+01   3.6011143655e+01    0.1753783    0.1194069 -36.46 0.0006667515    1.557    0.358
        74  -9.9818    107.6886    204.3288   9.7975924055e+01   1.6656107736e+01    0.2529948    0.1773448 -75.10  0.001051301    1.694    0.410
