#   1 NUMBER                 Running object number                                     
#   2 MAG_AUTO               Kron-like elliptical aperture magnitude                    [mag]
#   3 X_IMAGE                Object position along x                                    [pixel]
#   4 Y_IMAGE                Object position along y                                    [pixel]
#   5 X_WORLD                Barycenter position along world x axis                     [deg]
#   6 Y_WORLD                Barycenter position along world y axis                     [deg]
#   7 A_WORLD                Profile RMS along major axis (world units)                 [deg]
#   8 B_WORLD                Profile RMS along minor axis (world units)                 [deg]
#   9 THETA_WORLD            Position angle (CCW/world-x)                               [deg]
#  10 FWHM_WORLD             FWHM assuming a gaussian core                              [deg]
#  11 ELONGATION             A_IMAGE/B_IMAGE                                           
#  12 ELLIPTICITY            1 - B_IMAGE/A_IMAGE                                       
         1 -16.0789    243.5234    200.6419   2.5811049078e+01   2.8171863907e-01     4.095537     1.020475 -35.07   0.01800608    3.384    0.704
         2 -15.2072    222.2413     52.0963   3.5917032153e+02   2.4445620378e+01     1.972362     1.220817 -21.36   0.01072212    1.935    0.483
         3 -15.9559    242.4717     65.3879   2.6097730770e-01   1.9020674704e+01     2.996459     1.086987 -36.60   0.01446209    2.085    0.520
         4 -14.1568    148.5537     81.1588   1.7119601448e+01   3.5931766380e+01     2.102366    0.8648512 -48.22  0.007559577    2.506    0.601
         5 -14.6548    194.0717     37.6568   3.5835702172e+02   3.2138563938e+01     1.351446     1.116597 -78.85  0.006847478    1.132    0.117
         6 -16.0950    243.4272    109.7282   9.2675317893e+00   1.2775009449e+01     3.303101    0.9925959 -37.45   0.01431975    2.542    0.607
         7 -14.0977    178.3445     23.9739   3.5626196862e+02   3.7381429789e+01    0.9783373    0.4415916 -49.01  0.004525642    1.942    0.485
         8 -13.2346    230.8128     13.2275   3.4994512438e+02   2.7382647509e+01    0.9189298      0.45633 -56.28  0.005372562    1.588    0.370
         9 -14.7991    153.7450      6.4842   3.5348436007e+02   4.5197739231e+01     1.937707    0.9819651 -87.97  0.009064562    1.924    0.480
        10 -13.2728    170.7221      3.1248   3.5109596334e+02   4.1372676285e+01    0.6907467    0.3794586 -72.34  0.002904573    1.672    0.402
        11 -12.4100     78.2621     13.0717   8.8596354688e+00   6.3917658669e+01    0.3165711     0.209967  44.19  0.001610407    1.456    0.313
        12 -14.1977     39.5995      8.8563   2.2297038277e+01   7.3128953728e+01    0.6390696      0.52932   4.91  0.003896211    1.217    0.178
        13 -12.4012     73.8661      7.3002   7.1141893226e+00   6.5602304102e+01    0.2356811    0.1860985 -42.44  0.001334256    1.411    0.291
        14 -12.1564     69.8575      6.0958   7.6549110916e+00   6.6699403962e+01    0.2097507    0.1829184 -77.01   0.00124527    1.286    0.223
        15 -13.7772     60.6324      3.8924   9.4224413410e+00   6.9117384261e+01    0.6134037    0.3927605  -9.25  0.003167925    1.869    0.465
        16 -12.1951    238.3959     12.1945   3.4935460195e+02   2.6063991948e+01    0.6457393    0.3004249 -48.61  0.003811689    1.551    0.355
        17 -13.1468    178.3617      5.0525   3.5108676625e+02   3.9387128803e+01    0.6751556    0.3446445 -44.40  0.003528105    1.661    0.398
        18 -11.2345      1.9871      2.4667   4.9454146891e+01   7.9739968105e+01    0.1955605    0.1485148 -41.01  0.001260914    1.256    0.204
        19 -13.1990     25.7640      2.2467   2.6432517679e+01   7.6577737344e+01    0.5923519    0.1294744  46.49  0.001907396    4.469    0.776
        20 -11.1333    110.5016      1.4995   3.5673136285e+02   5.6744515600e+01    0.1370403    0.1186075  85.45 -7.946684e-05    1.012    0.012
        21 -12.1559    102.1165    164.1385   4.8609980003e+01   2.7069103453e+01    0.2314057    0.2048815  -9.48  0.001041569    1.252    0.202
        22 -11.0383     89.9695    250.2265   6.2210350268e+01   1.1231549055e+01    0.1692194     0.078238  29.63 0.0008778327    1.661    0.398
        23 -12.2877    114.2474    161.7446   4.4891769694e+01   2.5614262743e+01    0.4478093    0.1858298 -60.56  0.001559456    3.045    0.672
        24 -13.7941    164.9520    125.6983   2.5107416069e+01   2.3903324330e+01     1.090726    0.6423683 -66.67   0.00413718    3.024    0.669
        25 -12.5406    167.0557    138.7407   2.7583992182e+01   2.0997244063e+01    0.4819885    0.3574592 -45.94  0.002531341    1.330    0.248
        26 -13.4397    181.3512    134.5036   2.3835914310e+01   1.9189672807e+01     1.031293    0.7124461  57.42  0.005270061    1.823    0.452
        27 -14.2967    177.7721    147.9534   2.7371987141e+01   1.7375064120e+01      1.67065    0.6367256 -35.25  0.006258265    2.814    0.645
        28 -14.0318    174.6772    140.4570   2.6408739544e+01   1.9294767407e+01    0.7392104    0.6570249 -54.70  0.004276097    1.243    0.196
        29 -12.5622    164.7441    158.0477   3.2077566937e+01   1.7721491945e+01    0.3309868    0.2376086 -24.16  0.001727285    1.454    0.312
        30 -11.7398    216.5998    155.8714   2.2081971244e+01   9.8995398138e+00    0.3857383    0.2344758 -16.17  0.002072946    1.822    0.451
        31 -13.3690    141.5397    151.4083   3.5966750868e+01   2.3101613916e+01     0.752795    0.6051332   3.75  0.003904458    1.406    0.289
        32 -11.6678    163.8679    150.3525   3.0707817373e+01   1.9340554068e+01    0.2874219    0.1993204 -34.71  0.001453596    1.408    0.290
        33 -13.4589    246.9557    143.6639   1.5395590526e+01   7.4861280242e+00    0.6085123    0.4780255  -0.21  0.004335341    1.326    0.246
        34 -14.7076    152.9793    220.4899   4.5141935166e+01   8.3457020609e+00     1.061097      0.88096  39.82  0.006983233    1.378    0.274
        35 -11.4116     82.0516    238.8105   6.2978680448e+01   1.4160616287e+01    0.2047969    0.1323335   1.67  0.001101017    2.028    0.507
        36 -12.8320    188.3550    121.7964   1.9758104198e+01   2.0178534224e+01     0.454593    0.3243889 -44.19  0.002344303    1.302    0.232
        37 -12.3594    188.6668    116.6577   1.8544622382e+01   2.1019354888e+01    0.4047279    0.3123513  -5.78  0.001908963    1.580    0.367
        38 -12.5843    200.6930    116.6547   1.6552627758e+01   1.8807645233e+01    0.6146782    0.3765815 -38.59  0.003206145    1.426    0.298
        39 -12.9111    154.7384    115.4034   2.4835863171e+01   2.7965312063e+01    0.7683897    0.3215868 -47.57  0.002840139    2.396    0.583
        40 -11.2779    129.4890    116.9377   3.1222646882e+01   3.2880198577e+01    0.2411838    0.1498458 -46.70  0.001035104    1.597    0.374
        41 -12.2960    212.3693    112.0112   1.3766787134e+01   1.7494937697e+01    0.4751599    0.2391327 -36.16   0.00232558    1.704    0.413
        42 -12.1691    220.4971    107.9983   1.1771105886e+01   1.6720917654e+01    0.3405445    0.2222589 -36.73  0.001359882    1.274    0.215
        43 -12.9961    156.3640     86.7825   1.7098056302e+01   3.3111562854e+01    0.6579852    0.5038977 -27.43  0.003294034    1.436    0.304
        44 -14.2525    143.9408     98.3438   2.2878580239e+01   3.3680804456e+01     1.730944    0.8348663 -52.27  0.006511195    2.287    0.563
        45 -13.4669    212.3324    203.4616   3.1213301350e+01   3.4261010658e+00    0.7701896    0.4636429  48.52  0.004161073    2.887    0.654
        46 -13.1646      3.9064     86.9263   7.2512713226e+01   5.9551724846e+01    0.7704461    0.4945413  83.36  0.003864029    1.564    0.360
        47 -13.8544     14.1000     89.0151   6.7895017855e+01   5.8400444232e+01    0.6678051    0.6329931 -86.98  0.003277073    1.044    0.042
        48 -12.3956    187.9526    129.5021   2.1533184134e+01   1.8896932351e+01    0.4241093    0.3203508 -66.49   0.00224422    1.753    0.429
        49 -13.0861    227.0992     72.6414   3.2849177572e+00   2.0754157811e+01    0.4630063     0.211621 -45.29  0.002320502    1.791    0.442
        50 -11.3394    112.6737     95.4862   3.0133644538e+01   4.1219132131e+01    0.3912735    0.1387761 -48.58  0.001236684    2.876    0.652
        51 -12.3300     83.9118     68.8262   3.1055840553e+01   5.3341001855e+01    0.3329436    0.2586438  54.90  0.001601813    1.306    0.234
        52 -13.0962    197.9829     63.8037   4.5013321875e+00   2.7719326980e+01    0.6774146    0.4671411  86.70  0.003699574    1.655    0.396
        53 -12.4517    195.6448     56.8797   3.0574629431e+00   2.9211002860e+01    0.2560205    0.2058122 -21.78  0.001105952    1.434    0.303
        54 -13.7916     43.5959     89.1817   5.4086593216e+01   5.5438236877e+01    0.8012879    0.6810545 -26.58  0.003841686    1.274    0.215
        55 -15.6283    197.4904    192.3190   3.1962732827e+01   6.9223437033e+00     1.806414     1.248446   1.83   0.01100219    1.416    0.294
        56 -11.7985    123.7023     46.0143   1.1314092158e+01   4.8018727505e+01    0.2136312      0.19694 -58.98  0.001178892    1.087    0.080
        57 -14.3690    194.6462    177.3073   2.9845816006e+01   9.6741148732e+00     1.185328    0.7590193   6.04  0.006238805    1.822    0.451
        58 -11.3726     57.0000     40.9960   3.1139193967e+01   6.4513613271e+01    0.2336684   0.08175385 -43.77  0.000804716    2.958    0.662
        59 -11.5525    118.4075     39.2074   1.0020015901e+01   5.0387020167e+01    0.2148409    0.1283435 -46.09 0.0009567029    1.709    0.415
        60 -13.1481     96.8329     36.3380   1.4237190963e+01   5.6271633120e+01     0.583456    0.2697949 -49.84  0.002199589    2.604    0.616
        61 -12.5907     80.7693     37.5225   1.9771320654e+01   5.9979038214e+01    0.4798855    0.1377524 -45.50  0.001406248    4.248    0.765
        62 -12.5885     89.9773     28.0222   1.2599632287e+01   5.9167869710e+01    0.3228508    0.1996387  52.09  0.001518209    1.495    0.331
        63 -13.5964    147.5607    206.9342   4.4324691479e+01   1.1366474038e+01     1.070016    0.5211684  18.43  0.004669785    2.438    0.590
        64 -13.4771     46.1020     26.0844   2.9231761757e+01   6.9275244932e+01    0.7549969    0.3096966  47.17   0.00301259    2.434    0.589
        65 -11.8994    102.8489     25.9715   8.3661948183e+00   5.6184579250e+01    0.2689339    0.2015825  66.99  0.001393065    1.230    0.187
        66 -11.1415     98.0514     25.5057   9.3320235023e+00   5.7469226642e+01     0.225828    0.1325393  63.77 0.0006790917    1.573    0.364
        67 -13.7183    135.5686    204.4504   4.6619455288e+01   1.3501432946e+01      0.67371    0.3384118 -49.45  0.003231288    2.199    0.545
        68 -11.9095    105.2041    225.1503   5.6301220532e+01   1.3796768958e+01    0.2401948    0.1846071  37.85  0.001093989    1.147    0.128
        69 -12.7812     88.7094    204.0081   5.7850234089e+01   2.0148786597e+01    0.3118989    0.2299462 -65.05  0.001746429    1.558    0.358
        70 -12.7243     94.1135    198.4581   5.5801330411e+01   2.0584855634e+01     0.644604    0.2293428 -61.60  0.002455679    3.232    0.691
        71 -10.5798    168.7422    197.5782   3.8382108871e+01   1.0007762139e+01    0.1737869    0.1108151  38.11 0.0009470345    1.601    0.375
        72 -13.8064    209.0384    214.9063   3.3596233343e+01   2.2369673827e+00    0.5884445    0.3239605   5.47  0.003307857    2.006    0.502
        73 -11.2363    183.3117    175.3558   3.1621126190e+01   1.1654993928e+01    0.2413784    0.2226376  -8.41  0.001339941    1.138    0.121
        74 -13.5093    218.3793    169.6049   2.4362749824e+01   7.5646602912e+00    0.5242856      0.37732 -47.39  0.003244866    1.660    0.398
        75 -12.7040    186.0841    166.7577   2.9487194171e+01   1.2698741794e+01     0.397844    0.3060212 -78.86  0.002054926    2.421    0.587
        76 -13.0290    205.3143    164.4094   2.5569166760e+01   1.0200432596e+01    0.5170183    0.2847567 -42.34   0.00255406    1.748    0.428
        77 -12.4557    208.2481    160.9895   2.4423740606e+01   1.0314433457e+01    0.2477441    0.1916621 -48.20  0.001269545    1.502    0.334
        78 -12.8202    150.0365    162.9123   3.6262414508e+01   1.9270234432e+01    0.4216634    0.3464226  59.29   0.00228641    1.498    0.333
