#   1 NUMBER                 Running object number                                     
#   2 MAG_AUTO               Kron-like elliptical aperture magnitude                    [mag]
#   3 X_IMAGE                Object position along x                                    [pixel]
#   4 Y_IMAGE                Object position along y                                    [pixel]
#   5 X_WORLD                Barycenter position along world x axis                     [deg]
#   6 Y_WORLD                Barycenter position along world y axis                     [deg]
#   7 A_WORLD                Profile RMS along major axis (world units)                 [deg]
#   8 B_WORLD                Profile RMS along minor axis (world units)                 [deg]
#   9 THETA_WORLD            Position angle (CCW/world-x)                               [deg]
#  10 FWHM_WORLD             FWHM assuming a gaussian core                              [deg]
#  11 ELONGATION             A_IMAGE/B_IMAGE                                           
#  12 ELLIPTICITY            1 - B_IMAGE/A_IMAGE                                       
         1 -11.3121     59.6788     23.9126   8.0439839736e+01   6.4089891636e+01    0.5404109    0.2208602 -25.64  0.002192899    2.807    0.644
         2 -10.7987     56.5614     14.3797   7.7207136382e+01   6.5917117859e+01    0.2593796    0.2114284 -23.54   0.00102328    1.235    0.190
         3 -10.0422     22.5716     29.8485   9.8924558584e+01   6.7509565954e+01    0.4146334    0.1925685 -44.87  0.002248809    1.656    0.396
         4 -10.8363     51.1646     20.1693   8.2146017411e+01   6.5897487391e+01    0.5645134    0.2040917 -34.74  0.002462556    2.470    0.595
         5 -10.3560    224.9772     21.8958   4.4345637391e+01   2.5906954016e+01    0.7317804     0.338572 -74.25  0.002698132    3.218    0.689
         6 -10.0672    149.5859     18.1539   5.3429539835e+01   4.5589396718e+01    0.4158714    0.2732458 -40.18  0.001720383    1.632    0.387
         7  -9.9903    110.1555     19.4177   6.2316923468e+01   5.5000195225e+01    0.2597128    0.2418816   9.30 0.0008761898    1.074    0.069
         8 -10.5643     86.0104     12.0340   6.5819542852e+01   6.0967992167e+01     0.358245    0.2083631  21.85  0.001599278    1.859    0.462
         9  -9.9092    155.5571     16.3587   5.1786073300e+01   4.4251473576e+01    0.4389448    0.2604443  20.74  0.001774978    2.244    0.554
        10 -10.6681     87.2462     17.6417   6.7969047786e+01   6.0073503240e+01    0.3394154    0.3076937 -69.82 0.0003332143    1.569    0.363
        11 -10.7010    181.8067     13.9899   4.7146518539e+01   3.7702100709e+01    0.5208486    0.3387098  61.00  0.002405768    1.422    0.297
        12  -9.2887    144.0381     14.8471   5.3262404869e+01   4.7342708191e+01    0.2247224    0.2003027  -6.77 0.0003711948    1.185    0.156
        13 -10.4752    122.9658     11.5116   5.6160968356e+01   5.2863215288e+01    0.5674143    0.2638707  55.61  0.002483221    1.899    0.473
        14  -9.1230     62.6064     11.7503   7.3594227220e+01   6.5287571510e+01     0.243558    0.1092579 -24.62  0.001137574    2.137    0.532
        15  -9.3041    188.1042     10.7327   4.5387637956e+01   3.6410372307e+01    0.2041146    0.1693715 -84.96 0.0003711654    1.165    0.142
        16 -10.2261     93.2104     10.2990   6.2938766718e+01   5.9682110460e+01    0.2332425    0.2181989  45.50  0.000675651    1.233    0.189
        17  -9.5314    209.9549      9.2280   4.2563174332e+01   3.1015632845e+01    0.2256464    0.1993259 -20.94 0.0003752894    1.282    0.220
        18  -8.4511    237.6788      9.3219   4.0066113575e+01   2.4304014592e+01    0.1421991   0.08154775 -60.86 0.0007045315    1.674    0.403
        19  -8.6452    101.5897      8.7464   6.0014820016e+01   5.8042189065e+01    0.1831663    0.1179063 -31.42 0.0009493866    1.660    0.398
        20  -8.6976    215.7593      8.4038   4.1779256408e+01   2.9661907988e+01    0.1851434    0.1129504  62.30 0.0005491059    1.593    0.372
        21  -9.6935     79.2383      7.4379   6.5773138349e+01   6.2791363497e+01     0.239202    0.2018224 -21.53 0.0008438778    1.275    0.215
        22  -8.4358    227.2776      7.6554   4.0541384754e+01   2.6940392764e+01    0.1416233   0.08343541 -58.34 0.0004335272    1.629    0.386
        23  -8.8858    220.1238      6.8423   4.0972782320e+01   2.8754467179e+01    0.1778093    0.1467023  57.27 0.0006550592    1.309    0.236
        24  -8.6919     10.3927      7.2760   9.5407248039e+01   7.2359534379e+01    0.1423392   0.08852008 -45.54 0.0006972957    1.510    0.338
        25  -8.5544     56.4737      4.9921   7.2538445265e+01   6.7096461446e+01    0.1548683    0.0958484 -44.75 0.0004740689    2.354    0.575
        26  -9.0226     89.1903      3.4896   6.0975113594e+01   6.1188668197e+01    0.2397958    0.1507749   4.26  0.001261582    1.649    0.394
        27  -8.9015     72.0112      4.5312   6.6708038654e+01   6.4457371435e+01    0.1734984    0.1150021  44.57 0.0001384541    1.477    0.323
        28  -9.7014     21.9057      3.3860   8.7338881526e+01   7.1897841855e+01    0.1725683    0.1256607 -30.47 0.0007058363    1.266    0.210
        29  -8.2331     50.4892      3.4011   7.4091924951e+01   6.8219768874e+01    0.1226066   0.09536934   3.43 8.314649e-05    1.027    0.026
        30  -9.2174    242.0954      1.8071   3.7959998943e+01   2.4081501218e+01    0.2007289    0.1444191 -65.32 0.0005167044    1.221    0.181
        31  -7.9383    142.6067      2.3000   4.9040876106e+01   4.8868354511e+01    0.1431488   0.09920077 -68.53 0.0004026048    1.804    0.446
        32  -8.7901    103.3980      1.6643   5.6511094778e+01   5.8289125038e+01    0.1744618    0.1187025   0.93 0.0004949712    1.513    0.339
        33  -8.7878     52.7708    126.0305   1.1218663510e+02   4.3452640421e+01    0.1857956    0.1473499 -70.15 0.0003448164    1.072    0.067
        34  -9.4992     27.9020    125.2801   1.1870018005e+02   4.6172130364e+01    0.2454477    0.1426734 -64.61  0.000526618    1.390    0.281
        35  -9.4540     23.4304    125.3319   1.1987332943e+02   4.6545843175e+01    0.2004492    0.1250294  58.76  0.001160021    1.744    0.427
        36  -9.2210     92.6500    122.1326   1.0055596213e+02   3.8767938373e+01    0.3731987    0.2047058  38.20   0.00163806    1.967    0.492
        37  -8.8455     54.9380    121.4610   1.1082098362e+02   4.4282600312e+01    0.1747633    0.1329643  36.15 0.0004089187    1.514    0.339
        38  -8.0416     46.6758    121.3121   1.1307140053e+02   4.5257551274e+01    0.1334463   0.09080226  76.46  0.000704007    1.658    0.397
        39  -9.5164     75.6857    119.1683   1.0461284626e+02   4.2098227037e+01    0.3044548    0.2118652 -86.80   0.00130339    1.715    0.417
        40  -9.7974     69.7350    118.6297   1.0617027573e+02   4.3064326564e+01     0.289392    0.2105684 -88.52 0.0008254172    1.545    0.353
        41  -8.9816     98.4012    117.8759   9.8031676950e+01   3.8789810110e+01    0.2754969    0.1968423  16.92 0.0009736925    1.930    0.482
        42 -10.1390     57.9965    117.1286   1.0918661762e+02   4.4943513873e+01    0.3437786      0.18374 -51.73 0.0004275194    1.691    0.409
        43 -10.5208     25.5304    116.2124   1.1810213261e+02   4.8492943707e+01    0.3600316    0.2535362  17.64  0.001581971    1.906    0.475
        44 -11.4859     11.7385    114.6722   1.2164303478e+02   4.9905274568e+01    0.2386864    0.1894905 -68.40 0.0003793915    1.107    0.097
        45 -10.8153     13.3794    109.9188   1.2059699832e+02   5.0885190944e+01    0.5426543    0.2700953  58.36  0.002775976    2.507    0.601
        46 -10.1864      6.9671    108.3238   1.2216608753e+02   5.1675226718e+01      0.22047     0.177453 -88.31 0.0003485893    1.143    0.125
        47 -10.1074     39.8791    114.1598   1.1379026044e+02   4.7658216252e+01    0.2943393    0.2130831 -66.27  0.001020754    1.136    0.120
        48  -9.7074      1.6060    112.5183   1.2409740576e+02   5.1046529831e+01    0.3341257    0.1258587 -86.26 0.0006890392    2.722    0.633
        49  -8.6862    124.3483    112.9875   8.9862200404e+01   3.5001904808e+01    0.2039187    0.1887707 -45.93 0.0005640325    1.050    0.048
        50  -9.0138     62.4927    111.9569   1.0690089335e+02   4.5608423715e+01    0.2111233    0.1196064 -59.99 0.0007573103    1.533    0.348
        51  -9.1408     49.9774    112.0483   1.1053621232e+02   4.7088453146e+01    0.1967599    0.1690423 -77.22 0.0004113772    1.074    0.068
        52 -10.8078     22.2332    109.3808   1.1804389252e+02   5.0353288699e+01    0.3743584    0.2393301 -56.63  0.002247072    1.340    0.254
        53  -8.9289     35.0253    107.8156   1.1412518038e+02   4.9620604853e+01    0.2435014    0.1512321 -65.11 0.0009185707    1.303    0.233
        54  -8.8279    119.0619    107.5217   8.9845472580e+01   3.7289144406e+01    0.2822202    0.1528686  38.30 0.0006788691    2.007    0.502
        55  -9.1215    122.7139    106.9333   8.8713904775e+01   3.6679505359e+01    0.2285103    0.2021395 -22.81 0.0003680227    1.209    0.173
        56  -8.8836    123.5498    103.4679   8.7559973499e+01   3.7270017267e+01    0.2457032    0.2150436  20.49 0.0007883815    1.265    0.209
        57  -8.9430     71.6235    107.2985   1.0324950008e+02   4.5483444956e+01    0.2025527      0.11542 -50.34 0.0009424118    1.573    0.364
        58 -10.3252     80.1684    103.9268   9.9951379849e+01   4.5020602678e+01    0.3380312    0.2853583 -18.26  0.001001203    1.393    0.282
        59  -9.7361      8.3088    103.6726   1.2120316986e+02   5.2654495859e+01    0.2095476    0.1583014  43.39  0.001428311    1.602    0.376
        60 -10.0487      7.9306    100.0510   1.2083000314e+02   5.3505579217e+01    0.2141361    0.1422989 -72.00 0.0003042986    1.146    0.128
        61  -8.5679    143.0026    104.0000   8.2697779214e+01   3.2951035653e+01    0.2659412   0.09019122  47.19 0.0008123263    3.011    0.668
        62  -9.1443    107.4031    103.3629   9.1947921701e+01   4.0492574995e+01    0.3845173     0.145074  35.27  0.001235909    3.354    0.702
        63  -8.9650     27.3933    102.5981   1.1549813452e+02   5.1514670193e+01    0.2532654    0.1044891 -71.27 0.0007116689    2.153    0.536
        64  -8.4452    134.5395    102.5388   8.4429441303e+01   3.5133424094e+01    0.1554421    0.1503557 -59.92 0.0002877684    1.047    0.045
        65  -9.2536    114.2613    102.4539   8.9801417644e+01   3.9372337672e+01    0.2054222    0.1465646  56.59 0.0009366843    1.595    0.373
        66 -10.2058     16.3692    104.5773   1.1902371546e+02   5.1906791371e+01    0.2265504    0.1912732 -39.45  0.001086532    1.363    0.266
        67  -9.6608     42.6368    101.0039   1.1063055670e+02   5.0477519875e+01    0.1965754    0.1605154 -82.47  0.000424407    1.211    0.174
        68 -10.0030     61.1540    100.7833   1.0494006724e+02   4.8413397999e+01    0.2549062    0.1967922  11.66   0.00102966    1.657    0.397
        69  -9.6756     69.4054     97.3575   1.0162320829e+02   4.8116704347e+01    0.4790143    0.2268701 -68.64  0.001776858    2.897    0.655
        70 -10.2085     53.2246     98.7664   1.0693145456e+02   4.9848242755e+01    0.3169462    0.2154261 -63.60 0.0009537084    1.292    0.226
        71  -9.0424    147.1794     95.6825   7.9327341193e+01   3.3722562630e+01    0.2431947    0.2009746  80.76 0.0006709581    1.479    0.324
        72  -8.9896     79.3077     94.7969   9.7947281160e+01   4.7260522923e+01    0.2273769    0.1693095 -67.47   0.00113103    1.423    0.297
        73  -9.7459     42.7473     91.4470   1.0865674356e+02   5.2692159491e+01    0.3214046    0.2012654  -0.31  0.001603616    2.440    0.590
        74  -9.8594     36.0721     94.2919   1.1135373298e+02   5.2683267391e+01    0.3362749     0.243908   4.58  0.001973437    1.843    0.458
        75  -9.2492     32.3079     91.2951   1.1195754922e+02   5.3717477396e+01    0.2642199    0.1970952   1.26  0.001599106    1.764    0.433
        76  -8.8368     16.3232     95.6898   1.1770375972e+02   5.3957460395e+01    0.1198205   0.08217536  77.01 0.0007037699    1.652    0.395
        77  -9.9271    132.4420     93.8046   8.2497155587e+01   3.7440477526e+01    0.2764131    0.2220066  43.60 0.0005401024    1.281    0.219
        78  -9.4558      9.0981     93.7024   1.1958769108e+02   5.4882097642e+01    0.1933796      0.16903  -0.87  0.001083119    1.506    0.336
        79  -9.1538     90.3245     93.4112   9.4238632271e+01   4.5797093232e+01    0.2611454    0.1905635  50.29  0.001296503    1.551    0.355
        80  -9.6662     52.1594     92.3070   1.0584193506e+02   5.1473848732e+01    0.2551379    0.1837977  64.87 0.0007362345    1.799    0.444
        81 -10.9125    135.5654     83.2724   7.8548349008e+01   3.8891082546e+01    0.4940416    0.3078588  39.49 0.0001726842    1.703    0.413
        82 -10.4966    127.1468     90.1564   8.2823021125e+01   3.9358818358e+01    0.3343408    0.2480773 -32.38  0.001056959    1.369    0.270
        83 -10.1069    131.1193     87.6358   8.1023284497e+01   3.9009425919e+01    0.4308561    0.2565248  29.91  0.001136157    2.158    0.537
        84 -10.8712    121.3236     88.2854   8.3839319968e+01   4.0995327964e+01    0.4618011    0.3294806  52.74  0.001536064    1.524    0.344
        85 -11.7982    124.2294     85.6492   8.2258081253e+01   4.0923370623e+01    0.9550416    0.3175288  47.40   0.00302237    3.144    0.682
        86  -8.8915     61.6704     90.2653   1.0232515991e+02   5.0786760632e+01    0.2218697    0.1632209  -4.62 0.0006595601    1.818    0.450
        87  -9.1547     56.8192     89.9028   1.0379130379e+02   5.1477118232e+01     0.212571    0.1667657 -41.12  0.001100098    1.205    0.170
        88  -9.8111    107.8049     85.8034   8.6900669633e+01   4.4272246735e+01    0.2596565     0.183979   7.78  0.001124845    2.020    0.505
        89  -8.8661     84.6805     87.0396   9.4205121426e+01   4.8159796168e+01    0.2035477    0.1752071 -46.97 0.0006046748    1.058    0.055
        90  -9.0907      5.7685     87.0309   1.1961110833e+02   5.6588444119e+01    0.2025544    0.0852978 -51.78 0.0006882593    1.902    0.474
        91  -9.7325     95.9701     85.3360   9.0259305636e+01   4.6596815723e+01    0.2669141    0.2056559 -73.09 0.0008756461    1.640    0.390
        92  -8.9728     66.9704     85.9704   9.9529425667e+01   5.1059848560e+01    0.2748202    0.1659323  79.51 0.0009597359    4.139    0.758
        93  -9.1292    173.9713     84.9975   7.0134235371e+01   2.9347289419e+01    0.2459588     0.191076  13.59 0.0004669265    1.592    0.372
        94 -10.3845     45.8261     84.0913   1.0600222081e+02   5.4059675576e+01    0.3563109     0.197464 -43.52  0.001793431    1.653    0.395
        95 -10.0933     27.4410     84.6599   1.1221959886e+02   5.5651197932e+01    0.2662799    0.2270921  46.65   0.00114844    1.436    0.304
        96  -9.6120     75.7714     83.4301   9.6004507935e+01   5.0360403469e+01    0.2869472    0.2070307 -63.93  0.001262233    1.494    0.330
        97  -9.4804      1.6576     83.6161   1.2038784142e+02   5.7574199707e+01    0.2046821    0.1204382 -67.48 0.0006962274    1.253    0.202
        98 -10.3265     99.8799     83.1681   8.8441985279e+01   4.6347878020e+01    0.2918511    0.2072509  54.94  0.001382944    1.669    0.401
        99 -11.2933      6.5514     80.1837   1.1826759157e+02   5.8083540088e+01    0.3771747     0.253643  88.50 0.0006709853    1.591    0.371
       100  -9.6793     80.1456     81.5246   9.4062325750e+01   5.0104256384e+01     0.312453     0.167985 -35.97  0.001330745    1.975    0.494
       101 -10.2589     56.5128     80.8769   1.0163366447e+02   5.3563722962e+01    0.4086893    0.2984948 -24.89  0.002245125    1.531    0.347
       102 -10.2025     21.6773     81.1304   1.1342953369e+02   5.6898520165e+01    0.2294225    0.2103273  63.64 0.0007420862    1.329    0.248
       103  -9.6304     15.7034     80.0147   1.1521039866e+02   5.7567093585e+01    0.3130146    0.1822999  81.48  0.001369806    2.415    0.586
       104  -9.7455    150.6824     80.7951   7.4065544037e+01   3.5830288177e+01    0.2479356    0.2015446 -10.77  0.001069239    1.389    0.280
       105  -9.6729     97.4884     79.4859   8.8044896355e+01   4.7572338059e+01    0.3466367    0.2196447  71.70  0.001302181    3.100    0.677
       106 -10.2670     92.0099     75.2671   8.8422652983e+01   4.9449697016e+01     0.336769    0.2589559  47.92  0.001285743    1.464    0.317
       107 -10.5072     98.5143     76.4677   8.6796376587e+01   4.8013413906e+01    0.3615939     0.245671  50.71  0.001521455    1.683    0.406
       108 -11.6262    104.9093     78.8133   8.5615383583e+01   4.6306820463e+01    0.5113974    0.4195004 -19.36  0.001433523    1.285    0.222
       109 -10.3416    109.4412     72.8614   8.2393402129e+01   4.6614714591e+01     0.389558     0.259691 -17.46  0.001115098    1.906    0.475
       110  -9.8478     38.7483     80.7775   1.0760205558e+02   5.5529483203e+01    0.2735056    0.2058453  58.78 0.0008747593    1.711    0.415
       111  -8.8033    154.9668     80.0113   7.2826286137e+01   3.4942773643e+01    0.1927405    0.1858954 -26.66 0.0008420454    1.019    0.019
       112 -10.4347     51.1538     81.5757   1.0360986860e+02   5.4041393366e+01    0.2351703    0.1870248 -52.22 0.0002381247    1.060    0.057
       113 -10.1604    129.9875     79.2389   7.8746975523e+01   4.0950443938e+01    0.2988625    0.2168838  27.11  0.001347112    1.595    0.373
       114  -9.8428    129.1169     75.8645   7.7910343554e+01   4.1806056727e+01    0.2332243    0.2268983 -34.37   0.00029203    1.046    0.044
       115  -9.7039     28.0286     78.4476   1.1072782039e+02   5.7010619978e+01    0.2271259    0.1470785 -58.12 0.0003345709    1.218    0.179
       116 -10.6638     84.8535     72.5611   8.9841156134e+01   5.1253289376e+01    0.4535682    0.3279702  17.81  0.001921048    1.655    0.396
       117  -9.3297     72.9852     77.0974   9.5097122645e+01   5.2167440979e+01    0.3313498    0.2222461  -1.50   0.00153072    2.190    0.543
       118 -10.0424     78.6140     75.0770   9.2645718223e+01   5.1740005890e+01    0.3307684    0.2466486  16.36 0.0005914271    1.589    0.371
       119  -9.5413     52.3117     76.0007   1.0177015316e+02   5.5152914916e+01     0.263392    0.1844031  -2.18 0.0007718033    1.871    0.466
       120 -10.6165     20.4689     75.4152   1.1268304057e+02   5.8270595423e+01    0.2253852    0.2211428  29.70 0.0009986847    1.291    0.225
       121 -10.7835     14.3590     74.6407   1.1463616103e+02   5.8857260120e+01    0.2902342    0.1660729   6.29  0.001646672    2.381    0.580
       122 -10.4971    152.0002     74.3374   7.1760622527e+01   3.6715422163e+01    0.3362225     0.284814  61.37   0.00095265    1.248    0.199
       123 -11.8382    143.3392     69.7492   7.2353615656e+01   3.9645632465e+01    0.6437109     0.439721  64.12  0.002097796    1.703    0.413
       124 -10.0560    133.4592     72.4574   7.5688047091e+01   4.1469259229e+01    0.2544184    0.2262499  31.05 0.0001048976    1.145    0.127
       125 -10.5511    138.5079     72.4877   7.4420103019e+01   4.0289065748e+01     0.455012    0.2370021 -27.31  0.001687835    2.244    0.554
       126 -11.0345    136.0097     70.0100   7.4246541002e+01   4.1333626644e+01    0.4128276    0.3358284  78.87  0.001964894    1.535    0.349
       127 -10.3025     43.4319     72.7732   1.0401046404e+02   5.6847870195e+01    0.4651674    0.2497849 -74.19  0.001995781    2.743    0.635
       128  -9.4082     57.2695     72.3849   9.9054533916e+01   5.5344846367e+01    0.2756254    0.1641972 -39.17  0.000661782    1.550    0.355
       129 -10.1499     63.0553     70.9058   9.6618743694e+01   5.4910711621e+01    0.5248959    0.2329149  40.55  0.002253069    2.618    0.618
       130  -9.7413    103.0882     71.9992   8.3987360090e+01   4.8051916778e+01    0.2304186    0.2133313 -23.37 0.0005779024    1.008    0.008
       131 -10.7964     97.1396     69.8473   8.5090935106e+01   4.9621494216e+01    0.3069796    0.2560674 -40.96  0.000353425    1.139    0.122
       132  -8.4434     75.2559     71.2969   9.2593173349e+01   5.3065049717e+01    0.1381977   0.09978461 -23.29 0.0006890513    1.498    0.332
       133 -10.1406    158.0392     74.2238   7.0350327783e+01   3.5254320771e+01    0.3155667      0.20955 -29.86 0.0007921558    1.545    0.353
       134  -8.8504    197.2101     68.1904   6.0829843277e+01   2.6417146716e+01    0.2197097    0.1727638 -58.06  0.001059623    1.351    0.260
       135 -11.2999    163.5567     67.5809   6.7083674547e+01   3.5047151509e+01    0.6074244    0.2692416  53.10  0.002207251    2.223    0.550
       136 -10.9091    149.3517     63.8665   6.9033878542e+01   3.9223482777e+01    0.4947922    0.2833146  66.98  0.001180009    2.238    0.553
       137  -9.2810     71.5593     67.4603   9.2635885424e+01   5.4428849172e+01    0.2512046    0.1982663  16.57  0.001392987    1.416    0.294
       138  -8.9060    105.1894     67.1945   8.1772021825e+01   4.8584645424e+01    0.1967177    0.1758243 -66.59 0.0005122705    1.319    0.242
       139  -8.4834     17.1023     67.1403   1.1209751634e+02   6.0333910649e+01    0.1628951     0.130536 -81.45  0.001080319    1.359    0.264
       140 -10.9260     98.0116     54.5751   7.9543554670e+01   5.2362213968e+01    0.8690146    0.4595903  16.38  0.002693888    4.420    0.774
       141 -10.4796     90.5048     60.4553   8.4000610491e+01   5.2688116241e+01    0.3927687    0.2450786 -35.66 0.0008749683    1.502    0.334
       142 -10.9628     43.0912     53.7865   9.8621116059e+01   6.0912113426e+01    0.3900298    0.2980276  -6.04   0.00238553    1.422    0.297
       143 -10.0682     43.3274     48.6576   9.6830331350e+01   6.1911281362e+01    0.3462128    0.2060587 -64.84  0.001677856    2.344    0.573
       144 -10.8316     45.2233     42.6140   9.3932399289e+01   6.2859461360e+01    0.4413053    0.2455617 -10.77  0.002004149    2.685    0.628
       145 -11.2822     42.5048     63.3668   1.0176190831e+02   5.8982542513e+01    0.6582881    0.4250445  56.69  0.003366334    2.442    0.590
       146 -10.9737     32.5820     63.9375   1.0560858778e+02   5.9822449122e+01    0.3624279    0.2640368 -52.34  0.001015132    1.114    0.103
       147 -10.2200     34.1496     57.9123   1.0334029326e+02   6.0960252758e+01    0.2774455    0.2319493  -0.88  0.001076531    1.339    0.253
       148 -10.5106     35.7173     53.5776   1.0143541923e+02   6.1710803251e+01    0.3742627    0.2557559 -71.82  0.001874428    1.910    0.476
       149  -9.1346    126.8841     64.5287   7.4785373795e+01   4.4439730118e+01    0.2716541    0.2000259 -23.34 0.0006898582    1.417    0.294
       150  -9.6696      9.4675     65.0111   1.1441844833e+02   6.1272424550e+01    0.2549738   0.08723447 -35.17  0.001049777    3.552    0.718
       151 -10.4185      2.3695     63.1588   1.1663340123e+02   6.2047491889e+01    0.3302474    0.1971076  87.29  0.000953413    2.152    0.535
       152  -9.9610      4.3179     60.2673   1.1532852858e+02   6.2574426288e+01    0.2388835    0.1664447 -20.00  0.000820484    1.638    0.390
       153  -9.6234    133.0855     64.0191   7.3010465568e+01   4.3102993926e+01    0.2288899    0.2207491 -26.29 0.0003258552    1.045    0.043
       154  -9.3866    112.4863     63.4870   7.8385417077e+01   4.7788811311e+01    0.4540453    0.2885744  13.36  0.001811581    2.415    0.586
       155  -9.1149    109.3401     63.7101   7.9369063232e+01   4.8404647762e+01     0.288759    0.2331638 -65.50  0.001300327    1.571    0.363
       156  -9.2394    110.0190     59.2946   7.7640804225e+01   4.9077066066e+01    0.2904176    0.1933459  -6.72  0.001135004    2.037    0.509
       157  -8.9612    112.2053     56.0004   7.5849033376e+01   4.9201315175e+01    0.2286599    0.2098462  -2.48 0.0003584998    1.037    0.035
       158 -11.4960     66.9433     60.8208   9.2083288170e+01   5.6468400228e+01    0.7971759    0.6941658 -33.07  0.003365893    1.026    0.026
       159 -11.9019     51.3546     60.0448   9.7479556389e+01   5.8687589572e+01    0.7361045    0.5004533  16.43  0.001550988    1.735    0.424
       160 -11.2441     54.3919     43.2451   9.0525763847e+01   6.1601666714e+01    0.4310119    0.2947708  -4.23  0.001718362    1.671    0.402
       161 -11.6224     66.6893     45.8282   8.6850840604e+01   5.9387517298e+01    0.4758045    0.4130284  76.58 0.0006428678    1.764    0.433
       162 -11.1468     67.7724     38.2635   8.3493159113e+01   6.0548902702e+01    0.5377773    0.3157435 -48.40    0.0026341    1.945    0.486
       163 -11.4235     62.1546     36.5435   8.4899710610e+01   6.1699647352e+01    0.5067323    0.2848803  18.46  0.001392705    2.275    0.560
       164 -10.8835     58.7513     53.2464   9.2482101879e+01   5.9118561525e+01    0.3971176     0.292165 -35.96 0.0002590057    1.163    0.140
       165 -10.9768     55.0126     50.9204   9.3076112519e+01   6.0065670617e+01    0.3579518    0.2270496 -24.71 0.0002991696    1.629    0.386
       166 -11.6467     59.0532     47.8631   9.0451650285e+01   6.0112672091e+01    0.3132624    0.2647195 -27.37 0.0002965726    1.021    0.021
       167  -8.8355    219.7813     62.5809   5.5714699288e+01   2.1695075802e+01     0.205858    0.1410539  82.40  0.000947341    1.744    0.427
       168  -8.5893     15.4783     62.5076   1.1164609490e+02   6.1448394168e+01    0.1218718   0.09423725 -54.70 0.0001797742    1.025    0.024
       169 -11.7538    159.6803     58.5234   6.5035137655e+01   3.7536396015e+01    0.6277539    0.4186878 -48.27  0.001921172    1.612    0.380
       170  -8.8265    120.9501     61.0143   7.5176059404e+01   4.6405909009e+01     0.252693    0.1827449   9.32  0.001137103    1.751    0.429
       171  -8.9737    103.0255     60.7603   8.0216278605e+01   5.0239944865e+01    0.1930037    0.1811104   8.82 0.0001937287    1.061    0.058
       172 -10.5674     84.4517     48.0089   8.1460083500e+01   5.6066735257e+01    0.4087376    0.2499572 -24.68  0.001935344    1.693    0.409
       173 -10.1871     86.2752     53.4034   8.2860989169e+01   5.4771833199e+01    0.4902188    0.2138171 -41.41  0.001578113    2.146    0.534
       174 -10.5469     79.3449     56.2919   8.6220378766e+01   5.5428084523e+01    0.3892806    0.2870913  -8.03  0.001368357    1.528    0.346
       175 -10.4674    200.7324     56.0387   5.6779496353e+01   2.7417522250e+01     0.329492    0.2534953  53.89  0.000567389    1.325    0.246
       176 -10.6591    206.1324     51.9866   5.4807687506e+01   2.6649137139e+01    0.5170538    0.3762904  -7.66  0.001587862    1.709    0.415
       177  -9.8122    161.6029     54.2193   6.3250922389e+01   3.7733289332e+01    0.2759938    0.2144292 -45.42  0.001141538    1.329    0.247
       178  -9.2487     26.4241     56.2243   1.0585690461e+02   6.1988426292e+01    0.1730986    0.1041702 -65.06 0.0009486395    1.658    0.397
       179  -9.1402    223.2492     55.4412   5.3326718171e+01   2.1910812741e+01    0.1946354    0.1383617  85.11 0.0008086471    1.607    0.378
       180 -10.8895    174.5797     52.4588   6.0174465936e+01   3.4672376638e+01    0.5192283    0.2595921 -25.96  0.001994471    2.177    0.541
       181 -10.5656    134.6331     51.9217   6.8492186147e+01   4.4789584412e+01    0.3832509    0.3026077 -30.47  0.001916857    1.260    0.207
       182  -8.9970     64.7995     52.5150   8.9997751292e+01   5.8416174956e+01    0.2441296    0.1693679 -41.76  0.000826351    1.285    0.222
       183 -10.8678     19.8507     51.2227   1.0707227078e+02   6.3537800379e+01    0.4193069    0.2458972  11.43  0.002451319    2.107    0.525
       184 -10.4322     87.6786     60.3426   8.4873903089e+01   5.3217756931e+01    0.3217048    0.2340479 -47.83  0.001585475    1.397    0.284
       185 -10.3073    234.0250     50.8761   5.0752428125e+01   1.9986371489e+01    0.2422353    0.2230683 -42.43   0.00142419    1.064    0.060
       186  -9.8415    231.2826     48.3059   5.0428799341e+01   2.0993790297e+01    0.2050285    0.1772894  75.95 0.0003922324    1.196    0.164
       187  -9.9734     82.5377     55.5797   8.4889430712e+01   5.5022756311e+01    0.3070629    0.2645512 -38.83 4.280244e-05    1.147    0.128
       188  -9.0674    125.8298     50.6688   7.0253415219e+01   4.7063874593e+01    0.2180716    0.1894862   0.78  0.001143786    1.169    0.144
       189  -9.7103    115.8459     50.9226   7.3003145142e+01   4.9278454919e+01    0.2523696    0.2168077  57.05  0.000360094    1.288    0.223
       190  -9.3023    201.2219     49.7926   5.4921800972e+01   2.8210361372e+01    0.2068058     0.175275  26.59  0.001068456    1.361    0.265
       191  -9.3913    100.9084     46.3432   7.5605205586e+01   5.3205154411e+01    0.2005714    0.1774786  15.67 0.0004560683    1.088    0.081
       192 -10.0728     36.3241     45.1895   9.8471723364e+01   6.3332173660e+01    0.2209179    0.1800455 -49.50 0.0004736055    1.222    0.182
       193  -9.6359     21.0324     46.2138   1.0513398379e+02   6.4474771323e+01    0.1656691    0.1294567 -43.24 0.0002102511    1.025    0.024
       194  -8.2979      1.0000     45.9315   1.1339731944e+02   6.5750153655e+01    0.1950159   0.05003274 -63.49  0.000803442    2.949    0.661
       195  -8.6255    218.9174     54.0000   5.3533411222e+01   2.3175573845e+01    0.2308945   0.08259932  63.18 0.0007966058    2.902    0.655
       196 -10.8378    167.1204     43.7968   5.8816578082e+01   3.7869598085e+01    0.3991552    0.3198892  45.00  0.001060735    1.246    0.198
       197 -10.9471    143.4703     43.1512   6.3386732523e+01   4.3976394087e+01    0.4990304    0.3989516 -12.51  0.002521932    1.329    0.248
       198  -8.5210    160.4946     44.4781   6.0300355972e+01   3.9478932740e+01     0.149025    0.1454288  44.59  0.000127911    1.002    0.002
       199  -8.9477    108.4966     44.0303   7.2505014874e+01   5.1994676076e+01    0.2246557    0.1915573  39.03   0.00122426    1.175    0.149
       200  -9.7562     14.2769     43.3629   1.0712841968e+02   6.5528526902e+01     0.275327    0.1312967 -53.34  0.001521156    1.570    0.363
       201  -9.9736    104.1294     40.4787   7.2400709354e+01   5.3476759358e+01    0.4288602    0.2159503 -17.47  0.001621687    2.695    0.629
       202 -10.3246    102.1057     37.2047   7.1709399352e+01   5.4398426046e+01    0.2465186    0.2365433  -2.45 0.0004908766    1.124    0.110
       203  -9.7710     81.1033     59.8562   8.6875852939e+01   5.4447395857e+01    0.3124882    0.2529458  46.48  0.001724526    1.438    0.305
       204 -10.1512     74.1321     42.9733   8.3067620468e+01   5.8718320948e+01    0.2477479    0.2215033 -62.77  0.001135464    1.494    0.331
       205 -10.9156     31.6276     39.1185   9.8320253171e+01   6.4963812581e+01    0.4810467    0.4198965 -28.34  0.001789744    1.142    0.124
       206  -8.8750     33.7668     34.7967   9.5808574496e+01   6.5561045344e+01    0.1796404      0.14931 -45.42 0.0004523144    1.271    0.213
       207  -9.2458      7.9405     43.5475   1.0987235195e+02   6.5879830182e+01    0.2272986    0.1095525  19.52   0.00128608    2.533    0.605
       208  -8.5149    205.3092     42.3469   5.2218300574e+01   2.8214293066e+01    0.1492143     0.111101  25.91 0.0007044587    1.705    0.414
       209 -10.7799     97.2344     38.6751   7.3746286094e+01   5.5175771318e+01    0.7521292    0.4048689 -59.01  0.002436255    4.625    0.784
       210  -8.7028    197.0288     41.5174   5.3168583433e+01   3.0441233283e+01    0.2174073    0.1419591  65.62 0.0004766494    1.520    0.342
       211  -9.5149    149.3447     39.5803   6.0898395106e+01   4.3012189387e+01    0.4345898    0.1593715 -33.68  0.001531096    2.645    0.622
       212  -9.4200    150.0930     34.3259   5.8939353775e+01   4.3532418656e+01    0.2348874    0.2012455  -0.96 0.0004846985    1.245    0.196
       213  -8.4653    242.2210     40.0367   4.7095396115e+01   1.9548455072e+01    0.1803779    0.1040954 -31.73 0.0005694642    1.631    0.387
       214  -8.9775    228.7701     39.6085   4.8487148152e+01   2.2773783218e+01    0.1919893    0.1293431  86.14 0.0006848685    1.621    0.383
       215  -9.0593    114.4509     38.8436   6.8882376559e+01   5.1483942859e+01      0.29305    0.1437968  34.95  0.001136674    2.364    0.577
       216  -8.3136    157.3743     38.2902   5.8856110409e+01   4.1144861537e+01    0.1610559    0.1069252  31.78 0.0007021645    1.727    0.421
       217 -10.0918    127.7624     37.0913   6.4832939936e+01   4.8663548838e+01    0.3283399    0.2914754  82.45 0.0008960614    1.331    0.249
       218  -9.0393     81.4803     37.9313   7.8511721294e+01   5.8297327354e+01    0.2046444    0.1246178 -33.05  0.000407882    1.528    0.345
       219  -9.0778      7.8338     37.7508   1.0826167448e+02   6.7047004139e+01    0.2145256   0.07385615 -34.82 0.0009639538    2.865    0.651
       220 -10.0613    173.9073     36.7866   5.5381966967e+01   3.7068822596e+01    0.2473865    0.2299268   8.13 0.0002422986    1.156    0.135
       221  -9.3818    189.9703     35.6922   5.2504410675e+01   3.3037361092e+01    0.3708858    0.1703655  55.68  0.001413577    2.065    0.516
       222  -7.9898    110.3106     36.3384   6.9041303776e+01   5.2766926191e+01    0.1521647     0.104581  14.99 0.0002014261    1.688    0.408
       223 -11.1872     87.5663     35.1531   7.5363442072e+01   5.7610496268e+01    0.5440774     0.361289  68.36  0.002451614    2.633    0.620
       224  -9.9568     45.8634     28.0943   8.7902936027e+01   6.5358468838e+01    0.2146381    0.1720985  -0.98  0.001393036    1.165    0.142
       225 -10.5558     43.3522     35.6310   9.2050013966e+01   6.4361896542e+01    0.3435307     0.229693  34.82  0.001059081    1.771    0.435
       226 -10.2383     41.8463     31.3039   9.0951267387e+01   6.5302378132e+01    0.3120817    0.1428935 -33.64   0.00150619    1.969    0.492
       227  -8.7191    228.3112     35.3012   4.7429843384e+01   2.3446872921e+01    0.1343464    0.1061457  30.50 0.0007015807    1.606    0.377
       228  -8.5813    166.2131     35.6258   5.6341754694e+01   3.9220396144e+01    0.2014937    0.1299131  52.74 0.0004581074    1.481    0.325
       229  -9.3935    143.2340     32.7505   5.9787359508e+01   4.5467421451e+01    0.4215927    0.2653114 -20.62  0.001927523    1.706    0.414
       230  -8.8894    120.3380     33.8968   6.5461559306e+01   5.0847908850e+01    0.2244445    0.1703887 -42.09  0.001084992    1.443    0.307
       231 -10.7746     71.2791     32.0911   7.9660361446e+01   6.0987919500e+01    0.3330477    0.2800573  26.10  0.001696124    1.226    0.185
       232 -10.1192    107.2250     29.0950   6.7019907057e+01   5.4450091717e+01    0.2961953     0.223355  46.87 0.0007218099    1.302    0.232
       233 -10.0174    114.5566     32.6709   6.6473355775e+01   5.2337597485e+01    0.2451846    0.2323564  12.23 0.0007403656    1.061    0.058
       234 -10.0118    102.3243    249.0826   1.1661828873e+02   1.1258278205e+01    0.2877866    0.2237242  29.88  0.002010489    1.619    0.382
       235  -9.0752    147.5092    241.4847   1.0780692547e+02   5.5017863116e+00    0.1205292   0.09534314  46.03 8.755012e-06    1.012    0.012
       236  -9.7944     52.3661     32.3448   8.7011110411e+01   6.3798126167e+01    0.2868178    0.1408726 -44.56  0.001389609    1.958    0.489
       237  -9.9836    237.9954     31.9883   4.5551470739e+01   2.1568328868e+01    0.2376652    0.1389688 -59.19 0.0009672796    1.741    0.426
       238  -8.5902    203.7001     31.9886   4.9522660590e+01   2.9982182308e+01    0.1915922    0.1797852 -51.45 0.0004312491    1.062    0.059
       239 -13.1207     76.6371    219.1365   1.1841282438e+02   2.0075963155e+01     2.014141    0.6229779  49.28  0.002583623    2.692    0.628
       240  -8.8804     30.3137     31.5825   9.6091438264e+01   6.6489425132e+01     0.181461    0.1123257  28.35 0.0006882194    1.874    0.466
       241  -8.9602    179.8410     29.0964   5.2033472848e+01   3.6502190611e+01    0.2308962    0.1892889 -63.10  0.000856972    1.280    0.219
       242 -10.7875     80.8067     25.9459   7.3701227983e+01   6.0225274758e+01    0.3229177     0.283223  72.49  0.001545958    1.657    0.397
       243 -11.4014     74.2435     26.5425   7.6212828002e+01   6.1319402271e+01    0.4426787     0.324239  73.71  0.002170707    2.677    0.627
       244 -10.5059     68.9660     25.0108   7.7427546352e+01   6.2442854426e+01    0.3268437    0.2103679   3.61  0.001683985    1.773    0.436
       245  -9.2750    120.2216     26.8183   6.2766217657e+01   5.1802780981e+01    0.3333594    0.2040527  41.14  0.001312875    1.564    0.361
       246  -8.5852    196.9467     26.2489   4.8772931643e+01   3.2415730489e+01    0.1866714    0.1174334  70.93 0.0008747695    1.551    0.355
       247  -9.9985    151.8913     25.2179   5.5455849421e+01   4.4206954076e+01    0.3253241    0.2202267  52.86 0.0004972961    1.374    0.272
       248 -10.7993     54.6331     25.8269   8.3295335662e+01   6.4543191015e+01    0.3733559    0.2227318  48.67  0.001898832    2.379    0.580
       249 -10.6782     69.0839    218.5061   1.1975421122e+02   2.1218927215e+01    0.3249459    0.1880857  47.24 0.0009957256    1.485    0.327
       250 -10.7999    163.2036     22.8303   5.2677367244e+01   4.1570252139e+01    0.6388531    0.2258931  48.99  0.001799132    2.707    0.631
       251 -10.7738     90.8083     23.5292   6.9452412773e+01   5.8624766438e+01    0.4465146    0.2913571 -12.24 0.0009869848    1.569    0.363
       252 -10.2650    130.7334    206.5301   1.0639850040e+02   1.4049119531e+01    0.4567888    0.2096754  40.06  0.002101505    1.976    0.494
       253 -10.8717    238.6165     22.6145   4.3188427166e+01   2.2572137441e+01    0.3392929     0.315369 -74.90   0.00132026    1.091    0.084
       254  -8.4042     98.5153     24.5061   6.7579087176e+01   5.6917479510e+01    0.1384175    0.1234436  10.77 0.0008104015    1.018    0.017
       255  -8.9400    179.4466     23.0386   5.0228455319e+01   3.7323771245e+01    0.2168313    0.1419586 -25.34   0.00103547    1.617    0.382
       256  -8.7297    221.4783     30.9835   4.7081712219e+01   2.5657951312e+01     0.211711    0.1320601 -31.02 0.0004836115    1.578    0.366
       257  -9.4527    141.4843     21.9396   5.6283585374e+01   4.7220581360e+01    0.2645301    0.1876668  51.51  0.001334083    1.301    0.232
       258  -9.3851    207.0693     21.0359   4.6065286864e+01   3.0447627679e+01     0.200494    0.1856672 -76.82  0.001189979    1.013    0.013
       259  -8.7723    124.0083    206.0019   1.0767689881e+02   1.5281363794e+01    0.1812199    0.1328506  68.44            0    1.410    0.291
       260  -9.5553    130.9842     19.2309   5.7423165456e+01   5.0121504139e+01    0.3272387    0.2352205  73.11  0.001648097    1.555    0.357
       261  -8.8517    119.9703     19.8397   6.0099266573e+01   5.2692777165e+01    0.2485179    0.1334852  35.05  0.001077363    1.958    0.489
       262  -9.2174      1.4471    185.8874   1.2987395823e+02   3.5090424269e+01    0.2687204   0.08173069 -78.86 0.0009577792    2.595    0.615
       263 -11.0634      5.6943    169.0914   1.2801984950e+02   3.8224943288e+01    0.2499058    0.1545834 -79.63  0.001219389    1.271    0.213
       264 -11.1253     75.1439     17.3912   7.1784810778e+01   6.2403530001e+01    0.4205922    0.2527643   1.38  0.001354138    1.953    0.488
       265  -8.9136     15.3467     19.0602   9.8092840639e+01   7.0017920208e+01    0.1599851    0.1121018 -41.45  0.000548969    1.199    0.166
       266 -11.1924     18.6394    159.8463   1.2461481588e+02   3.9122198166e+01    0.2918386    0.2180402  67.06  0.001985617    1.229    0.186
       267  -8.7834     28.7283     18.4316   9.1314343048e+01   6.8907484956e+01    0.1494499   0.09964673   3.38 0.0006077733    1.531    0.347
       268  -8.8278    235.6761     17.0087   4.2093211678e+01   2.3915728981e+01    0.1819648    0.1572145 -52.50 0.0005580164    1.079    0.073
       269 -11.0664      9.5725    149.5599   1.2571770991e+02   4.2156546297e+01     0.472815    0.1555874  57.70  0.002019063    3.559    0.719
       270  -8.9601     38.6900     17.6306   8.6343689245e+01   6.7916762731e+01    0.2151935    0.1060409  25.56   0.00111545    2.225    0.551
       271 -10.6269      7.8687    156.8286   1.2667827960e+02   4.0691360560e+01    0.1721165    0.1561734 -44.17 0.0002832933    1.547    0.354
       272 -11.0660      2.4510    153.5301   1.2758372644e+02   4.1826917733e+01    0.4238369    0.2292036 -62.61 6.570987e-05    1.695    0.410
       273 -10.1688     19.7282    154.5667   1.2390552122e+02   4.0195408165e+01    0.1845082    0.1200688  23.52  0.001133592    2.104    0.525
       274  -9.6984     68.0199     12.9337   7.2183021808e+01   6.4223260124e+01    0.2545234    0.1592188  42.33 0.0008092935    1.616    0.381
       275  -8.7792     36.1481    147.8662   1.1943950803e+02   4.0151025609e+01    0.1624419    0.1334356 -57.08  0.001063043    1.339    0.253
       276 -11.1994      5.2924    141.1233   1.2596067315e+02   4.4355552077e+01    0.5054368    0.2716366 -48.18  0.001821582    2.210    0.548
       277 -10.6655      2.9190    134.5441   1.2593492690e+02   4.5992369219e+01    0.4226885    0.1512917 -54.99  0.001724084    2.638    0.621
       278 -10.1026     21.9662    142.1613   1.2217170291e+02   4.2796090441e+01    0.2230403    0.1593246  66.29 0.0007328627    1.360    0.265
       279  -9.1046     36.3720    142.4174   1.1873579073e+02   4.1383542682e+01    0.2040065    0.1219874   3.81 0.0009575076    3.326    0.699
       280  -9.6438     15.5180    140.9779   1.2357397126e+02   4.3606394932e+01    0.1831271   0.09233187 -73.68 0.0007281551    1.545    0.353
       281 -12.0973    233.3498    111.9060   6.6310811326e+01   1.0630500994e+01     1.694449     1.243506 -85.90  0.007876633    2.134    0.531
       282 -11.9854    214.9923    132.4475   7.4531863971e+01   1.1082729917e+01     1.428611    0.8163114 -51.53  0.005891112    2.194    0.544
       283 -12.2147    219.4296    121.0006   7.0942092684e+01   1.2111619104e+01     1.369283    0.8168046 -28.06  0.006042089    1.670    0.401
       284 -12.3580    230.0704    135.7291   7.2579208442e+01   7.3720648311e+00       1.2868    0.6374954  37.20  0.005333385    2.236    0.553
       285 -12.3320    233.1442    127.0173   6.9995221668e+01   8.1781689470e+00    0.9827051     0.626965  44.99  0.004742212    1.653    0.395
       286  -9.5977    101.9072     15.9023   6.2998861976e+01   5.7223705000e+01    0.2247398    0.1624434  23.02  0.001211684    1.338    0.253
       287  -9.3619     29.2462    138.3135   1.1998506997e+02   4.3023590553e+01    0.2898884    0.1188302  26.12  0.001344368    3.155    0.683
       288  -8.3437     46.6708    137.3168   1.1550334039e+02   4.1481731498e+01    0.1346527   0.08667201  74.28 0.0004414794    1.681    0.405
       289  -8.3950     59.4379    133.1428   1.1157680847e+02   4.0963470059e+01    0.1699875     0.114462 -79.44 0.0003762152    1.424    0.298
       290  -8.7227     71.3197    131.6989   1.0819829678e+02   3.9742735033e+01    0.1917645    0.1100344 -55.52 0.0009162939    1.582    0.368
       291  -9.6473     32.1196    129.1097   1.1810835475e+02   4.4893470878e+01    0.2398366    0.1465629 -75.94   0.00135203    1.366    0.268
       292 -10.4710     12.3109    128.5988   1.2308062197e+02   4.6671394942e+01    0.2115094    0.1724158 -81.80 0.0008453145    1.077    0.071
       293  -9.4118     37.8315    127.2656   1.1636273731e+02   4.4773160334e+01    0.2232853    0.1439017 -81.00 0.0007249002    1.394    0.282
