#   1 NUMBER                 Running object number                                     
#   2 MAG_AUTO               Kron-like elliptical aperture magnitude                    [mag]
#   3 X_IMAGE                Object position along x                                    [pixel]
#   4 Y_IMAGE                Object position along y                                    [pixel]
#   5 X_WORLD                Barycenter position along world x axis                     [deg]
#   6 Y_WORLD                Barycenter position along world y axis                     [deg]
#   7 A_WORLD                Profile RMS along major axis (world units)                 [deg]
#   8 B_WORLD                Profile RMS along minor axis (world units)                 [deg]
#   9 THETA_WORLD            Position angle (CCW/world-x)                               [deg]
#  10 FWHM_WORLD             FWHM assuming a gaussian core                              [deg]
#  11 ELONGATION             A_IMAGE/B_IMAGE                                           
#  12 ELLIPTICITY            1 - B_IMAGE/A_IMAGE                                       
         1 -13.6813    135.7608     51.5001   2.1483853936e+01   4.3542808022e+01     1.395325    0.4465983 -36.61  0.005297882    3.121    0.680
         2 -15.1917     59.6695     68.0052   4.8115154967e+01   5.7356872044e+01     3.047232     2.006556 -33.27   0.01032346    1.742    0.426
         3 -15.1201    166.8351     29.0461   1.1468703175e+01   3.9616895063e+01    0.9966497    0.7831571  80.20  0.004305514    1.214    0.176
         4 -15.4098    147.7722     29.6491   1.3733037172e+01   4.3655365298e+01     2.630176    0.7921641  74.10  0.009602949    3.717    0.731
         5 -14.2106    111.9887     39.8935   2.2432998041e+01   5.0586724752e+01     1.138808    0.7150499   8.97  0.003349187    3.479    0.713
         6 -14.8535    124.7246     35.8055   1.8801390933e+01   4.8148099401e+01     1.464783    0.5632316  50.68  0.004985044    2.748    0.636
         7 -14.9682      6.4815     71.3893   7.6453037340e+01   6.3629637908e+01     1.132458    0.8780095 -46.24  0.005233622    1.196    0.164
         8 -13.4079    140.5689     21.2382   1.2312638550e+01   4.6196612041e+01    0.7067986    0.3007488  70.45  0.001317254    2.094    0.522
         9 -12.3652    232.4402      2.4158   1.7146154719e+00   3.0170399168e+01    0.3309381    0.2270669  69.63   0.00227406    1.803    0.445
        10 -15.5795    217.9058     17.2596   5.1161863583e+00   3.1136062709e+01     1.719002    0.7951245 -36.46   0.01068224    1.894    0.472
        11 -15.2436    189.9738     24.2444   8.3439856044e+00   3.5496297418e+01     1.364403    0.7019488 -56.75  0.007439002    1.638    0.390
        12 -15.9916     11.4980     22.8079   5.6386301332e+01   7.3612800398e+01     2.000772     1.252113 -18.07   0.01003815    1.805    0.446
        13 -14.2317     26.8025     12.6488   4.0066254975e+01   7.2792949897e+01    0.8073391    0.5588501   5.80  0.004409003    1.713    0.416
        14 -14.0516    188.0927     11.8294   5.7866243162e+00   3.7154819876e+01    0.6066468    0.4230637 -50.50  0.003570415    1.225    0.184
        15 -13.7226    242.0743     35.6532   7.1297241030e+00   2.5214807542e+01    0.6759793    0.3481328 -71.33  0.003603223    1.907    0.476
        16 -12.3095    245.5105     29.9738   5.9483428768e+00   2.5313403582e+01    0.3036564    0.1439245 -41.48  0.002056925    1.576    0.365
        17 -15.4606     99.6281     11.6977   1.5197978940e+01   5.6703242297e+01     1.517073    0.8294806  63.39  0.003275987    1.533    0.348
        18 -11.9223     71.1020     16.2330   2.3373709873e+01   6.3003077736e+01    0.3738298    0.2390714 -13.51  0.001924374    2.092    0.522
        19 -12.1011     74.5155     10.0951   1.9803729094e+01   6.2816901475e+01    0.3256786    0.2460644  -6.57  0.001936611    1.703    0.413
        20 -12.3598     60.2743     15.2268   2.6256829696e+01   6.5585133431e+01     0.540865    0.2745978  41.62  0.002224983    1.930    0.482
        21 -12.0199     46.6928     12.8375   3.0144305417e+01   6.8825958087e+01    0.3355653    0.2215928  58.84   0.00122686    1.403    0.287
        22 -10.9886    123.6678     11.2981   1.1493147917e+01   5.1067154422e+01    0.1999094    0.1499341 -80.49 0.0008642055    1.191    0.160
        23 -11.1193    121.3345      8.7388   1.0998512384e+01   5.1846537279e+01     0.170006    0.1473994 -66.12 0.0002176004    1.156    0.135
        24 -12.4867    152.9045      8.5700   7.6568530848e+00   4.4727025003e+01     0.256177    0.2118968  82.72  0.001101094    1.164    0.141
        25 -14.1483     41.3786      5.2386   2.8227656240e+01   7.0758658962e+01     1.025675    0.6157491  26.59  0.004938507    1.927    0.481
        26 -12.6374     85.5496     13.9236   1.8797750232e+01   5.9842812028e+01    0.3973408    0.3943692  83.00  0.002171146    1.189    0.159
        27 -10.1075     60.3201      6.2902   2.1955483448e+01   6.6464242648e+01    0.1326402   0.08141093  40.34 0.0007009003    1.602    0.376
        28 -10.8890    176.7542      4.5831   4.9125511429e+00   4.0097566877e+01    0.1508323   0.08612239 -82.37 0.0004324851    1.519    0.342
        29 -11.1717     67.7059      2.6738   1.8205547008e+01   6.5065071718e+01    0.2897812    0.1653622  41.92  0.001533168    1.765    0.434
        30 -13.1210      6.7988      3.1296   4.8448484271e+01   7.7342101104e+01    0.7500545    0.3983476  30.75  0.004105594    1.592    0.372
        31 -12.0470     80.5020      1.7657   1.4940250349e+01   6.2116851286e+01    0.6351196   0.07240634  62.94  0.001983059    4.289    0.767
        32 -12.4039    120.1327      2.9809   9.3537932812e+00   5.2627544967e+01    0.5671761    0.2205314 -85.29  0.002214956    3.335    0.700
        33 -11.4256     61.2075      1.4679   1.9350725281e+01   6.6674854585e+01    0.3583821    0.1037656  64.41   0.00138013    2.807    0.644
        34 -13.8080     30.2083    168.9742   8.0670433928e+01   3.5497264076e+01     1.058815    0.5692973 -34.69  0.003283234    2.255    0.556
        35 -12.5569    109.4746    249.0339   6.7708233430e+01   8.5998435588e+00    0.5746227    0.3042549  39.93   0.00293747    2.001    0.500
        36 -12.2477    109.4299    243.1764   6.7038890195e+01   9.6724121065e+00    0.6289451    0.2708519  15.98  0.002767862    2.269    0.559
        37 -13.0988     57.0286    246.7611   8.0137681159e+01   1.4417260169e+01    0.5691428    0.3075221  18.21  0.002913465    1.620    0.383
        38 -11.9624     41.0540    248.0386   8.4178305389e+01   1.5669816537e+01    0.4915705    0.2372831 -84.11  0.002346929    2.737    0.635
        39 -13.4903     28.0324    246.5709   8.7291070354e+01   1.7127613888e+01    0.6177526    0.4984626   8.83  0.003974568    1.243    0.195
        40 -12.1548      2.8432    249.6216   9.3491790505e+01   1.8524991568e+01    0.3979163    0.2167657  31.22  0.001740914    1.444    0.308
        41 -14.1073      9.4141    245.6185   9.1778456336e+01   1.8848507424e+01     1.036432    0.4435506  40.17  0.003791288    1.820    0.450
        42 -12.3108     48.6065    181.3345   7.6117010852e+01   3.0371290653e+01    0.5856857    0.3151692 -47.26   0.00250137    1.974    0.493
        43 -13.5692    197.3404    179.2629   3.8808320576e+01   1.0808592867e+01    0.6119395    0.4010146 -67.84  0.002922938    3.318    0.699
        44 -11.3085    121.7115    180.2942   5.4926461112e+01   2.0927615830e+01    0.3383822     0.204417  68.12  0.001162776    4.113    0.757
        45 -13.2482     84.9637    179.8819   6.4876160494e+01   2.6226894450e+01    0.4818258    0.3278325  73.88  0.002107066    2.176    0.540
        46 -13.1432    124.9772    167.9803   5.1884676838e+01   2.3122845463e+01    0.4232924    0.3000412 -58.18  0.002100432    1.576    0.366
        47 -12.4045     89.5337    169.9800   6.1931785237e+01   2.7985543390e+01    0.3043258    0.2091157   7.26  0.001385427    1.642    0.391
        48 -11.0019    101.9934    160.7618   5.6684497791e+01   2.8327722555e+01    0.2065823    0.1223662  30.29  0.000891321    1.650    0.394
        49 -11.2581      2.0913    159.3487   8.9341840882e+01   4.0267752083e+01    0.2760207    0.2264055 -57.63  0.001383482    1.226    0.185
        50 -11.6323     27.8382    158.8203   8.0374205723e+01   3.8452939081e+01    0.2152025    0.1651107  55.07 0.0009907451    1.337    0.252
        51 -12.4811     77.3074    156.8996   6.3402218300e+01   3.3002482544e+01    0.5502469    0.3871605  20.18  0.001596705    1.435    0.303
        52 -13.7411     73.9994    153.4845   6.3858411505e+01   3.4350305058e+01    0.7742792     0.594617  21.82  0.002280112    1.285    0.222
        53 -12.8692    208.5460    154.0011   3.2518827713e+01   1.3544162309e+01    0.5020894    0.3864918  26.08  0.003378704    1.519    0.342
        54 -12.3629    122.2690    155.0290   5.0081794101e+01   2.6401436189e+01    0.5189484    0.2576899 -27.09  0.001742369    3.406    0.706
        55 -11.7404     55.6590    155.9659   7.0370114506e+01   3.6183833719e+01    0.4036881    0.2358143 -13.29  0.001530029    2.459    0.593
        56 -12.2535     85.8399    152.6413   5.9950624377e+01   3.2798275184e+01    0.5785215    0.2998435 -40.76  0.002256714    2.128    0.530
        57 -12.5682      7.7531    148.6067   8.6512985589e+01   4.2836152746e+01    0.6266881    0.4055214  65.34  0.002967465    1.640    0.390
        58 -10.8662     12.6671    148.6730   8.4729572898e+01   4.2478953041e+01    0.2340436    0.1780685 -24.90  0.001071948    1.424    0.298
        59 -12.0109    103.5539    149.6953   5.4095697272e+01   3.0692219004e+01    0.4059645    0.2864856 -20.27  0.001668459    1.726    0.421
        60 -12.1994     62.7770    145.8953   6.6261583890e+01   3.7904813425e+01    0.3235508    0.1787882  50.64  0.001257419    2.118    0.528
        61 -12.6394    111.5563    155.5260   5.3018764817e+01   2.8030824578e+01    0.5303692    0.3592427  76.04  0.002150742    2.619    0.618
        62 -10.4098     38.2080    145.6183   7.4979665251e+01   4.1014917371e+01    0.2075086    0.1421645   3.11 0.0004479324    1.617    0.382
        63 -11.7870     42.6928    138.8884   7.2294803624e+01   4.2343143444e+01    0.2598542    0.1830531 -44.35  0.001201418    1.448    0.309
        64 -10.8533     63.3175    138.6580   6.4751140357e+01   3.9726917625e+01    0.1632207    0.1164271  62.90 0.0007048964    1.714    0.416
        65 -12.7625    246.4688    132.9360   2.3822377145e+01   1.1976863371e+01    0.4153626    0.2368628 -46.64  0.002747752    1.453    0.312
        66 -14.7113    230.2974    127.7040   2.4797587810e+01   1.4765855228e+01     1.043347    0.8045686 -54.10  0.007542146    1.307    0.235
        67 -12.3742     43.8380    132.8940   7.0866098491e+01   4.3831421596e+01     0.245534    0.2048229 -28.77 0.0005985231    1.250    0.200
        68 -10.6767     10.9428    133.9869   8.3888121896e+01   4.6650338929e+01    0.2256411    0.1546676  51.24 0.0003732659    1.532    0.347
        69 -12.9337    136.8080    131.7659   4.1608111519e+01   2.8903853407e+01    0.5997069    0.4287812  41.09  0.003047699    1.456    0.313
        70 -14.8711    104.5256    121.2920   4.7607355354e+01   3.7122524340e+01     1.937688     1.196188  35.20  0.008549378    1.648    0.393
        71 -15.2488    105.9499    105.0977   4.3184650032e+01   4.0423987511e+01     1.583973     1.366409  66.46  0.008253371    1.256    0.204
        72 -12.2745      4.3242    119.4348   8.5005601803e+01   5.1081430230e+01    0.6097156    0.2793636   4.41  0.002411987    2.400    0.583
        73 -12.7157     79.1161    110.5742   5.3044430451e+01   4.4272281293e+01    0.4026325    0.3178625 -56.09  0.001684781    1.315    0.240
        74 -13.3098     84.9088    114.8732   5.2142154818e+01   4.2213310803e+01     1.011429    0.5478223  23.39   0.00355301    2.335    0.572
        75 -12.4267     88.2301    109.3621   4.9681108320e+01   4.2895930814e+01    0.6021833    0.3691612 -62.39  0.002427429    1.933    0.483
        76 -11.7554    186.1255    115.9067   2.8630887556e+01   2.3225834231e+01    0.1942872    0.1603399 -64.32 0.0006106703    1.285    0.222
        77 -12.0839     42.6938     90.2097   6.2295995927e+01   5.5115536713e+01    0.4230232    0.2673625 -55.09 0.0008314583    1.599    0.375
        78 -13.0243     21.5878     86.0577   7.1482563348e+01   5.8686143363e+01     0.845494    0.4844067   7.60  0.003162262    1.875    0.467
        79 -14.3087     18.4018    110.7089   7.7683655451e+01   5.2480140325e+01     1.017466    0.7732895 -35.84  0.003498904    1.308    0.236
        80 -14.6878     25.4314     93.8771   7.1290641908e+01   5.6295142304e+01     1.861718    0.9984186   5.97  0.007563903    2.154    0.536
        81 -14.1731     10.7872    102.7775   7.9930615680e+01   5.5206990065e+01    0.9320386    0.7348003  26.19  0.004927815    1.297    0.229
        82 -13.7353      2.3300     96.9484   8.3132021895e+01   5.7289594085e+01    0.9500187    0.3876873 -72.60  0.003719939    2.342    0.573
        83 -13.0170    121.4697    111.7764   4.0696418482e+01   3.5946498444e+01    0.3802433    0.2825046  57.74   0.00119775    1.479    0.324
        84 -12.1696     32.8191    111.2313   7.1423138891e+01   5.0938622646e+01     0.481539    0.3615034  83.67  0.002292367    1.601    0.375
        85 -11.8832     63.0594    110.3455   5.8833196840e+01   4.7045612510e+01     1.009958    0.3900253 -64.11  0.003117499    3.470    0.712
        86 -11.0566     64.6807    101.6817   5.6061358623e+01   4.8909450883e+01    0.2862521       0.2236 -22.69 0.0007254338    1.459    0.315
        87 -12.3104     62.0369     98.6073   5.6292668059e+01   5.0092398125e+01    0.5829064    0.4200154 -85.77  0.002374839    1.952    0.488
        88 -12.0284    177.1712    110.1445   2.8854678712e+01   2.5739813849e+01    0.3233644    0.2406045 -29.23  0.001865484    1.405    0.288
        89 -11.4891     45.9444    110.1527   6.5623539896e+01   4.9616266762e+01    0.3424713    0.2124007 -51.58  0.001503203    1.587    0.370
        90 -11.3788     47.4057    132.5495   6.9447551587e+01   4.3486402986e+01    0.4182512    0.1888824 -65.87  0.001536366    2.307    0.566
        91 -12.8498    136.0046    102.8362   3.5036790593e+01   3.4850514326e+01    0.8440414    0.3160224  50.35  0.003102486    2.828    0.646
        92 -13.3177    137.3017     95.1643   3.2843534856e+01   3.6033842762e+01     0.538182    0.4260223 -74.41  0.001737664    1.431    0.301
        93 -13.7753    120.1690    102.2180   3.8629855590e+01   3.8165596214e+01    0.6615406    0.3727419  44.70  0.002907397    1.793    0.442
        94 -12.8100     50.2395     98.5197   6.1101689398e+01   5.1972884243e+01    0.8691097    0.5574352   5.01  0.002892854    1.982    0.495
        95 -12.1012     49.2632     92.7542   6.0042116530e+01   5.3537954271e+01    0.4548767    0.4372065  43.65    0.0015769    1.091    0.083
        96 -13.4267    248.3875     94.7727   1.7054096618e+01   1.7003512894e+01    0.7221889    0.2371508 -48.19  0.003654888    2.504    0.601
        97 -12.4041    163.4977     97.6798   2.8392329345e+01   3.0391172252e+01    0.3376082     0.276925  72.15 0.0006444083    1.341    0.254
        98 -12.8973     28.4559    122.0189   7.5176012681e+01   4.8481191140e+01    0.5467634    0.3723029 -45.07  0.002434128    1.459    0.314
        99 -12.0136    129.4442     95.9996   3.4798950369e+01   3.7489251874e+01    0.2783539    0.2016838  68.26  0.001375457    1.597    0.374
       100 -14.9391    214.1439     76.7938   1.7044190315e+01   2.4554484130e+01     3.425099     1.234583  72.51   0.01287458    5.633    0.822
       101 -13.6237    188.7866     83.8724   2.1465288863e+01   2.7908754134e+01    0.5652955     0.557109 -40.94  0.002818267    1.224    0.183
       102 -14.8234    199.2493     69.6936   1.7189612070e+01   2.8091428580e+01     1.773055    0.8688772  45.16  0.008747625    3.062    0.673
       103 -15.3365    160.5081     80.8577   2.4937695893e+01   3.3785483714e+01     1.943949     1.383662  -8.40  0.005247528    2.333    0.571
       104 -14.8256    169.4438     76.8295   2.2588117959e+01   3.2642602949e+01    0.8000937    0.7675607  14.73  0.003590004    1.307    0.235
       105 -12.7538    132.5025     85.5550   3.1402720194e+01   3.8782371831e+01    0.2571298     0.241842 -72.76  0.001033252    1.017    0.017
       106 -12.3868     36.6438     92.8230   6.5734378884e+01   5.5273455544e+01    0.4901603    0.3135919   9.33  0.001581755    1.726    0.421
       107 -11.0183     59.0240    125.0352   6.3622596388e+01   4.3905899355e+01    0.1857905    0.1755276 -50.36 0.0004368066    1.074    0.069
       108 -13.6310    237.8013     79.9398   1.5375872933e+01   2.0456410811e+01     0.594824    0.3442194 -85.96  0.003587247    2.557    0.609
       109 -12.4002    180.9297    120.1721   3.0355111880e+01   2.3366583279e+01    0.2151968    0.1990984  12.94  0.001025337    1.236    0.191
       110 -14.2904    100.7403     49.6779   2.8178186922e+01   5.1817950771e+01    0.8991427    0.8140279 -72.65  0.003044855    1.138    0.121
       111 -14.8171    119.2301     54.1467   2.5378369942e+01   4.6902974558e+01     1.022151    0.7267836  56.66   0.00234457    1.340    0.254
       112 -14.6620    170.1116    242.3343   5.3788261340e+01   3.5038400962e+00     1.033866      0.63792   5.21   0.00637547    1.424    0.298
       113 -13.6294    157.1921     43.5799   1.6179478289e+01   3.9902677225e+01     0.759771    0.5731077  28.03  0.004232108    2.049    0.512
       114 -14.6837     95.0514    235.3374   6.9581133767e+01   1.2736356452e+01     1.210863     0.835669  63.77   0.00636109    2.133    0.531
       115 -12.9505     24.5684    216.8900   8.6383707668e+01   2.3943505270e+01     1.262046    0.2665466  37.41  0.004344742    3.272    0.694
       116 -14.3728     26.2211    226.5605   8.6562487766e+01   2.1588871943e+01     1.414402     0.415986 -56.35   0.00534976    3.578    0.721
       117 -13.8169     74.9624     73.3613   4.3943612443e+01   5.3303375484e+01     1.540335    0.7550188  25.18  0.004874874    3.808    0.737
       118 -14.0074     88.8646     62.5800   3.5770001089e+01   5.2396066234e+01     1.210837    0.7384738 -18.68  0.004425063    2.750    0.636
       119 -13.9492     20.8287    224.3693   8.7852551116e+01   2.2541684332e+01    0.6490312    0.5463482   8.94   0.00269323    1.214    0.176
       120 -13.1712    237.4401    230.7159   4.0526625948e+01  -8.2595941314e-01    0.3172045    0.2310647   4.11  0.002564463    1.319    0.242
       121 -12.1656    113.9973     79.9118   3.4158524414e+01   4.3773684831e+01    0.4465351    0.3645079 -62.61  0.001434499    1.289    0.224
       122 -13.0799    135.2132     79.1068   2.9129936681e+01   3.9336750027e+01    0.7636762    0.3753524  55.40  0.003344256    2.052    0.513
       123 -11.7413     42.5115     79.4868   5.9432156418e+01   5.7712379743e+01    0.3518403    0.2850914 -68.07  0.001334815    1.420    0.296
       124 -11.4895     41.6875     75.9021   5.8765351211e+01   5.8664693334e+01    0.3149391    0.2294902 -53.42 0.0007826547    1.435    0.303
       125 -13.1666    148.2751    239.4594   5.7854972816e+01   6.1819675120e+00    0.4932083    0.3382752  61.56  0.002422346    3.363    0.703
       126 -14.2111      5.5322     63.2058   7.5148390938e+01   6.5685473293e+01    0.8235686    0.6400684   4.90  0.003696473    1.227    0.185
       127 -11.3603     27.6067     76.3108   6.5958526841e+01   6.0447455927e+01    0.3064228    0.2257013  58.94  0.001289722    1.717    0.418
       128 -12.5878    241.8417     71.0848   1.3442405301e+01   2.1014388688e+01    0.3666887    0.1796821 -60.71  0.002183657    2.111    0.526
       129 -13.3948    133.6854     65.9406   2.5874028425e+01   4.1840892822e+01    0.8395408    0.6842926  15.17  0.003990202    1.733    0.423
       130 -12.3534    100.5295     63.9714   3.2876767409e+01   4.9570860782e+01    0.4409066    0.3823484   5.13  0.002425905    1.439    0.305
       131 -13.0729     78.8409     59.8666   3.8061767499e+01   5.5048930125e+01    0.6868318    0.5082678 -51.91  0.003527275    1.500    0.334
       132 -11.6395     84.1743     52.1497   3.3628669828e+01   5.5192494815e+01    0.6829978    0.3806865 -19.52  0.002632968    3.176    0.685
       133 -14.4901    178.0048     56.4291   1.6711102526e+01   3.3910993877e+01    0.8798923    0.4862174 -50.81  0.003181482    1.604    0.376
       134 -12.0156     38.7998     59.8052   5.4955787835e+01   6.2641354616e+01    0.4505014    0.2809292  63.35  0.001837435    2.767    0.639
       135 -11.3663     34.4256     60.5742   5.7513329275e+01   6.3137886096e+01    0.3878894    0.2113628 -33.16  0.001649705    2.177    0.541
       136 -12.2822     36.4930     54.1425   5.4106559534e+01   6.4166065828e+01    0.6541616    0.3405559 -23.59  0.002387077    3.286    0.696
       137 -11.9755     24.8115     59.3834   6.2445618092e+01   6.4693867378e+01    0.4339512    0.2478302 -42.36  0.001787074    1.757    0.431
       138 -13.1502    248.3198     52.1358   9.6301307408e+00   2.2389737426e+01    0.5740045    0.2554898 -37.92  0.003603769    1.792    0.442
       139 -13.6346     57.5574    201.8070   7.5767391459e+01   2.4292633690e+01     1.642954    0.5880472 -70.27  0.005852642    3.299    0.697
       140 -11.3447     17.6075     55.0994   6.5344574249e+01   6.6478395296e+01    0.3176341    0.2335408 -69.90  0.001676774    1.668    0.400
       141 -11.9657    230.9393     54.9478   1.1362461246e+01   2.4693008162e+01    0.2986992    0.1556982  74.96  0.001892636    2.252    0.556
       142 -10.5823     23.5362     49.9544   5.9919156992e+01   6.6877556054e+01    0.1883878    0.1327758 -48.26  0.000443677    1.478    0.323
       143 -11.9574    201.8521     46.8254   1.2157647970e+01   3.0633259028e+01    0.1637363    0.1459316 -59.48  0.000863329    1.189    0.159
       144 -11.5582     38.6526     46.4561   4.9962091292e+01   6.5313003190e+01    0.2350658    0.2095577 -11.89 0.0006613914    1.139    0.122
       145 -14.1773     66.7946    222.9844   7.5465729247e+01   1.8415751258e+01    0.9049442    0.7503716  21.39  0.005360264    1.054    0.051
       146 -13.9633     64.3261    214.2448   7.5216259306e+01   2.0637994845e+01    0.5554551    0.3539449  27.15  0.002763557    1.375    0.273
       147 -15.0586    212.5460     40.6786   1.0029345325e+01   2.9473871231e+01     1.698984    0.5428165  76.90  0.007513643    4.054    0.753
       148 -13.5021     59.3308    212.6854   7.6427443207e+01   2.1539287101e+01    0.7026812    0.3613957 -18.26  0.001418978    3.109    0.678
       149 -10.3953      5.4939    219.4943   9.1654212149e+01   2.4859917972e+01    0.1290394     0.112486  42.99 -4.01531e-05    1.007    0.007
       150 -12.4106     85.6040    215.6081   6.9643039682e+01   1.7909368681e+01    0.2740667     0.230431  36.75  0.001370321    1.186    0.157
       151 -13.3443      6.4457     42.8849   6.8675270931e+01   7.0229396263e+01     1.045721    0.4184511  20.15  0.004459844    2.300    0.565
       152 -12.7389    144.8885    232.0936   5.7566479547e+01   7.8071758378e+00     0.285507    0.1985394 -36.63   0.00172494    1.414    0.293
       153 -12.4912     36.4567     34.3102   4.5860489464e+01   6.7839058127e+01     0.642065    0.2544967  27.43  0.002065201    4.074    0.755
       154 -12.8647     46.0082     33.1601   4.0489272879e+01   6.6251334135e+01    0.5277267    0.4393137  -7.89  0.003108686    1.335    0.251
       155 -12.1126     40.2407     40.1438   4.6473455201e+01   6.6177913259e+01    0.5939702    0.2446688  38.58   0.00243262    2.196    0.545
       156 -13.0271     32.8832     40.2974   5.0524951515e+01   6.7400177931e+01    0.3739347    0.2969648  16.30 0.0006435537    1.183    0.155
       157 -12.9026     75.9209     36.8524   3.0485406869e+01   5.9359357481e+01    0.5080537    0.3208043  54.10  0.001084692    1.400    0.286
       158 -11.7812     70.9666     36.2210   3.1843840665e+01   6.0558059219e+01     0.313056    0.2182125  66.76  0.001142106    1.507    0.336
       159 -11.8389    136.6593    211.1020   5.6339084896e+01   1.2613329527e+01    0.1901056    0.1687591 -57.41  0.001063162    1.431    0.301
       160 -11.9585     45.9893    208.2112   7.9724108073e+01   2.3985468648e+01    0.4351827    0.1757666 -88.25  0.001420653    4.291    0.767
       161 -11.9524     64.4866     24.5162   2.9081157623e+01   6.3561125016e+01    0.2518639    0.2348266   6.02 0.0009935405    1.209    0.173
       162 -11.0753     98.0763     27.0059   2.0976384276e+01   5.5466568509e+01    0.2857633    0.1630152  64.33  0.001262835    1.534    0.348
       163 -12.3653     30.8915     25.1985   4.4552040076e+01   7.0274042475e+01    0.4755398    0.2281086  31.21  0.001690937    2.097    0.523
       164 -11.6613     36.1034     22.9578   4.0492298107e+01   6.9664231049e+01    0.3130142    0.2228564 -11.28  0.001407761    1.707    0.414
       165 -11.8275     80.6468    208.4532   7.0083578061e+01   2.0082123813e+01    0.3181616    0.1890208  50.01  0.001400174    1.949    0.487
       166 -12.4220     45.9705     19.9322   3.4120775624e+01   6.8127696392e+01    0.4603275    0.1939813  43.51  0.002013435    2.076    0.518
       167 -12.5369    105.6238     33.4764   2.1626694296e+01   5.2904139070e+01    0.6935856    0.4354649 -18.17   0.00343082    2.215    0.549
       168 -13.6842     95.5842    218.3581   6.7389944298e+01   1.6143222484e+01    0.6853848    0.2660504  23.84  0.002737815    2.329    0.571
       169 -11.1183    151.6969    206.0126   5.2190853204e+01   1.1725744386e+01    0.2740211    0.1469712  -0.76  0.001173483    2.640    0.621
       170 -11.8530     13.7338    205.2743   8.8664633508e+01   2.7600025661e+01    0.3830772    0.1359434 -53.91  0.001471935    3.058    0.673
       171 -13.4126     56.6677     27.0173   3.3064620319e+01   6.4951760004e+01     0.932205      0.29212  52.32  0.002802237    2.776    0.640
       172 -11.1656    175.8593     13.8132   7.0820026455e+00   3.9385452418e+01    0.1601187    0.1023941 -65.18  0.000234281    1.304    0.233
       173 -11.6278     14.4841    200.4881   8.8158149504e+01   2.8712431899e+01    0.2516425    0.2376381  -1.89  0.001150683    1.144    0.125
       174 -12.7084     16.9865    195.7681   8.7119319945e+01   2.9687000980e+01    0.4670643     0.293696 -55.98  0.001709261    1.689    0.408
       175 -12.5343     27.8929    235.4947   8.6680046566e+01   1.9476211698e+01    0.5972674    0.2564509 -46.10  0.002582807    2.966    0.663
       176 -13.1077     39.3376    194.8990   8.0399390352e+01   2.7899249397e+01     0.754773    0.4135637  44.23  0.003211145    1.750    0.429
       177 -11.3518    212.7110    199.8576   3.9676997863e+01   5.7942588868e+00    0.1960648    0.1140844 -25.26  0.001199663    1.468    0.319
       178 -13.3186    164.1612    194.0472   4.7594951847e+01   1.2374147772e+01    0.5466338    0.3179565 -57.50  0.002651362    2.330    0.571
       179 -13.2027     21.3293    166.2035   8.3366868529e+01   3.7029511980e+01    0.5678227    0.3495179  -6.03   0.00186858    1.922    0.480
       180 -13.6666     22.3224    180.9706   8.4364780562e+01   3.3031942515e+01    0.9001238    0.4998088 -52.42  0.003157299    1.874    0.466
       181 -15.1441      8.4036    183.2307   8.8878079022e+01   3.3530245439e+01     1.339553     1.287284  52.68  0.008259174    1.034    0.033
       182 -15.0405     15.7191    175.2873   8.6004165661e+01   3.5061428319e+01     2.353469    0.7577113  43.36   0.00826258    2.917    0.657
       183 -12.2028    201.1118    191.2222   4.0192127404e+01   8.4061362147e+00    0.2977179    0.1997785 -14.93  0.001399262    1.409    0.290
       184 -11.1850    180.3034    188.6573   4.3493631517e+01   1.1309068657e+01     0.111567    0.1009435 -76.38 0.0007039886    1.681    0.405
