#   1 NUMBER                 Running object number                                     
#   2 MAG_AUTO               Kron-like elliptical aperture magnitude                    [mag]
#   3 X_IMAGE                Object position along x                                    [pixel]
#   4 Y_IMAGE                Object position along y                                    [pixel]
#   5 X_WORLD                Barycenter position along world x axis                     [deg]
#   6 Y_WORLD                Barycenter position along world y axis                     [deg]
#   7 A_WORLD                Profile RMS along major axis (world units)                 [deg]
#   8 B_WORLD                Profile RMS along minor axis (world units)                 [deg]
#   9 THETA_WORLD            Position angle (CCW/world-x)                               [deg]
#  10 FWHM_WORLD             FWHM assuming a gaussian core                              [deg]
#  11 ELONGATION             A_IMAGE/B_IMAGE                                           
#  12 ELLIPTICITY            1 - B_IMAGE/A_IMAGE                                       
         1 -14.1345    191.5694     32.4309   3.5558333967e+02   3.4205111354e+01    0.8826948    0.6986078 -59.14  0.003643046    1.057    0.054
         2 -11.7065    189.4305     14.8121   3.5123629066e+02   3.6646176607e+01     0.221227    0.1568253 -50.82  0.001116977    1.168    0.144
         3 -11.5885    178.8045    167.5939   2.9354274277e+01   1.4452740777e+01     0.380341    0.2554932  24.99  0.001570975    1.562    0.360
         4 -11.5611    139.9511    249.4077   4.9926933523e+01   5.6681069485e+00    0.2760713    0.2496865  30.30  0.001836813    1.324    0.244
         5 -19.9918     57.6171    166.0557   5.9837515836e+01   3.3020372900e+01     17.27528     6.000024 -70.81   0.05920174    3.146    0.682
         6 -11.8036    230.0090    167.7637   2.0617805578e+01   7.3639120832e+00    0.2216473    0.1316892 -43.07  0.001306283    1.661    0.398
         7 -11.5895    148.8602    168.0668   3.5728760741e+01   1.8990907650e+01    0.2485716    0.1993124  29.12  0.000919995    1.244    0.196
         8 -11.8786    242.0914    166.8560   1.8707240510e+01   6.0238154714e+00    0.1721652    0.1361586 -34.61 0.0009787994    1.288    0.224
         9 -10.8408    153.9353    234.1992   4.5190629176e+01   6.4241970966e+00    0.1816023    0.1538279 -15.60 0.0003126182    1.179    0.152
        10 -11.3812    131.9062    157.3901   3.7654737822e+01   2.3974211872e+01    0.2595845    0.2064214 -45.20 0.0004875571    1.242    0.195
        11 -14.1968    133.5940    146.1511   3.4944864747e+01   2.6130659387e+01     1.561945    0.6308351 -58.30  0.004980025    3.598    0.722
        12 -11.7911     16.8921    228.1958   7.5496474615e+01   2.2691528228e+01    0.3386165    0.2335694 -39.59  0.002040554    2.015    0.504
        13  -9.8421      6.5889    150.5379   7.4328942115e+01   4.2001214403e+01    0.2466221    0.1453054 -38.96 0.0007482878    2.061    0.515
        14 -12.2070    143.3848    145.5106   3.2455857767e+01   2.4546461997e+01    0.5965292    0.2808389 -60.28   0.00202677    3.379    0.704
        15 -10.2312    194.4330    145.8753   2.2139826165e+01   1.5872490672e+01    0.3200575    0.1719492 -53.46  0.001438051    2.381    0.580
        16 -11.8685    165.5134    227.9923   4.2025967506e+01   6.0390764932e+00    0.2748075    0.2274219  80.60  0.001176233    2.397    0.583
        17 -10.6081     12.7956    138.0237   7.1336130532e+01   4.4937464841e+01     0.228473    0.2098588 -81.70 0.0005985731    1.063    0.059
        18 -13.0936    136.2680    131.9760   3.1165759365e+01   2.8731726883e+01     1.204267    0.2594814 -50.23  0.002965512    5.328    0.812
        19 -12.1935    135.2926    121.9369   2.9036931613e+01   3.1089685321e+01     0.720004    0.1942972 -45.53  0.002125605    3.535    0.717
        20 -10.2993      7.6593    138.9076   7.3176307256e+01   4.5049143818e+01    0.2213587    0.1987351  32.24 0.0007468372    1.197    0.165
        21 -10.5744    169.7447    228.5895   4.1282274310e+01   5.4554506821e+00    0.1625781   0.09657655  32.83 0.0008227906    1.639    0.390
        22  -9.9010    187.8263    130.7562   2.0102447126e+01   1.9611428077e+01     0.182248    0.1483424 -53.39  0.001046285    1.320    0.242
        23  -9.3401    191.2502    227.3272   3.7056843866e+01   3.2126336674e+00    0.1157447   0.07123997 -11.62 0.0001940669    1.545    0.353
        24 -10.3830    160.4276    127.7137   2.4701928523e+01   2.5091771488e+01    0.2894398    0.1299913 -46.79  0.001144396    2.136    0.532
        25 -10.1900    139.9406    125.5129   2.8770877535e+01   2.9424291285e+01     0.214085    0.1480608  41.90 0.0003448904    1.517    0.341
        26 -10.1504      6.7407    120.0459   7.1969976844e+01   5.0263113347e+01    0.2464653    0.1727547 -36.27 0.0007601642    1.583    0.368
        27 -10.7256     11.1248    227.6408   7.6791782863e+01   2.3293565575e+01    0.1089927   0.06390102  73.38 0.0006168844    1.611    0.379
        28 -11.6711    113.1562    115.4932   3.3269020374e+01   3.6865083057e+01    0.2807002    0.2155597 -50.05 0.0003760059    1.270    0.212
        29  -9.3524    179.3986    115.4340   1.8145820388e+01   2.3871928864e+01    0.1388196    0.1213523 -40.32 0.0001053137    1.034    0.033
        30 -11.6728    134.8509    112.2026   2.6722274332e+01   3.3263647352e+01    0.5287838    0.1551027 -45.29  0.001612159    3.252    0.693
        31 -11.5835    134.5593    105.7959   2.5129335411e+01   3.4676287000e+01    0.4528779    0.1967424 -49.47  0.001645825    2.328    0.570
        32  -9.8411    207.8469    217.4144   3.2624228879e+01   2.7905141753e+00    0.1861335    0.1105101 -27.99 0.0005966556    1.452    0.311
        33 -12.0395    161.9634    217.8233   4.1261917261e+01   8.0811192514e+00    0.2874704    0.1836393  36.60  0.001667973    1.633    0.388
        34 -10.0885    167.7080    112.8362   1.9712928808e+01   2.6578008107e+01    0.2541247    0.1881524  89.97 0.0009827649    2.017    0.504
        35 -13.2880    119.1879    110.8695   3.0414354208e+01   3.6722425743e+01    0.7028641    0.4908664  63.12  0.002890868    1.774    0.436
        36 -12.1257     94.9953    112.1942   3.7869287235e+01   4.1124570118e+01    0.3308485    0.2888991  59.75 0.0004053763    1.215    0.177
        37 -10.9998     17.8110    109.2318   6.6360584568e+01   5.2506869920e+01    0.4499184    0.2230048   1.40  0.001413726    2.643    0.622
        38 -10.6738      7.3694    111.1040   7.0864123437e+01   5.2690568417e+01    0.2723897    0.2126665 -52.36 0.0005992305    1.255    0.203
        39 -12.2990     24.4283    105.9559   6.3121094556e+01   5.2872304996e+01     0.541747    0.3522993 -84.25  0.001718918    1.549    0.354
        40 -11.3452    125.8070    108.1254   2.7939845571e+01   3.5984503180e+01    0.2325491    0.2081128 -83.56 0.0005718975    1.235    0.190
        41 -11.1447      5.7639    213.0453   7.7520052262e+01   2.6825066180e+01    0.2981612   0.08309197 -76.41  0.001203082    3.470    0.712
        42 -10.6563    188.0316    212.5238   3.5392982741e+01   5.7574451671e+00    0.1730913    0.1043353  25.89 0.0006742392    1.564    0.361
        43 -10.8608      6.9678    102.2838   7.0080332296e+01   5.5143526505e+01     0.271734    0.2332525  27.03 0.0007107936    1.276    0.216
        44 -12.5749    146.5836    205.9668   4.2695227178e+01   1.2085257144e+01    0.4233326    0.1970785 -36.99   0.00190596    2.309    0.567
        45 -12.4788     11.6489    206.1501   7.5815063366e+01   2.7883600014e+01    0.3536675    0.2271281  24.55  0.001945711    1.514    0.340
        46 -10.9599     16.1019    202.7565   7.4540041088e+01   2.8283704173e+01     0.165138     0.151638 -41.63 0.0006176136    1.347    0.258
        47  -9.6314    143.5338     96.0170   2.0417537236e+01   3.4770801494e+01    0.2208298    0.1397135 -43.00 0.0003632873    1.488    0.328
        48 -11.2634    156.0351     85.6170   1.4976899393e+01   3.4034186758e+01    0.4161178    0.2607826 -75.94  0.001685896    2.553    0.608
        49 -11.5488    151.9950    200.4789   4.0672731800e+01   1.2348467138e+01    0.1963073    0.1610818 -29.57 0.0005753694    1.197    0.165
        50 -10.2675    149.7737     86.5951   1.6493283052e+01   3.5220217116e+01    0.1964291     0.141656  69.03 0.0005170017    1.606    0.377
        51 -11.2787    192.9268    195.2109   3.1661174137e+01   7.8455475977e+00    0.7344066    0.3888442 -60.46   0.00241429    6.692    0.851
        52 -11.5147     87.7042     81.6498   3.1609681618e+01   4.9745840864e+01    0.3526804    0.2492138  59.16    0.0015845    1.619    0.382
        53 -10.9383    162.9902    199.5110   3.8204912099e+01   1.1039605329e+01     0.207236    0.1574085 -33.37  0.001253011    1.277    0.217
        54 -10.1693    250.0159    239.5204   2.9261877160e+01  -4.0179653636e+00    0.1636633   0.09476461 -24.40  0.001080461    1.334    0.250
        55 -13.4923    159.3498     69.9641   1.0009773939e+01   3.6010473185e+01     1.019872    0.6314693  54.90  0.003434805    1.717    0.417
        56 -14.0738    172.9081     57.5518   4.4228610893e+00   3.4923172699e+01     1.048234    0.9525067   5.20  0.004184661    1.385    0.278
        57 -12.6248    179.1504     50.5373   1.6886377443e+00   3.4552351559e+01    0.4646316    0.4037445 -66.50  0.000899499    1.052    0.049
        58 -12.0030     15.4205    195.8490   7.4366778875e+01   2.9940628181e+01    0.1945108    0.1835554 -56.86  0.001295193    1.263    0.208
        59  -9.8292     15.5152    188.5733   7.3954249365e+01   3.1661913394e+01    0.1603425    0.1128184 -64.39 0.0006820409    1.516    0.340
        60 -10.5733    151.9356    241.6707   4.6567243918e+01   5.5016375354e+00    0.1873607    0.1679135 -28.48  0.000441714    1.339    0.253
        61 -13.0997    173.7691    177.0361   3.2116903907e+01   1.3508198105e+01    0.8151139    0.5278559 -31.02  0.003156327    1.448    0.309
        62 -11.8284    180.8282    170.8108   2.9572375358e+01   1.3581544471e+01    0.3462139    0.3124641  -4.52  0.001049217    1.097    0.089
        63 -11.3852    117.4195    245.1007   5.4115670228e+01   8.8918040424e+00    0.2428091    0.1871567 -22.17 0.0009869542    1.421    0.296
