#   1 NUMBER                 Running object number                                     
#   2 MAG_AUTO               Kron-like elliptical aperture magnitude                    [mag]
#   3 X_IMAGE                Object position along x                                    [pixel]
#   4 Y_IMAGE                Object position along y                                    [pixel]
#   5 X_WORLD                Barycenter position along world x axis                     [deg]
#   6 Y_WORLD                Barycenter position along world y axis                     [deg]
#   7 A_WORLD                Profile RMS along major axis (world units)                 [deg]
#   8 B_WORLD                Profile RMS along minor axis (world units)                 [deg]
#   9 THETA_WORLD            Position angle (CCW/world-x)                               [deg]
#  10 FWHM_WORLD             FWHM assuming a gaussian core                              [deg]
#  11 ELONGATION             A_IMAGE/B_IMAGE                                           
#  12 ELLIPTICITY            1 - B_IMAGE/A_IMAGE                                       
         1 -15.1051    225.8938     63.0954   2.6805252739e+01   2.2393784079e+01      1.81235     1.343828  -9.82   0.01098356    1.633    0.388
         2 -14.7414    242.5289     59.0146   2.4375067371e+01   1.9925029024e+01     1.809177    0.7757703 -51.06  0.009045952    2.253    0.556
         3 -14.8414     53.9995     53.6890   6.4607100472e+01   6.2454585020e+01      1.69065    0.6816676 -54.71  0.006088943    2.621    0.618
         4 -15.0015     65.0016     41.8264   5.4347506895e+01   6.2873930340e+01    0.9291767    0.8357041 -23.78  0.005088423    1.171    0.146
         5 -14.2799     76.1870     29.2245   4.3728399264e+01   6.2619809952e+01    0.7750785    0.6892495 -88.54  0.004080486    1.244    0.196
         6 -14.9291     70.4133     15.5600   3.8682099083e+01   6.5983219980e+01    0.8208221    0.5152157  37.24  0.003868562    1.700    0.412
         7 -14.7135     61.5437     15.5363   4.2196731026e+01   6.8072324321e+01     1.034813    0.7308307  61.77  0.005293361    1.441    0.306
         8 -14.8257     86.3846     11.1129   3.1290195023e+01   6.2518606434e+01      1.12331    0.7193654  55.70  0.005018991    1.416    0.294
         9 -13.6096     92.8137      3.4491   2.5895269677e+01   6.1608926009e+01    0.6902452    0.4028848  75.52  0.003244054    1.617    0.382
        10 -13.2439    115.4915     12.4870   2.5709050689e+01   5.4691940927e+01    0.4646628    0.2496947 -39.22  0.002096885    1.857    0.462
        11 -12.4241    123.8756      9.7972   2.3285405723e+01   5.2732362231e+01    0.2890208    0.2295098 -70.58 0.0008882313    1.211    0.174
        12 -12.4103    103.7067      5.0171   2.4533613869e+01   5.8573431482e+01    0.2972349    0.1780406 -45.87  0.000718323    1.738    0.425
        13 -12.9244    111.6827      4.4728   2.2947409472e+01   5.6492912530e+01    0.3825033    0.2560372  28.61  0.001723529    1.879    0.468
        14 -13.4469     72.8650      3.6027   3.0969263046e+01   6.6755409363e+01    0.5651559    0.4043369  18.90  0.002923121    1.647    0.393
        15 -11.4915    138.3328      5.0647   1.9651453218e+01   4.9362407958e+01    0.1936453    0.1702776 -64.59 0.0006227578    1.070    0.066
        16 -10.6828    176.7995     15.3805   1.9200450819e+01   3.8658723815e+01    0.1841129    0.1119938  65.75 0.0008685697    1.681    0.405
        17 -13.3201    205.3573    123.0012   4.2890812640e+01   1.7517027093e+01    0.4713981    0.2170754 -40.10  0.002214994    1.957    0.489
        18 -12.7922    209.7115    117.6935   4.1080652451e+01   1.7586408031e+01    0.3532479    0.1438937 -41.53  0.001560647    2.237    0.553
        19 -15.0875    195.2101    111.8802   4.2076102381e+01   2.1049848363e+01     1.143215    0.7285732 -58.07  0.005615688    2.064    0.515
        20 -13.1721    185.8300    114.5233   4.4268165841e+01   2.2358707042e+01    0.3767877    0.3240324 -21.54  0.002246819    1.100    0.091
        21 -14.2659    223.7949    130.7449   4.1719044801e+01   1.3408968273e+01     0.553546    0.3970681  66.61  0.003234149    2.268    0.559
        22 -11.4848    112.3087    109.3386   5.9782713943e+01   3.8192285657e+01    0.1566849    0.1231404  -8.15 0.0004661709    1.684    0.406
        23 -11.9365    243.1034    103.3204   3.3656228500e+01   1.4200331121e+01    0.2423384    0.1404957 -37.75   0.00125838    1.396    0.283
        24 -12.3929     42.8011     99.3736   8.2472935192e+01   5.2478942329e+01    0.3036432    0.2412853 -48.60  0.001374934    1.296    0.228
        25 -11.6500    202.5499     91.1216   3.6148915584e+01   2.2899117618e+01    0.2907754    0.2154392  26.27  0.001391338    1.706    0.414
        26 -13.7325    205.6796     96.4274   3.6937785222e+01   2.1511197214e+01    0.6743628    0.3408719  36.12  0.002995886    2.768    0.639
        27 -13.1566    217.9652     94.5393   3.4837006917e+01   1.9556614809e+01    0.4746168    0.4194274   5.56  0.003036282    1.267    0.211
        28 -12.4042    113.4745     96.6034   5.6088592917e+01   4.0784262278e+01    0.4421405    0.2438861  60.76  0.001628179    2.413    0.586
        29 -11.2204    246.4736    183.4896   4.8102064862e+01   3.5360191489e+00    0.1098637   0.07930321  -9.78  0.000199843    1.036    0.035
        30 -14.1146    240.5268     71.5255   2.7251572780e+01   1.8722624642e+01    0.7914689     0.536902 -39.18  0.005090933    1.165    0.141
        31 -14.1855    239.4335     91.5759   3.1633018484e+01   1.6320976500e+01    0.6529495    0.4906601 -31.92  0.002878694    1.072    0.067
        32 -14.6491    236.1414     81.6224   2.9867059353e+01   1.8170006020e+01    0.7962847    0.6744877  47.25  0.005586307    1.453    0.312
        33 -13.5360     31.8857     88.0568   8.5222543699e+01   5.6743369337e+01    0.7467183    0.3111441  19.58   0.00279511    2.622    0.619
        34 -14.5804    215.3444     67.5228   2.8943548124e+01   2.3806307634e+01     1.325673    0.5778013 -36.37  0.006288017    1.874    0.466
        35 -14.0335    200.1680    108.2486   4.0462255204e+01   2.0716042252e+01    0.5701146    0.3132683 -28.78  0.002772019    1.770    0.435
        36 -12.1021     40.4696     81.2013   7.9722624992e+01   5.7611400052e+01    0.2801768    0.2148897  26.36  0.001297181    1.343    0.255
        37 -13.3517     27.1180     80.1137   8.6026995679e+01   5.9344883518e+01    0.6240138    0.1978746  45.41  0.001984086    3.649    0.726
        38 -10.9944    176.5521     79.4655   3.7231792111e+01   3.0028992468e+01    0.2925131    0.1716792 -59.37  0.001280218    2.099    0.524
        39 -10.9814    212.4998    148.5112   4.6944893344e+01   1.2547744542e+01    0.1238165    0.1023861 -13.47 0.0001232662    1.016    0.015
        40 -12.0369    203.0656     71.7053   3.1410311454e+01   2.5646720239e+01     0.301006    0.1928135  38.18  0.001546474    2.045    0.511
        41 -10.7832    164.0356     71.5031   3.7196860602e+01   3.4114659220e+01    0.2164955    0.1418584  59.55  0.001034909    1.596    0.373
        42 -13.0142    247.8369    144.9229   4.1166056551e+01   8.1241760029e+00    0.3282333    0.2974396  88.88  0.002453625    1.882    0.469
        43 -12.2859     43.7427     62.4547   7.2970355510e+01   6.1985226601e+01    0.2451162    0.2179767  45.67  0.000685697    1.159    0.137
        44 -10.7403    169.1159     60.3435   3.3188810725e+01   3.4696921433e+01    0.2163761    0.1721261  43.83 0.0007405388    1.438    0.304
        45 -14.9304     38.5406     49.1754   7.1297357183e+01   6.5922133292e+01     1.113315    0.6968849 -46.47  0.005277343    1.563    0.360
        46 -10.8981    151.6938     53.0390   3.3900835650e+01   3.9975682433e+01    0.2111301    0.1823353 -40.03 0.0006744385    1.149    0.130
        47 -12.0806    209.5727     44.7194   2.4031029855e+01   2.7922113523e+01    0.5056247    0.2063505  67.17  0.002305469    2.680    0.627
        48 -13.0571    215.4620     42.8626   2.3036230935e+01   2.6950426168e+01    0.4179384    0.3544888 -68.39  0.002787366    1.145    0.127
        49 -11.7231    218.7490     38.8584   2.1793832274e+01   2.6771402214e+01    0.3366364    0.2219173 -75.79   0.00197602    1.616    0.381
        50 -12.3969    172.1023     37.5331   2.6163929371e+01   3.7192087845e+01    0.2592995    0.2176879  14.48 0.0008648758    1.563    0.360
        51 -12.2947    175.6424     33.0922   2.4450769694e+01   3.6908549560e+01    0.2823019     0.246034  72.34  0.000614538    1.209    0.173
        52 -11.9709     51.5141    141.4307   8.5749902708e+01   4.0256582769e+01    0.5217956    0.1307214 -67.50  0.001597327    3.835    0.739
        53 -12.7897    200.7459     32.3431   2.1720670733e+01   3.1289295620e+01    0.3664284    0.3112869 -62.42  0.002358602    1.053    0.051
        54 -11.6638    187.9925     29.4967   2.2145320711e+01   3.4464200431e+01    0.4142721     0.108241 -42.65  0.001516767    2.969    0.663
        55 -10.9900    166.4908     33.0323   2.5521605757e+01   3.9119870711e+01     0.212487     0.129392 -32.41  0.001032728    1.590    0.371
        56 -12.4290     47.5232    141.5128   8.7097562017e+01   4.0713236305e+01    0.4072951    0.1378773  25.10  0.001408111    2.910    0.656
        57 -13.4929    177.5507     28.0853   2.2797932698e+01   3.7060477863e+01    0.5379213    0.2794984 -76.61  0.002359431    2.295    0.564
        58 -11.9631    171.1264     29.1502   2.3808175564e+01   3.8470955288e+01    0.2524891    0.1836757  47.77  0.001273838    1.624    0.384
        59 -11.3661    130.6116     24.1863   2.7728668097e+01   4.9356787354e+01    0.1956973    0.1415529 -10.42 0.0009506242    1.736    0.424
        60 -11.9585      3.2966    139.5983   1.0189884929e+02   4.5135574062e+01    0.3761803    0.2432514 -84.19  0.002015572    1.444    0.307
        61 -13.6932    248.8259    102.1722   3.2785093527e+01   1.3482145420e+01    0.8904272    0.2488368 -34.58  0.003852396    2.702    0.630
        62 -14.4223    221.5777    119.3349   3.9699907229e+01   1.5385075200e+01     0.646891    0.3911914  58.28  0.003539389    2.273    0.560
        63 -14.0904    217.3750    112.3605   3.8817508596e+01   1.7083717948e+01    0.4893332    0.3444091 -48.56  0.002892046    1.483    0.326
        64 -12.8463    246.0171    121.6492   3.6974768844e+01   1.1371006751e+01    0.4869605    0.2805314 -32.85  0.002984527    1.374    0.272
        65 -14.3578    246.3634    113.5273   3.5333817117e+01   1.2378564589e+01     0.945769    0.5296866  50.52  0.005680596    2.252    0.556
        66 -15.3367    235.3331    128.8726   3.9751230925e+01   1.1949431194e+01     1.065478    0.7766789   2.52  0.006796492    1.497    0.332
        67 -14.0238    237.8653    118.9878   3.7457832753e+01   1.2910799390e+01    0.6147506     0.319728 -39.23   0.00304921    1.643    0.391
        68 -11.9176    122.2033    126.9918   6.1210712213e+01   3.2318662005e+01    0.2812079    0.2193125  39.57  0.001402785    1.250    0.200
        69 -11.2506     27.9961    126.0107   9.2196998194e+01   4.6846365996e+01    0.1773382    0.1608849  75.55  0.000982689    1.016    0.016
