#   1 NUMBER                 Running object number                                     
#   2 MAG_AUTO               Kron-like elliptical aperture magnitude                    [mag]
#   3 X_IMAGE                Object position along x                                    [pixel]
#   4 Y_IMAGE                Object position along y                                    [pixel]
#   5 X_WORLD                Barycenter position along world x axis                     [deg]
#   6 Y_WORLD                Barycenter position along world y axis                     [deg]
#   7 A_WORLD                Profile RMS along major axis (world units)                 [deg]
#   8 B_WORLD                Profile RMS along minor axis (world units)                 [deg]
#   9 THETA_WORLD            Position angle (CCW/world-x)                               [deg]
#  10 FWHM_WORLD             FWHM assuming a gaussian core                              [deg]
#  11 ELONGATION             A_IMAGE/B_IMAGE                                           
#  12 ELLIPTICITY            1 - B_IMAGE/A_IMAGE                                       
         1 -11.1634     25.3416     20.0478   2.9165692542e+02   7.3920760020e+00   0.02665625   0.01423728 -27.19  0.002158133    2.839    0.648
         2 -10.7277    104.0678     18.6394   2.9073612111e+02   6.9367981885e+00   0.02324483  0.008397531 -47.20  0.001757508    2.845    0.649
         3 -11.0908    217.4857     16.0805   2.8940871162e+02   6.2835696223e+00   0.02495986    0.0148405  -2.16  0.001904536    2.525    0.604
         4 -10.9714     19.7762     18.5824   2.9171238518e+02   7.4421643528e+00   0.01611086   0.01246395 -63.50  0.001375364    1.299    0.230
         5 -11.3765    133.4061     11.7328   2.9035372916e+02   6.8399151969e+00   0.01528982   0.01178931 -33.56  0.001045199    1.387    0.279
         6 -11.1013     26.1754     13.5348   2.9160699427e+02   7.4619576026e+00   0.01171012   0.01053981 -38.87 0.0004146032    1.115    0.103
         7 -10.6274     99.5274     13.3936   2.9075620105e+02   7.0243261349e+00   0.02157547   0.01201949 -76.99  0.001901014    2.315    0.568
         8  -9.9286    115.0300     13.0183   2.9057438620e+02   6.9355676269e+00   0.01001584  0.009595976  70.88 0.0005246805    1.084    0.078
         9 -11.7603     81.0465      6.5831   2.9092806726e+02   7.2134291774e+00   0.02065529   0.01277328 -33.60 0.0005173553    1.900    0.474
        10  -9.6881      8.7438      8.3022   2.9177676048e+02   7.6261876305e+00   0.01345828  0.008011723  -3.57  0.001109641    2.517    0.603
        11 -10.4250     75.1012      5.0763   2.9098761458e+02   7.2663785153e+00   0.01700596  0.008437853 -55.44  0.001125863    1.924    0.480
        12  -9.6192     60.0218      5.2504   2.9116342299e+02   7.3547124585e+00   0.01871943  0.006011624  24.87  0.001294612    3.437    0.709
        13 -11.5146     26.8426      3.3004   2.9153596592e+02   7.5755855900e+00   0.01980221   0.01504998  10.94  0.001207285    1.436    0.303
        14  -9.9196     91.6578      4.0300   2.9078933548e+02   7.1791232451e+00  0.009262157  0.008247839 -58.21 0.0004210444    1.114    0.103
        15 -11.7043     19.8541    238.0842   2.9306248962e+02   4.9144487592e+00   0.02847249   0.01506324  34.69  0.002674252    1.841    0.457
        16  -9.8973    243.0437    247.4975   2.9054553500e+02   3.4691380887e+00   0.01113779  0.009247527 -85.89 0.0005656799    1.331    0.249
        17 -11.0158    247.7974    249.8214   2.9050511659e+02   3.4138526684e+00     0.026976   0.01412488  12.89  0.002280864    2.514    0.602
        18 -10.6567    250.3824    244.1346   2.9044027958e+02   3.4637212147e+00   0.02044245  0.009373503 -54.81  0.001790886    2.066    0.516
        19 -12.2376    225.9388    245.9796   2.9073321803e+02   3.5893436814e+00    0.0362147   0.02032224 -32.95  0.003228433    2.255    0.557
        20 -12.1305    233.1466    246.3567   2.9065250418e+02   3.5417122660e+00   0.01954696   0.01648735 -86.68   0.00227003    1.303    0.232
        21 -12.0487    180.9032    246.1388   2.9125328188e+02   3.8578706251e+00   0.03172927   0.01899254 -72.36   0.00303558    1.897    0.473
        22 -10.3947    127.9202    249.6285   2.9188586723e+02   4.1353626256e+00   0.01192868   0.00860568 -49.90 0.0009918479    1.366    0.268
        23  -9.6129     72.8931    250.0100   2.9252324967e+02   4.4603026330e+00    0.0110715  0.007567564 -29.24  0.001116774    1.710    0.415
        24  -9.2433     45.7097    250.6534   2.9284099311e+02   4.6153204569e+00  0.007046117  0.004862251 -30.85 0.0007026393    1.660    0.398
        25 -10.4316     32.4097    249.4575   2.9298720737e+02   4.7085001985e+00   0.01802752   0.01012645 -38.30  0.001654333    2.034    0.508
        26 -12.2833     21.3113    248.9646   2.9311232316e+02   4.7804007305e+00   0.02955597   0.01532117  39.41  0.002731136    1.924    0.480
        27 -11.6511     14.2186    244.3285   2.9316581989e+02   4.8761166430e+00    0.0180423   0.01174315 -81.32  0.001554831    1.888    0.470
        28  -9.5322     50.0182    240.4725   2.9272881674e+02   4.7068717429e+00  0.009772546  0.006524162  26.42 0.0006415803    1.511    0.338
        29 -10.5844    174.3435    238.8024   2.9128375089e+02   3.9816682849e+00   0.01501392    0.0121224   9.22  0.001263341    1.333    0.250
        30 -11.2309    177.5592    234.9872   2.9122316947e+02   4.0062855739e+00    0.0153556   0.01154152 -38.51  0.001105958    1.390    0.280
        31  -9.4615    215.6543    240.3067   2.9081676123e+02   3.7163730208e+00  0.007042622  0.004948814  60.82 0.0007042904    1.696    0.410
        32  -9.7206    135.3666    237.2827   2.9172402797e+02   4.2328957615e+00  0.006995975  0.004982601 -21.53 0.0005095968    1.690    0.408
        33 -10.8624    159.9785    235.7645   2.9143073285e+02   4.1028114942e+00     0.012967   0.01108492   2.16 0.0008853968    1.253    0.202
        34  -9.4281     91.6809    236.6571   2.9222438368e+02   4.5017240620e+00  0.007151806  0.004890861 -28.52 0.0004104789    1.720    0.419
        35 -11.0655     73.6455    232.9092   2.9240958566e+02   4.6527818525e+00   0.01383069   0.01201451 -65.48 0.0009275306    1.160    0.138
        36 -11.2560    153.3773    233.9264   2.9149557089e+02   4.1635621568e+00    0.0147442  0.008973662 -41.50  0.001052193    1.746    0.427
        37 -10.5054     86.2865    233.6687   2.9226830077e+02   4.5684210541e+00   0.01252144   0.00838144 -80.29  0.001245412    1.787    0.440
        38  -9.6983     53.6692    234.7016   2.9265125318e+02   4.7515402832e+00  0.006947988  0.004970637 -24.92 0.0005318617    1.643    0.391
        39 -10.5957    127.1928    233.6061   2.9179573470e+02   4.3242120286e+00  0.009592385  0.006403738  10.01 0.0008640008    1.752    0.429
        40  -9.5637    240.8176    231.3743   2.9047174587e+02   3.6679566288e+00  0.008999079   0.00832691 -83.26 0.0004354512    1.127    0.113
        41 -10.0087     79.5516    231.3848   2.9233202970e+02   4.6350179715e+00    0.0120778  0.008066273  23.94 0.0005441615    1.535    0.349
        42  -9.5648    236.0100    230.4919   2.9052168841e+02   3.7069975280e+00  0.009617386  0.006588011  23.27 0.0004795708    1.502    0.334
        43 -11.4421     74.0331    238.6288   2.9244023045e+02   4.5845810514e+00   0.02901289   0.01653622  35.51   0.00282037    1.721    0.419
        44 -10.3069    169.9911    228.7439   2.9127200470e+02   4.1235611135e+00  0.009387721  0.008823478  20.33  0.001020451    1.071    0.066
        45  -8.8675    159.3061    229.3442   2.9139896183e+02   4.1807542722e+00  0.007104894   0.00488646 -29.39 0.0004812674    1.691    0.409
        46 -10.6351    116.3054    228.6679   2.9189102099e+02   4.4463043236e+00    0.0128573  0.005562245 -65.79  0.001010391    2.498    0.600
        47 -10.1121    178.3137    228.3302   2.9117346297e+02   4.0783788945e+00  0.007062074  0.004918813 -28.13 0.0007044511    1.676    0.403
        48 -10.4773    129.8212    226.8413   2.9172378404e+02   4.3863575492e+00   0.02006964  0.009725721  45.26  0.001486196    2.249    0.555
        49 -10.5929    190.5073    226.4815   2.9102144868e+02   4.0264612397e+00   0.01214355   0.01082695 -55.26 0.0006474357    1.109    0.098
        50 -10.6086    167.1110    233.8373   2.9133659339e+02   4.0822115434e+00   0.01140251   0.01120489 -53.91  0.000792224    1.015    0.014
        51 -10.4174     88.1101    227.1316   2.9220707932e+02   4.6328049232e+00    0.0107007  0.008883275 -27.50   0.00122473    1.287    0.223
        52 -10.7509     66.6071    226.5011   2.9245150787e+02   4.7686829103e+00   0.01621563   0.01024536  37.04   0.00164669    1.569    0.363
        53  -9.6300      6.6905    227.3099   2.9314850183e+02   5.1170878632e+00  0.006858713  0.005005437  63.22 0.0004028101    1.621    0.383
        54 -10.5947     81.4298    224.8633   2.9227027798e+02   4.6989010022e+00   0.01357395   0.01168261 -68.97 0.0009029251    1.185    0.156
        55  -9.4625     24.9675    226.0000   2.9292935628e+02   5.0231688114e+00   0.01080961  0.003764316  27.34 0.0007946761    2.889    0.654
        56 -10.5235    181.9837    223.5885   2.9110191902e+02   4.1109272221e+00   0.01674839  0.009302492 -55.41  0.001600668    1.734    0.423
        57  -8.9441    109.3591    223.3018   2.9193820464e+02   4.5497072089e+00  0.007082963  0.004960549 -23.67 0.0002603521    1.718    0.418
        58 -10.7063     13.1053    222.2226   2.9304322113e+02   5.1374550037e+00   0.01159073   0.01004653 -36.88 0.0003593649    1.175    0.149
        59 -11.4989    141.4601    221.4204   2.9155609526e+02   4.3790061274e+00   0.01737558   0.01238554 -13.56  0.001196812    1.738    0.424
        60 -10.9894    123.4585    221.4163   2.9176384288e+02   4.4869565330e+00   0.01418124   0.01303502   0.40  0.001042763    1.125    0.111
        61  -9.2204     51.6772    222.6795   2.9260047132e+02   4.9019388278e+00  0.007044273  0.004933768 -27.10   0.00044096    1.674    0.403
        62 -10.0635    165.8390    220.4321   2.9126870435e+02   4.2441537644e+00   0.01099332  0.007548936 -54.64 0.0002794895    1.421    0.296
        63 -10.4370    174.2099    219.9460   2.9116914066e+02   4.1995142289e+00   0.01170105   0.01005101   0.19 0.0006622932    1.248    0.199
        64 -10.0832     21.9810    220.2329   2.9292848741e+02   5.1074348559e+00  0.008951305  0.008471126  16.24 0.0003507779    1.066    0.062
        65  -9.9102    250.3410    219.0801   2.9028618188e+02   3.7521149253e+00  0.009496466  0.008316846 -61.20 0.0006023431    1.138    0.121
        66  -9.1640    233.5025    219.4912   2.9048271737e+02   3.8486096519e+00  0.006520173  0.006488584 -38.89  0.000596753    1.009    0.009
        67 -10.9505    192.4954    216.6706   2.9093804788e+02   4.1274335206e+00   0.01976416   0.01254293 -22.06  0.001857962    2.095    0.523
        68  -9.7133     49.8547    218.3660   2.9259504203e+02   4.9625206730e+00  0.009456662  0.006331217  11.00 0.0005797038    1.726    0.421
        69 -10.6788     10.0960    217.0061   2.9304600547e+02   5.2155039696e+00   0.01736395   0.01266999  52.59  0.001425555    1.498    0.333
        70 -10.5858    201.6247    215.9234   2.9082816507e+02   4.0812016663e+00   0.01204634  0.009995895   8.24  0.001346305    1.287    0.223
        71  -9.1300    179.6809    216.2937   2.9108352390e+02   4.2087121462e+00  0.006846816  0.004987319  61.25 0.0007013639    1.607    0.378
        72  -9.5581    137.1807    215.6413   2.9156990582e+02   4.4712054551e+00  0.009452849  0.006318524  11.84   0.00094135    1.717    0.418
        73  -9.3250    115.0000    214.9684   2.9182181650e+02   4.6118888796e+00   0.01087556  0.003745116 -61.89 0.0005758176    2.887    0.654
        74 -11.0470    208.9935    212.1503   2.9071993158e+02   4.0803498345e+00   0.01108558   0.01064157 -32.14 0.0004657187    1.040    0.039
        75 -10.3844    170.0721    213.2583   2.9117566616e+02   4.3013293245e+00  0.009486697   0.00883704  30.19  0.001157146    1.077    0.072
        76  -9.5578    142.5581    213.4716   2.9149447973e+02   4.4639427882e+00  0.006609224  0.006347016 -31.92 0.0001178026    1.040    0.039
        77 -11.5292      5.2726    207.6618   2.9304444235e+02   5.3519293134e+00   0.02568774   0.01519032 -78.40  0.002365755    2.128    0.530
        78 -10.0174      1.4809    207.4893   2.9308720040e+02   5.3765188900e+00   0.01238431  0.006667277 -65.55 0.0008728944    1.933    0.483
        79 -10.2750     10.6118    208.7031   2.9298913130e+02   5.3080948415e+00   0.01535136  0.007989573 -32.05  0.001151466    2.654    0.623
        80 -11.4236     20.4979    211.2600   2.9289058430e+02   5.2196657202e+00   0.01927399   0.01274893  86.69 0.0007658532    2.049    0.512
        81  -9.6698    218.2308    206.9474   2.9058133694e+02   4.0847068409e+00    0.0117325  0.006778425 -35.85  0.001072425    2.038    0.509
        82 -10.0657    188.4828    205.4984   2.9091544044e+02   4.2801091313e+00  0.006613447  0.006394431 -29.14 -3.478691e-05    1.033    0.032
        83  -9.2238    150.2849    205.3316   2.9135515831e+02   4.5113160304e+00  0.006948177  0.004890961 -30.48 0.0004219182    1.616    0.381
        84  -9.5435     27.5633    205.4817   2.9277348695e+02   5.2440763544e+00  0.006558674  0.006384813  73.48 0.0004592113    1.057    0.054
        85 -10.8265    210.3782    201.1052   2.9063582288e+02   4.1991197352e+00   0.01302862  0.008613847 -82.17  0.001097014    1.868    0.465
        86  -9.5537    238.7413    201.3878   2.9031061448e+02   4.0253580366e+00  0.008946533   0.00639289  11.23 0.0005914193    1.568    0.362
        87  -9.9753    218.2748    201.3443   2.9054625152e+02   4.1489080956e+00   0.00697031  0.004853257 -31.89 0.0007000618    1.623    0.384
        88 -11.2694    227.2706    196.7169   2.9041398417e+02   4.1480640570e+00   0.01820056    0.0111873 -29.05  0.001108386    2.051    0.512
        89 -11.3931    232.0097    191.7137   2.9032846345e+02   4.1771220548e+00   0.02067767   0.01228333 -25.67  0.001850049    2.303    0.566
        90 -11.8806    192.1105    194.7883   2.9080753177e+02   4.3815775453e+00   0.01911494   0.01469523  65.92   0.00186126    1.516    0.340
        91  -9.8556    203.0144    195.9848   2.9068914509e+02   4.3022923086e+00   0.01015385  0.009762923 -45.48 0.0006793853    1.030    0.029
        92 -11.6062    215.5324    193.9607   2.9053229873e+02   4.2503440564e+00    0.0201784  0.009564356 -61.69  0.001769722    2.098    0.523
        93 -10.2569    163.4862    190.9199   2.9111395941e+02   4.5980045354e+00   0.01536004  0.005505411 -54.92  0.001197378    2.565    0.610
        94  -9.2144     59.8185    192.6211   2.9232175717e+02   5.1995514647e+00  0.009356477  0.005794529  39.69 0.0004911525    1.621    0.383
        95 -10.6733    250.2892    190.1357   2.9010805554e+02   4.0853171299e+00    0.0122659  0.009188696 -86.42  0.000955104    1.570    0.363
        96  -9.7820      7.3564    196.1535   2.9294976867e+02   5.4721021953e+00   0.00951275   0.00631249 -76.60 0.0009430012    1.733    0.423
        97 -11.6681    187.6218    189.2583   2.9082519601e+02   4.4721871470e+00   0.02016481   0.01051304 -49.83  0.001828169    1.879    0.468
        98 -10.2892    218.3900    187.7095   2.9046075627e+02   4.3050862828e+00   0.01329502  0.006593902 -67.30  0.001148648    2.203    0.546
        99 -10.4748    168.1501    184.2713   2.9101912511e+02   4.6465365493e+00   0.02409443   0.01102521  53.79  0.001806099    3.198    0.687
       100  -9.3739     61.6163    184.8412   2.9225314282e+02   5.2784209275e+00  0.009518907  0.006400856 -77.22 0.0009498226    1.715    0.417
       101 -11.8402     16.2835    183.0496   2.9276613913e+02   5.5698323440e+00   0.02003283   0.01610523 -81.39  0.001779233    1.367    0.268
       102 -12.1124    244.6584    177.9715   2.9009778800e+02   4.2590984822e+00   0.01964436     0.013251 -23.88  0.001873468    1.835    0.455
       103 -11.7085    249.5086    181.7591   2.9006529779e+02   4.1863508411e+00   0.02459747   0.01415661 -19.76   0.00206209    2.706    0.630
       104  -9.6844    154.3043    184.3056   2.9117916113e+02   4.7292614278e+00  0.006883407  0.004955264 -27.20 0.0002712086    1.601    0.375
       105  -9.9145    141.9958    183.6716   2.9131736191e+02   4.8104203918e+00   0.01091644  0.005497566  -0.97  0.000705176    4.352    0.770
       106 -10.1421    236.4709    182.4790   2.9022000449e+02   4.2565146114e+00  0.006520568  0.006473493 -39.00 0.0004022198    1.007    0.007
       107  -9.2232     58.3517    182.3140   2.9227533137e+02   5.3270523298e+00   0.00712511  0.004940871 -25.02 0.0007046149    1.729    0.422
       108  -9.3004    205.5332    190.4546   2.9062596495e+02   4.3507904417e+00  0.006581702  0.006388878 -27.17 0.0002352685    1.028    0.028
       109  -9.9963     22.5216    180.9894   2.9268136874e+02   5.5563438971e+00   0.01441041  0.007574838 -20.57  0.001049627    3.529    0.717
       110 -10.5126      2.1826    180.1832   2.9291156714e+02   5.6869521387e+00   0.01154923   0.01020428  59.93 0.0005257321    1.203    0.169
       111 -11.8305    224.1707    178.3453   2.9033627300e+02   4.3780543480e+00   0.01553004   0.01475505  25.56 0.0005628139    1.057    0.054
       112  -9.5880    210.3402    180.3217   2.9050796908e+02   4.4384852506e+00  0.007123194  0.004938338 -25.94 0.0005045636    1.720    0.419
       113 -11.1921    200.5644    176.4023   2.9059652951e+02   4.5423533434e+00   0.01326777   0.01146255 -28.56  0.001045719    1.211    0.174
       114  -9.3368     70.4130    177.5358   2.9210653388e+02   5.3099568325e+00  0.006572395  0.006319392 -37.78 0.0001210722    1.034    0.033
       115  -9.9580    100.9863    176.0087   2.9174382614e+02   5.1445156152e+00  0.009205104   0.00900205 -43.58            0    1.012    0.012
       116  -9.9020    211.2818    175.3415   2.9046635465e+02   4.4901245022e+00  0.006985833  0.004870153 -31.14  0.000701168    1.631    0.387
       117 -10.4938    241.6329    173.2103   2.9010323796e+02   4.3320641283e+00  0.009910161  0.005697182 -50.83 0.0009473024    1.697    0.411
       118 -10.4181    193.2639    172.7117   2.9065796940e+02   4.6287039062e+00   0.01114493  0.004552604 -49.78 0.0008984705    2.381    0.580
       119  -9.8558    183.5022    173.0080   2.9077244206e+02   4.6839573972e+00   0.01000913  0.004725587 -40.39  0.000809839    2.483    0.597
       120 -10.7849     17.8815    172.9961   2.9268591140e+02   5.6761213334e+00   0.01955704  0.009479861  46.42  0.001676952    2.306    0.566
       121  -9.5955     59.6284    171.8400   2.9219614484e+02   5.4400663336e+00  0.009466176   0.00636061 -77.23 0.0009437698    1.717    0.418
       122  -9.7503     74.4850    171.4874   2.9202224439e+02   5.3552587406e+00  0.006588805  0.006414521 -29.63 6.599441e-05    1.023    0.022
       123 -10.4794    197.0292    169.1928   2.9059279694e+02   4.6465627160e+00   0.01146626   0.00692954  52.74 0.0008627436    1.936    0.484
       124  -9.8676      4.5842    167.7815   2.9280764580e+02   5.8155113247e+00   0.01325936  0.005989722 -57.33  0.001143205    2.102    0.524
       125  -9.8969    209.9955    166.3221   2.9042548055e+02   4.6016306654e+00  0.009327273  0.008650515  17.34 0.0004911411    1.090    0.083
       126 -10.6899     40.9540    165.1168   2.9237068792e+02   5.6291285074e+00   0.01032405  0.009233008 -64.17            0    1.121    0.108
       127 -10.7625     52.1709    164.0236   2.9223426708e+02   5.5746856535e+00   0.01811448   0.01044371 -29.50  0.001608888    2.290    0.563
       128  -9.1657    229.5085    164.5323   2.9018938293e+02   4.5048366660e+00   0.00663035  0.006365242 -27.09 0.0001510169    1.045    0.043
       129 -11.4962    247.8198    158.8396   2.8994309472e+02   4.4600961576e+00   0.02070862    0.0134323 -62.88  0.002124546    1.548    0.354
       130  -9.3495    200.0169    162.9764   2.9051993226e+02   4.7001295042e+00  0.008044722  0.007581231  23.63 0.0004188691    1.066    0.062
       131  -9.5114    213.3090    162.3444   2.9036268562e+02   4.6274633681e+00  0.007116997  0.004890252 -29.12 0.0004374439    1.699    0.411
       132 -10.6608     36.1407    160.9623   2.9240079456e+02   5.7057375897e+00   0.01591575  0.009310478 -62.43  0.001546475    1.709    0.415
       133  -9.2931     48.3842    158.8090   2.9224596533e+02   5.6573847436e+00   0.00948034  0.005802352 -50.38 0.0006180512    1.601    0.375
       134 -10.0695    238.4930    158.5410   2.9004876178e+02   4.5196767152e+00  0.006564443    0.0064236 -25.72 0.0001578013    1.018    0.017
       135 -10.6205     23.0205    156.4884   2.9252501823e+02   5.8356153948e+00   0.02366891   0.01067187  38.47  0.002045839    2.180    0.541
       136  -9.2804     23.6974    152.6725   2.9249372321e+02   5.8755292249e+00    0.0111933  0.006432767 -56.22 0.0006741399    1.680    0.405
       137  -9.5269    217.8173    154.7004   2.9026344468e+02   4.6882785668e+00   0.01330283  0.006299963  18.11  0.001077872    2.586    0.613
       138  -9.9298    222.0104    152.0244   2.9019854003e+02   4.6938301380e+00   0.01715426  0.008927919  88.28  0.001158593    4.217    0.763
       139 -10.0417    205.4139    152.3256   2.9039185690e+02   4.7902144550e+00   0.01314017  0.005870486 -55.93  0.001126861    2.117    0.528
       140  -9.8771    197.0523    153.5278   2.9049576827e+02   4.8266708283e+00   0.01032758  0.006503471  27.61  0.001032477    1.593    0.372
       141  -9.1735    151.6443    153.3087   2.9101864252e+02   5.1020463639e+00  0.007104007  0.004928414  60.52 0.0005191597    1.726    0.421
       142 -10.5304     11.1800    152.8486   2.9263959818e+02   5.9481963153e+00    0.0216428  0.009731547  34.62  0.001880661    2.136    0.532
       143 -10.5364    178.3427    151.4089   2.9069862574e+02   4.9635287641e+00   0.01466916   0.01123201  49.18  0.001597579    1.380    0.275
       144  -9.0936    154.6720    150.6972   2.9096755397e+02   5.1139251732e+00  0.006965603  0.004970648 -25.28 0.0007033313    1.646    0.392
       145  -9.5716     92.8000    148.1632   2.9166685799e+02   5.5142116592e+00  0.009479651  0.007707628 -26.52  0.001066698    1.332    0.249
       146  -9.3778    233.5206    147.0225   2.9003487324e+02   4.6820819280e+00   0.01022447  0.006461072 -60.84 0.0009403626    1.567    0.362
       147 -10.3695    206.8712    145.9871   2.9033586769e+02   4.8543683322e+00   0.01145615  0.009539331  27.63 0.0007384061    1.205    0.170
       148  -9.4195     37.5255    146.4810   2.9229568266e+02   5.8642649807e+00  0.006523144  0.006467772 -37.39 0.0002512898    1.005    0.005
       149  -9.7551    215.6813    145.6806   2.9023232936e+02   4.8048863852e+00  0.007020829  0.004943297 -27.06 0.0004751055    1.662    0.398
       150 -10.9215      7.0157    144.7648   2.9263807635e+02   6.0661507722e+00   0.01584245   0.01167083 -84.80  0.001286455    1.593    0.372
       151 -10.6307      2.9476    143.8599   2.9267957924e+02   6.1008335009e+00   0.01350774   0.01071156 -16.56  0.001121839    1.428    0.300
       152 -10.2557    212.1460    141.6103   2.9024795094e+02   4.8729805635e+00   0.02088427   0.01123833   8.61  0.001735681    2.653    0.623
       153  -9.5469     37.5253    142.4474   2.9227085874e+02   5.9107212681e+00  0.006495317  0.006463717  53.65 0.0002231681    1.021    0.021
       154 -11.1092     12.1793    140.5914   2.9255266776e+02   6.0834200726e+00   0.01236131   0.01001566 -28.10 0.0009829624    1.329    0.248
       155 -10.8129      2.8226    136.4081   2.9263520707e+02   6.1874087414e+00   0.01794117  0.009384741 -55.43  0.001029633    1.830    0.454
       156 -10.6083      5.9917    133.6913   2.9258182525e+02   6.1998007941e+00   0.01216154  0.009297772 -50.90 0.0005223696    1.286    0.222
       157 -11.8388     57.6996    138.5189   2.9201330844e+02   5.8353709391e+00   0.01862681   0.01229014  57.31 0.0005943477    1.807    0.447
       158 -10.0290     44.2953    138.6600   2.9216922821e+02   5.9138861132e+00   0.01352408  0.009787005  88.60  0.001400449    1.707    0.414
       159 -10.1042     41.6852    135.5662   2.9218037144e+02   5.9651144418e+00   0.01356278  0.007427186  33.31  0.001048175    1.783    0.439
       160 -11.5923      9.2519    136.7351   2.9256282098e+02   6.1452991178e+00   0.01346554   0.01211482  -3.34 0.0002081064    1.165    0.142
       161  -9.3464    236.0106    138.7759   2.8995515786e+02   4.7619272268e+00   0.00880699  0.005431547  27.64 0.0007991768    1.627    0.385
       162 -10.4981     22.2614    136.5473   2.9241113568e+02   6.0698296819e+00   0.01326276  0.005937896  33.48  0.001139787    2.143    0.533
       163  -9.8643    138.3655    135.2638   2.9106064139e+02   5.3894705478e+00   0.01208319  0.008278118   9.51 0.0007441218    1.693    0.409
       164 -10.3191     67.6355    133.8843   2.9186982976e+02   5.8292987346e+00   0.01033136  0.009121895  -2.43 0.0004073622    1.200    0.166
       165 -10.1467     79.6518    133.0250   2.9172555829e+02   5.7672647740e+00  0.009325162  0.008357339 -58.16 0.0006333299    1.106    0.096
       166 -11.9344     36.3188    130.5618   2.9221164185e+02   6.0548117750e+00   0.02234942   0.01600421 -72.05  0.001974108    1.498    0.332
       167 -10.3993    249.6633    130.2993   2.8974529940e+02   4.7771631084e+00   0.01213729   0.01031374  62.41  0.001409191    1.282    0.220
       168  -9.1154     29.3154    130.3383   2.9229129933e+02   6.0992182380e+00  0.007111772  0.004894955 -28.58 -7.423697e-05    1.699    0.412
       169  -9.9518    126.5161    129.4722   2.9116181898e+02   5.5272505937e+00  0.006561513  0.006436352 -28.58 0.0001274378    1.013    0.012
       170 -10.3248     74.2881    129.0856   2.9176330394e+02   5.8447351490e+00   0.01223572   0.01044587 -17.36 0.0006964137    1.264    0.209
       171  -9.7283      1.2671    126.5326   2.9259246888e+02   6.3104213160e+00   0.01189554  0.005751757 -62.19 0.0008661735    2.064    0.516
       172 -11.0609     44.0433    125.6852   2.9209222980e+02   6.0648078086e+00   0.01929691    0.0100288  35.28  0.001221181    1.875    0.467
       173 -11.4935     17.6916    116.6167   2.9234133606e+02   6.3266280707e+00   0.02454557   0.01486039 -30.05  0.002290882    2.071    0.517
       174 -12.3448     16.5705    108.4901   2.9230426570e+02   6.4268913914e+00   0.02245174   0.02107503  79.76 0.0006576948    1.120    0.107
       175 -10.3494     20.8854    121.9365   2.9233712525e+02   6.2463064789e+00  0.009539489  0.009376922 -72.34 0.0003332775    1.029    0.028
       176 -10.4834    219.4652    124.5890   2.9005823492e+02   5.0247001904e+00   0.01110478    0.0109972   8.97 0.0004666892    1.013    0.013
       177  -9.5936     41.0526    120.3061   2.9209369561e+02   6.1446204785e+00  0.009078564  0.008496672  28.94 0.0003108509    1.073    0.068
       178 -10.0688     16.6397    125.2151   2.9240644600e+02   6.2338924011e+00   0.01062227  0.008681472  40.47 0.0004172162    1.237    0.192
       179  -9.5393    166.5041    119.0375   2.9063530769e+02   5.4071731080e+00  0.009749737  0.006462734 -60.55 0.0004685335    1.493    0.330
       180 -10.1948    179.1693    116.2054   2.9047151731e+02   5.3636075774e+00  0.009812932  0.008840756 -21.23 0.0004046293    1.156    0.135
       181 -10.4128     38.3115    111.3054   2.9206995570e+02   6.2646361113e+00  0.009532077  0.005959136  37.08 0.0003190372    1.586    0.369
       182 -10.9884     35.3084    114.2010   2.9212255499e+02   6.2492416780e+00   0.01969678  0.009386824 -72.31  0.001595351    2.646    0.622
       183 -10.3157    103.4983    113.4651   2.9132910468e+02   5.8495604472e+00  0.006529318  0.006464065 -26.34 -9.198288e-06    1.002    0.002
       184 -10.1384     66.7766    113.0461   2.9175129032e+02   6.0743613024e+00  0.009498722  0.008585551  73.61 0.0002813005    1.189    0.159
       185 -11.6575     10.0363    122.5470   2.9246644881e+02   6.3040197928e+00   0.02511775   0.01620399   8.21  0.002201713    1.884    0.469
       186  -9.7457     90.6963    112.6494   2.9147213118e+02   5.9356832870e+00  0.007127011  0.004869041 -29.85 0.0003122779    1.701    0.412
       187 -10.2868     42.3480    110.4951   2.9201824381e+02   6.2498404154e+00   0.01124145  0.009899884 -49.73 0.0003131023    1.122    0.108
       188  -9.7767    167.1732    109.1329   2.9056634202e+02   5.5171019398e+00   0.01029679  0.008748014 -30.98 0.0005708045    1.230    0.187
       189 -11.0736     23.2868    106.8729   2.9221655442e+02   6.4054167581e+00   0.01391599   0.01062691 -47.73 0.0006663455    1.299    0.230
       190  -9.5990    133.0416    107.4810   2.9095055907e+02   5.7411732100e+00    0.0100525  0.006576257  24.55 0.0008110591    1.563    0.360
       191 -10.3476     76.4144    107.0186   2.9160259724e+02   6.0860502791e+00   0.01032204  0.006389543 -61.62 0.0004226451    1.606    0.377
       192  -8.9571     49.6222    107.3100   2.9191442051e+02   6.2430208378e+00  0.007209857  0.004870554  59.76  9.35701e-05    1.789    0.441
       193 -10.6590      5.8096    106.2174   2.9241485165e+02   6.5172648219e+00    0.0142986   0.01144567 -23.64 0.0009028391    1.378    0.274
       194 -10.7086      2.6849    105.2999   2.9244537999e+02   6.5464635735e+00   0.01174976  0.008992596 -46.28 0.0005064196    1.303    0.233
       195  -9.8798     81.0082    106.2438   2.9154466790e+02   6.0674566811e+00   0.01050428  0.008664516 -23.83 0.0008345572    1.315    0.240
       196  -9.7060    223.3059    103.9567   2.8988623380e+02   5.2388175224e+00  0.009300652  0.008338649 -60.01  0.000487928    1.109    0.099
       197 -10.6733     93.1206    103.7302   2.9138903021e+02   6.0238173934e+00   0.01565829     0.012394  81.58  0.001392224    1.484    0.326
       198 -11.3781     70.2980    102.7022   2.9164673150e+02   6.1723566258e+00   0.02075404   0.01078446  16.83  0.001109908    2.309    0.567
       199 -10.4206    247.6185    102.1794   2.8959478803e+02   5.1127381688e+00  0.009844081  0.005721223 -50.19 0.0006149905    1.686    0.407
       200  -9.8379      9.9341    102.4562   2.9234393415e+02   6.5359639195e+00   0.01024246  0.006560009  24.21  0.001028748    1.602    0.376
       201  -9.9924    120.4325    101.2518   2.9105784697e+02   5.8885405646e+00   0.01167427  0.008278802   7.25 0.0004629457    1.634    0.388
       202  -9.9566     37.0185    101.4850   2.9202438971e+02   6.3854214743e+00   0.01026145  0.006404821  30.36 0.0009345392    1.586    0.370
       203 -10.2998     27.9392    100.9874   2.9212642773e+02   6.4453920737e+00  0.009542687   0.00923763  22.40 0.0003433832    1.038    0.036
       204 -10.7119      4.1313    100.7181   2.9240041828e+02   6.5905885136e+00   0.01713076   0.01100271  39.37  0.001752361    1.562    0.360
       205 -10.8322     20.8381     98.4804   2.9219319109e+02   6.5166564568e+00   0.01630313  0.009669296 -71.54 0.0006268446    1.893    0.472
       206 -10.7547     62.0030     98.5006   2.9171679779e+02   6.2703681701e+00   0.01471233  0.008808897  19.75  0.001417995    1.813    0.448
       207 -10.1595     92.8437     97.4031   2.9135316481e+02   6.0982944136e+00   0.01129857  0.009058103 -77.15 0.0005106059    1.344    0.256
       208  -9.1196     49.3559     97.7441   2.9185851116e+02   6.3547318021e+00  0.006873713  0.004849271  55.65 0.0002700469    1.611    0.379
       209 -10.3835     15.7990     94.8589   2.9222921956e+02   6.5884275860e+00   0.01867179  0.008633107 -74.77  0.001419716    3.057    0.673
       210 -12.3172      8.6113     94.3443   2.9230928013e+02   6.6372415885e+00   0.02081391   0.01272734 -42.18  0.002050187    1.720    0.419
       211  -9.5628     31.1724     93.8274   2.9204485854e+02   6.5085013693e+00  0.009232536  0.007450256 -34.55 0.0005092482    1.298    0.229
       212 -10.5014      1.9265     93.0048   2.9237844182e+02   6.6925361296e+00   0.02026894  0.008798621 -45.54   0.00166864    2.419    0.587
       213  -9.9549    109.5219     93.0093   2.9113309522e+02   6.0488491341e+00   0.01039408  0.006505135 -62.36 0.0007070862    1.599    0.374
       214  -9.3578    115.6986     91.3000   2.9105109260e+02   6.0314594721e+00  0.006769636  0.005018945  63.17 0.0002776481    1.584    0.369
       215 -10.7170     96.5672     90.5568   2.9126780011e+02   6.1547604843e+00   0.01680553  0.009181134 -27.27  0.001386683    2.690    0.628
       216 -10.2145     78.1117     90.2767   2.9147961469e+02   6.2685777967e+00   0.01591941  0.008693665  64.10  0.001269512    2.952    0.661
       217  -9.3886    103.5213     88.5440   2.9117491456e+02   6.1362220774e+00   0.00650155  0.006474706 -21.16 0.0001955383    1.009    0.009
       218 -10.4546     48.7104     85.3230   2.9178935227e+02   6.5015568694e+00   0.01526672   0.01147381 -89.48 0.0005267712    1.585    0.369
       219 -11.1599     46.3029     83.2985   2.9180473344e+02   6.5392533650e+00   0.03114065   0.01022479 -55.76  0.002309256    2.761    0.638
       220 -10.8491     67.3808     85.0408   2.9157147948e+02   6.3930905391e+00   0.01132323  0.009337703   1.12 0.0006750093    1.326    0.246
       221 -10.4003     24.1323     85.1623   2.9207294857e+02   6.6502904675e+00   0.01042132  0.008909556 -24.27 0.0007351132    1.243    0.195
       222  -9.3850      1.4389     85.4837   2.9233775274e+02   6.7820178568e+00  0.006514152   0.00642836  84.29 -4.885905e-05    1.035    0.034
       223 -11.2066    118.2549     82.9387   2.9096984255e+02   6.1123160273e+00   0.01726772   0.01135715 -38.49  0.001209463    1.642    0.391
       224 -10.3589     86.0465     83.1637   2.9134386002e+02   6.3028906151e+00   0.01322541  0.008741788  49.29  0.001341803    1.647    0.393
       225  -9.2791    130.3323     82.2983   2.9082620688e+02   6.0471741153e+00   0.00695423  0.004975767 -24.62 0.0005984601    1.646    0.392
       226 -12.1352     72.7490     78.5605   2.9146932638e+02   6.4355172763e+00   0.02485163   0.02231387 -32.87  0.003009036    1.135    0.119
       227 -11.2726     77.8674     71.9431   2.9136919958e+02   6.4809983085e+00   0.02090779   0.01279455  37.58 0.0006766566    1.621    0.383
       228  -9.4347     20.3053     82.3200   2.9209974200e+02   6.7058546635e+00  0.006967482  0.004922482 -28.23 0.0003029649    1.634    0.388
       229 -10.9619     18.7648     79.4460   2.9209986129e+02   6.7481296264e+00   0.01165464  0.009756288 -10.33  0.001339409    1.312    0.238
       230 -10.3200      7.4413     79.9485   2.9223411461e+02   6.8099245134e+00   0.01722485   0.01053662  65.92  0.001122636    2.311    0.567
       231 -12.4257      5.4229     74.0966   2.9222141930e+02   6.8893133729e+00   0.03201368   0.02538983  14.22  0.001560668    1.333    0.250
       232 -10.3963     54.5644     72.4473   2.9164209460e+02   6.6147079327e+00   0.01192071  0.009780035  81.08   8.3249e-05    1.396    0.284
       233 -10.4950     65.3097     73.7147   2.9152551349e+02   6.5358175741e+00    0.0164535   0.01060013  10.90  0.001616443    1.833    0.454
       234 -11.1364     62.1822     71.8397   2.9155014197e+02   6.5761126864e+00    0.0167023   0.01154662 -61.85 0.0004193446    1.442    0.306
       235 -11.4365     23.9188     78.1023   2.9203188085e+02   6.7328185820e+00   0.01204714  0.009599663 -47.31  0.000907685    1.245    0.197
       236 -10.1905    150.2387     77.9151   2.9056893389e+02   5.9779896676e+00   0.01001065  0.008815493  78.03 0.0007956807    1.242    0.195
       237 -11.1134     68.6477     67.1718   2.9144645179e+02   6.5911092962e+00   0.02549429    0.0113627 -56.07  0.002209718    2.121    0.529
       238 -10.3728     88.0560     77.3045   2.9128440497e+02   6.3582640697e+00  0.009489194  0.008549404  31.11  0.000458886    1.113    0.101
       239 -10.0246    121.3375     76.3007   2.9089314242e+02   6.1701733179e+00  0.006989033  0.004971527 -24.53 0.0003637502    1.663    0.399
       240 -11.4898    108.6932     74.7487   2.9102981422e+02   6.2639115376e+00   0.02496731   0.01318441 -40.22   0.00146384    2.132    0.531
       241 -10.8292     93.6582     75.0068   2.9120537443e+02   6.3511157869e+00   0.02677021  0.008872799 -53.57  0.002033285    2.754    0.637
       242 -11.0459     94.6608     68.7033   2.9115480875e+02   6.4176208074e+00   0.01539348   0.01049916 -10.61  0.001078428    1.899    0.473
       243 -10.3211     40.7620     73.2363   2.9180679396e+02   6.6881758910e+00   0.01614725   0.01080033  85.72  0.001559844    2.020    0.505
       244 -11.1354    151.7688     72.1443   2.9051553262e+02   6.0351569526e+00   0.01499511  0.009445586  21.58  0.001496264    1.673    0.402
       245 -10.2685    115.8695     71.0195   2.9092373179e+02   6.2637432526e+00   0.01540579  0.009433048 -62.60  0.001166444    1.638    0.389
       246 -11.0361     58.8555     76.6271   2.9161822129e+02   6.5409377516e+00   0.02075746   0.01637262 -82.77  0.001804633    1.418    0.295
       247 -10.4285    136.8656     70.2851   2.9067634198e+02   6.1461050973e+00   0.01111241  0.009121052 -79.30 0.0005606202    1.317    0.241
       248 -12.2056     49.5645     69.5327   2.9168199455e+02   6.6781532725e+00   0.02351129   0.01787421 -24.11  0.002287413    1.492    0.330
       249 -10.3501    130.8696     67.2064   2.9072663597e+02   6.2175317912e+00   0.02234687   0.01116549 -79.88  0.001705954    3.160    0.684
       250 -11.2435     40.9941     63.5480   2.9174429745e+02   6.7982609816e+00   0.01495421  0.009679789 -80.20  0.001456163    1.889    0.471
       251 -10.9643     38.2126     66.5880   2.9179528171e+02   6.7799128290e+00   0.01384128   0.01052606  -5.34 0.0009800784    1.538    0.350
       252 -11.3487     21.3669     66.2007   2.9198801882e+02   6.8850138229e+00   0.01589806   0.01006499  48.26 0.0008416453    1.717    0.418
       253  -9.7211     36.6767     69.3029   2.9182982838e+02   6.7578552566e+00  0.009213976  0.008198749  53.55 0.0005936698    1.174    0.148
       254 -11.0972     31.1408     66.4383   2.9187626814e+02   6.8238977835e+00   0.01357346   0.01183499 -58.82 0.0005515637    1.137    0.120
       255 -10.0550      6.7968     67.9904   2.9216785159e+02   6.9513844503e+00   0.01124949  0.009291645  19.89  0.001104054    1.239    0.193
       256  -9.0927    215.3172     70.6943   2.8977241906e+02   5.6693050858e+00  0.006883372   0.00500202  62.52 0.0004823236    1.629    0.386
       257 -10.1933     14.0659     66.7163   2.9207577965e+02   6.9226678860e+00   0.01811202    0.0107237   0.69  0.001230306    2.441    0.590
       258  -9.9312    156.4785     66.5107   2.9042621623e+02   6.0716193092e+00  0.006544377  0.006454487  68.38 0.0008099385    1.036    0.035
       259  -9.0875    146.6814     66.2640   2.9053795442e+02   6.1333591078e+00  0.006713589  0.004936988  58.27 0.0002649773    1.551    0.355
       260 -10.5352    119.1267     65.8726   2.9085421454e+02   6.3033888569e+00   0.01372998   0.01065827 -14.67 0.0004419993    1.487    0.328
       261 -10.3151    122.1744     61.6014   2.9079253248e+02   6.3342111933e+00   0.01155911  0.009101375 -24.46 0.0008489505    1.411    0.291
       262 -10.7696      2.4234     64.9195   2.9219958439e+02   7.0128082011e+00   0.02087096  0.008891421 -44.51  0.001684927    2.535    0.606
       263 -11.5682    174.2406     63.8688   2.9020456422e+02   5.9951394050e+00   0.01346165   0.01176525  70.58 0.0003873888    1.250    0.200
       264 -10.5051    138.0542     65.2979   2.9063173529e+02   6.1963166142e+00  0.009470224  0.008409747  35.14 0.0005608736    1.130    0.115
       265 -11.2430     84.3180     63.2862   2.9124103015e+02   6.5419347047e+00   0.02268039   0.01624697 -87.52  0.002356051    1.704    0.413
       266 -10.2299     86.3549     58.2252   2.9118616259e+02   6.5879393664e+00   0.01265748   0.01084907 -77.58 0.0005891973    1.233    0.189
       267 -11.1132     77.0345     65.2402   2.9133742113e+02   6.5630999250e+00   0.02035055  0.007097104  38.13  0.001558261    2.752    0.637
       268  -9.9977     51.6577     62.5926   2.9161489586e+02   6.7454780935e+00   0.01369828  0.009042227 -36.42  0.001292414    1.670    0.401
       269 -10.9747     11.1758     62.0667   2.9208057892e+02   6.9934153365e+00   0.01677993    0.0131998 -26.63   0.00111104    1.397    0.284
       270 -11.6723     70.3600     58.5285   2.9137321604e+02   6.6802844876e+00   0.02107732   0.01000817 -49.69  0.001677579    2.060    0.515
       271 -10.2155    165.8847     64.9986   2.9030812954e+02   6.0324286773e+00  0.009788631   0.00942143 -52.36 0.0003458463    1.030    0.030
       272 -11.4082     58.2191     60.3976   2.9152535122e+02   6.7314693141e+00   0.01775559   0.01139254 -36.66   0.00176725    1.731    0.422
       273 -10.3621     18.1264     59.3305   2.9198316676e+02   6.9834075667e+00   0.01254234  0.009630046 -77.12 0.0005767942    1.424    0.298
       274 -11.3875    137.6616     55.5429   2.9057589418e+02   6.3108440047e+00   0.02467306   0.01095566 -49.54  0.002109307    2.204    0.546
       275 -11.4198    134.9428     49.5904   2.9057048750e+02   6.3956172966e+00   0.02281686   0.01307014  62.41  0.001484139    2.531    0.605
       276 -10.6672      5.2077     58.4367   2.9212733703e+02   7.0707894197e+00   0.01669833  0.006104744  30.04  0.001304856    2.625    0.619
       277 -10.9917    122.4403     56.5423   2.9075815144e+02   6.3907919362e+00   0.01659196  0.009056362  49.77  0.001495904    2.120    0.528
       278 -10.5762    114.2489     57.4236   2.9085837784e+02   6.4298379013e+00   0.01878936  0.008688682  17.75  0.001154074    2.707    0.631
       279 -10.5007     98.8879     56.0386   2.9102757184e+02   6.5379377422e+00   0.01714126   0.01047477  10.14  0.001382903    2.018    0.504
       280 -10.1302     96.2702     52.9899   2.9103901186e+02   6.5886987036e+00   0.00965341  0.009525794 -29.27 0.0002582745    1.003    0.003
       281 -10.9256     26.9792     61.3927   2.9189333261e+02   6.9068127376e+00   0.02076576   0.01062977  23.16  0.001864042    2.076    0.518
       282  -9.4255     80.7072     56.9915   2.9124391659e+02   6.6359768819e+00  0.009092106  0.008276951 -64.89 0.0004503742    1.104    0.094
       283 -10.9260    157.2563     53.1541   2.9033451805e+02   6.2204982502e+00   0.01249406   0.01041899 -45.15 0.0004705219    1.197    0.164
       284 -12.3875    127.9652     51.5221   2.9066316316e+02   6.4153313640e+00   0.01797083   0.01384089 -55.00 0.0003727448    1.275    0.215
       285 -11.3330     38.5031     51.6461   2.9169965195e+02   6.9500688210e+00   0.02815174   0.01737186 -43.19  0.002800932    1.683    0.406
       286 -11.3123      3.9267     52.7525   2.9210711343e+02   7.1438235528e+00   0.02561956   0.01488421   2.89  0.001339746    2.473    0.596
       287 -11.8882     13.2985     49.6054   2.9197908596e+02   7.1241042235e+00   0.02894475   0.01820862 -20.08  0.002324815    2.163    0.538
       288 -11.7522     51.5766     48.9890   2.9153179220e+02   6.9024449380e+00   0.03327456   0.01685707 -69.21  0.002518995    2.233    0.552
       289  -9.9142     52.2715     42.3189   2.9148252014e+02   6.9749966504e+00  0.008968538  0.007611725  66.15 0.0001646214    1.299    0.230
       290 -10.6728    114.9989     49.2473   2.9079910255e+02   6.5193525258e+00   0.01583095     0.010893 -38.41 0.0006833936    1.552    0.355
       291 -11.5211    101.8427     49.3863   2.9095221941e+02   6.5967115485e+00   0.02107019   0.01178289  42.10  0.002001952    1.833    0.454
       292  -9.4776    104.3156     46.3090   2.9090455660e+02   6.6172577892e+00  0.006946367  0.004953405 -26.56 0.0006068299    1.632    0.387
       293 -10.1281     83.1501     51.1616   2.9117958613e+02   6.6883860156e+00   0.01045684  0.008695857 -33.96 0.0008652349    1.251    0.201
       294 -10.1460     44.9319     51.0683   2.9162160965e+02   6.9182759821e+00    0.0146268   0.01065618 -18.13  0.001532906    1.646    0.392
       295 -10.1302     46.2905     46.9970   2.9158071644e+02   6.9569771727e+00   0.01145138  0.007950772 -57.80 0.0002474568    1.412    0.292
       296  -9.6264     86.9778     52.5226   2.9114368878e+02   6.6497903879e+00   0.01009988  0.006511854  27.13  0.001021596    1.559    0.359
       297 -12.3946    142.9675     46.1088   2.9045611189e+02   6.3874093511e+00   0.02594009   0.01846682  43.20  0.002791615    1.439    0.305
       298  -9.8562    123.4915     38.4846   2.9063420358e+02   6.5920853103e+00   0.01163484  0.005527623 -50.24 2.605147e-05    2.048    0.512
       299 -10.7914    122.1160     45.2048   2.9069172753e+02   6.5230936871e+00   0.01397263   0.01115548  22.28 0.0005169638    1.276    0.217
       300 -11.1901    121.5093     41.5205   2.9067593729e+02   6.5690920195e+00     0.022286   0.01226278  49.55  0.001815951    2.089    0.521
       301 -12.3866      8.0711     43.9996   2.9200506419e+02   7.2197806008e+00   0.03139831   0.02396943 -66.34  0.003504215    1.336    0.252
       302  -9.7995    233.1498     45.1529   2.8940825714e+02   5.8552281231e+00  0.009877482  0.008574905 -33.30 0.0004831923    1.187    0.157
       303  -9.2057     74.9371     44.0000   2.9123039509e+02   6.8199583895e+00   0.01062842  0.003762969  27.44 0.0007874674    2.840    0.648
       304 -11.5609     63.9481     41.5655   2.9134260768e+02   6.9137706788e+00   0.01301807   0.01249715 -42.74  0.001624605    1.032    0.031
       305 -11.1886     67.9778     37.2081   2.9126898894e+02   6.9397429636e+00   0.02099726   0.01250459 -64.85  0.002054049    1.723    0.420
       306 -10.0109     91.8418     46.2645   2.9104867098e+02   6.6925946441e+00   0.01141641  0.008966583 -79.19   0.00099019    1.400    0.286
       307  -9.8258    154.4965     42.4830   2.9030032613e+02   6.3597549291e+00  0.006536891  0.006462891  66.16 0.0001574411    1.032    0.031
       308  -9.6969     56.4481     42.2648   2.9143380366e+02   6.9506260086e+00  0.009425038   0.00650506 -79.18 0.0009528043    1.689    0.408
       309 -10.1151     23.8681     41.3802   2.9180581492e+02   7.1555971139e+00    0.0109657  0.009237938 -83.29  0.001071997    1.291    0.225
       310 -10.1400    226.3800     40.8571   2.8945974729e+02   5.9454064937e+00   0.01152668   0.00885665  39.55  0.000620543    1.309    0.236
       311 -11.1752     95.3373     40.4415   2.9097217574e+02   6.7385823549e+00   0.01909663   0.01012796  41.20  0.001768656    1.916    0.478
       312 -10.1289     44.3516     40.1833   2.9156107284e+02   7.0469341055e+00   0.01367646   0.01043826 -77.16  0.001080101    1.437    0.304
       313  -9.4957    177.7583     38.2028   2.9000488460e+02   6.2689435257e+00  0.008953252  0.007473853 -25.79 0.0003899635    1.285    0.222
       314 -11.6726     82.6193     36.5580   2.9109540067e+02   6.8594904607e+00   0.01728486   0.01592685  53.28 0.0009108748    1.123    0.110
       315  -9.3658     19.4151     37.8318   2.9183550461e+02   7.2230000512e+00  0.009470727  0.005739796 -48.11 0.0005283316    1.638    0.390
       316 -10.1802     32.9445     60.2494   2.9181717200e+02   6.8843245290e+00   0.01653201   0.01029557 -16.58  0.001386664    2.271    0.560
       317 -10.6783    162.9542     47.7525   2.9023518515e+02   6.2483094380e+00   0.01094627  0.009458472 -63.94 0.0004224954    1.162    0.139
       318 -10.9751    110.8730     33.8345   2.9075144179e+02   6.7213117810e+00   0.02070669   0.01388955 -64.39  0.002157984    1.514    0.339
       319 -11.0939    102.2033     36.7695   2.9086996633e+02   6.7396085168e+00   0.01704466  0.009892944  33.43  0.001036865    1.688    0.408
       320 -10.9515    105.7572     34.2148   2.9081301249e+02   6.7476478022e+00   0.01427083   0.01203645 -53.74 0.0005234268    1.168    0.144
       321 -11.0623     24.5874     35.4785   2.9176102329e+02   7.2191700567e+00   0.01432143   0.01183124  43.57 0.0006735086    1.236    0.191
       322 -10.8052    150.4487     33.9138   2.9029404140e+02   6.4825838197e+00   0.01775826  0.009230524  52.58  0.001514106    2.427    0.588
       323 -11.1767    145.2422     31.6126   2.9034000074e+02   6.5403402851e+00   0.01244521   0.01129794  48.78  0.000270023    1.132    0.116
       324 -10.7035     76.1386     33.8509   2.9115370298e+02   6.9294539795e+00   0.01251866   0.00985255  14.13 0.0009034527    1.347    0.258
       325 -10.8121     81.7777     29.5448   2.9106175079e+02   6.9451604186e+00   0.02001965   0.01402245 -85.77    0.0017343    1.751    0.429
       326  -9.8285     78.4639     30.0100   2.9110300735e+02   6.9596744242e+00   0.01255947  0.006048915 -56.74 0.0003823764    1.982    0.495
       327 -10.1422     53.2624     34.1633   2.9142062318e+02   7.0628479733e+00   0.01475199  0.007897235   9.27  0.001223569    2.622    0.619
       328 -10.2931     31.8794     33.9038   2.9166678604e+02   7.1937088604e+00   0.01451125  0.008963451  15.94  0.001022507    1.828    0.453
       329 -11.1277      9.1318     33.8813   2.9193029827e+02   7.3298154137e+00   0.02331621   0.01032548  31.28  0.002010081    2.180    0.541
       330 -11.7002      6.0238     29.9983   2.9194234686e+02   7.3930116277e+00   0.02648483   0.01680211   2.59  0.001782756    2.061    0.515
       331 -11.0412      8.5052     26.0151   2.9188897780e+02   7.4240028863e+00   0.02377715   0.01448676 -20.58  0.001969242    2.310    0.567
       332 -10.7615     97.9916     31.6126   2.9088680213e+02   6.8241586971e+00   0.01203046  0.009761681 -61.93 0.0003430016    1.230    0.187
       333  -9.3344     90.2152     31.4173   2.9097563136e+02   6.8730478857e+00  0.008846693  0.006082646  38.47 0.0004324676    1.455    0.312
       334 -10.0733     63.6738     30.4329   2.9127693813e+02   7.0434133836e+00   0.01160303  0.007424815 -38.74 0.0006609456    1.695    0.410
       335 -10.3741     57.0447     29.2401   2.9134635759e+02   7.0968139936e+00   0.01233469  0.008333625 -37.95 0.0007398734    1.594    0.373
       336 -10.3241     50.0669     28.1894   2.9142070664e+02   7.1506516516e+00   0.01505244  0.007970637 -45.14  0.001036158    1.950    0.487
       337 -10.0291    124.2147     28.1412   2.9056177280e+02   6.7066237168e+00   0.01028106  0.008551824 -27.17 0.0008935878    1.284    0.221
       338 -10.2233    172.1790     26.9564   2.8999965401e+02   6.4317476586e+00  0.009911776  0.008692761  68.65 0.0004087963    1.240    0.194
       339 -11.3151    151.3876     26.6216   2.9023799042e+02   6.5607277975e+00   0.01906844   0.01065716  29.05  0.001350706    1.776    0.437
       340  -9.6010     90.7659     26.7826   2.9094056650e+02   6.9230192837e+00  0.009042305  0.007517495  58.90 0.0003734393    1.307    0.235
       341 -11.1465     70.5877     26.4259   2.9117205804e+02   7.0480682206e+00   0.02332065   0.01187648  16.68  0.001995781    2.390    0.582
       342 -10.4150    129.8584     25.4296   2.9047966625e+02   6.7038732083e+00   0.02078686   0.01360178  73.58  0.001968197    2.132    0.531
       343 -11.0028    113.2748     24.6245   2.9066660597e+02   6.8127455992e+00   0.01942003   0.01112605 -67.86  0.001157911    1.874    0.466
       344 -11.2178     60.7765     23.6533   2.9126856442e+02   7.1386984013e+00   0.02489696   0.01331248 -81.84  0.002019017    2.836    0.647
       345 -10.8129     99.8118     23.0627   2.9081279265e+02   6.9115082192e+00   0.01715132   0.01518414   0.13  0.002052736    1.190    0.160
       346 -10.1366     54.2369     23.3050   2.9134218022e+02   7.1818483974e+00   0.01141626  0.009590629 -24.78 0.0005820376    1.274    0.215
       347 -10.3426     17.6298     23.7871   2.9176943318e+02   7.3951500849e+00   0.01105925  0.008988907  24.06 0.0002784321    1.244    0.196
       348 -10.4179     84.0705     22.4842   2.9099149521e+02   7.0125731564e+00   0.01186709  0.009781126 -25.78 0.0005976989    1.308    0.235
       349  -9.9507     86.7008     18.9704   2.9093927873e+02   7.0371854982e+00   0.01171992  0.009568864 -47.51 0.0004880234    1.215    0.177
       350 -11.2120     66.7716     21.8024   2.9118765678e+02   7.1240725035e+00    0.0181018    0.0137897  23.91   0.00148152    1.333    0.250
       351  -9.4169    168.2161    250.6365   2.9142726366e+02   3.8822123086e+00  0.008862457  0.006319885  11.89 0.0003749904    1.563    0.360
       352 -10.2878    137.1359     20.0823   2.9036232467e+02   6.7215706281e+00   0.01113455  0.009396757  30.10 0.0003402731    1.185    0.156
       353 -11.4997     27.9730    246.0467   2.9301753240e+02   4.7742719360e+00   0.02295857   0.01256264 -64.99  0.001974608    1.884    0.469
       354  -9.7684     45.0487     20.5200   2.9143142726e+02   7.2688387572e+00   0.01001212    0.0064896  27.77 0.0005362727    1.545    0.353
       355 -10.1830    137.2644    247.0009   2.9176190559e+02   4.1096288777e+00  0.009596487  0.008456321 -54.45 0.0008136693    1.121    0.108
       356 -10.4442    159.9481     18.2809   2.9008728061e+02   6.6050369349e+00   0.01098544  0.009245362 -56.42 0.0004780934    1.173    0.148
       357 -10.2545     81.4490     18.5002   2.9099719561e+02   7.0740772464e+00   0.01517659   0.00723521 -56.11  0.001126875    1.997    0.499
       358 -10.8707      6.3819    245.2467   2.9326193228e+02   4.9122620840e+00   0.01345668   0.01125286 -81.21 0.0005459895    1.290    0.225
       359 -10.2298    188.4616     16.9607   2.8974946105e+02   6.4484742544e+00   0.00969007   0.00896421  23.64 0.0003645291    1.086    0.080
       360  -9.9675     57.1081     16.8723   2.9126911543e+02   7.2386025551e+00  0.009740405   0.00870565  61.08  0.001160807    1.189    0.159
       361  -9.9373      9.8037     16.7731   2.9181682402e+02   7.5225000399e+00  0.009605403  0.008717502 -32.74 0.0004311628    1.118    0.105
       362 -10.7366    130.9865     15.2475   2.9040351557e+02   6.8140833478e+00   0.01151686   0.01132688 -35.85 0.0007559868    1.006    0.006
       363 -11.7835      8.4906    241.6875   2.9321578766e+02   4.9406987055e+00   0.02169062   0.01617695  77.35  0.002305719    1.646    0.392
       364  -9.7338     76.1489     16.4756   2.9104605624e+02   7.1291132967e+00  0.009813116  0.006523866  26.35  0.001007042    1.518    0.341
       365 -10.3307     60.5378     15.2454   2.9121930654e+02   7.2367671077e+00   0.01302224  0.006748376 -69.47  0.001140332    2.183    0.542
       366 -11.4887    124.0916     21.5743   2.9052251516e+02   6.7828260419e+00   0.01296693   0.01137322  28.27 0.0003229122    1.143    0.125
       367 -10.0268    115.4441    244.6436   2.9199918522e+02   4.2674911929e+00   0.01219241  0.006655713 -67.55  0.001113207    1.968    0.492
       368 -11.2337    146.9881    244.0548   2.9163160627e+02   4.0852668385e+00   0.01386568  0.009347729  27.32 0.0009762805    1.489    0.329
       369  -9.9687    166.0165     14.4859   2.8999357309e+02   6.6120968591e+00    0.0101269  0.006514052  27.26  0.000764828    1.562    0.360
       370  -9.5407     71.3069     14.7090   2.9109121360e+02   7.1784297063e+00  0.006755528   0.00499773  61.84 0.0002716595    1.577    0.366
       371 -10.4508    109.7589    243.2391   2.9205616251e+02   4.3177090140e+00   0.01540492   0.01041178  64.77  0.001525946    1.872    0.466
       372  -9.1213      3.3248     12.3109   2.9186437737e+02   7.6124488838e+00  0.006992228  0.004941053 -26.20 0.0004319936    1.657    0.396
       373  -9.4433     90.2933     12.9847   2.9086060717e+02   7.0844248672e+00  0.008857002  0.008256315 -59.13 0.0003580441    1.068    0.064
       374 -10.2523     71.9056    243.8958   2.9249712469e+02   4.5366331471e+00   0.01066083  0.008806058 -28.33 0.0007619923    1.293    0.227
       375 -11.5393     34.3503    241.6808   2.9291713827e+02   4.7865094595e+00    0.0257296   0.01878097  20.50  0.002507064    1.424    0.298
       376 -10.7346     31.7171    237.2094   2.9292013278e+02   4.8537414545e+00   0.01727964   0.01170346  86.11  0.001315403    1.957    0.489
       377  -9.7620    108.0458     17.0346   2.9068012466e+02   6.9313591106e+00   0.01136359   0.00831133 -71.95  0.000454693    1.462    0.316
       378 -10.3757     29.0023    232.9681   2.9292548100e+02   4.9188089501e+00   0.03015266  0.009386484  32.38   0.00223279    2.945    0.660
       379 -11.7410    156.5004    241.0231   2.9150322141e+02   4.0631354075e+00   0.01411025   0.01194055  54.80   0.00112162    1.255    0.203
