#   1 NUMBER                 Running object number                                     
#   2 MAG_AUTO               Kron-like elliptical aperture magnitude                    [mag]
#   3 X_IMAGE                Object position along x                                    [pixel]
#   4 Y_IMAGE                Object position along y                                    [pixel]
#   5 X_WORLD                Barycenter position along world x axis                     [deg]
#   6 Y_WORLD                Barycenter position along world y axis                     [deg]
#   7 A_WORLD                Profile RMS along major axis (world units)                 [deg]
#   8 B_WORLD                Profile RMS along minor axis (world units)                 [deg]
#   9 THETA_WORLD            Position angle (CCW/world-x)                               [deg]
#  10 FWHM_WORLD             FWHM assuming a gaussian core                              [deg]
#  11 ELONGATION             A_IMAGE/B_IMAGE                                           
#  12 ELLIPTICITY            1 - B_IMAGE/A_IMAGE                                       
         1 -13.9748    169.1046     86.0803   5.9897509025e+01   3.0589506439e+01     3.709483     2.041492  39.08   0.01463032    2.200    0.545
         2 -14.8791    226.9099     89.0427   5.0751284252e+01   1.6929894278e+01     6.377408     1.596218 -50.83   0.01218745    8.219    0.878
         3 -15.0880    234.9971     38.2112   3.8307092864e+01   2.2850232805e+01     1.864394     1.245506  -5.31  0.009074148    2.890    0.654
         4 -16.5088    246.0709     64.7314   4.2915052334e+01   1.6827743295e+01     6.886059     5.494975 -19.44   0.01568875    1.593    0.372
         5 -15.1957    247.4077     36.8542   3.6891030294e+01   2.0452481561e+01      1.54611    0.7458472 -28.43  0.007388139    2.496    0.599
         6 -14.3996    220.1022     26.2660   3.7080407281e+01   2.7609815755e+01     6.928829     3.481138 -10.46   0.02214698    6.425    0.844
         7 -12.8261    167.0001     58.4474   5.2538314353e+01   3.5808265629e+01     3.007072     1.111617 -51.98  0.009248177    3.895    0.743
         8 -12.6311    119.7130      9.9496   4.6088418041e+01   5.3329128451e+01     1.056491    0.7653244 -81.71  0.003892248    1.708    0.415
         9 -10.6023    133.9641     29.4337   4.9937548463e+01   4.7903451556e+01    0.5928728    0.3498248 -27.19  0.002064082    1.873    0.466
        10 -12.9155    141.2905     17.6752   4.4772064809e+01   4.7411136857e+01     4.629067     1.083415 -19.48    0.0100477   10.812    0.908
        11 -12.8882    139.8751     42.0389   5.2842171185e+01   4.4864916991e+01     1.257411     0.864438 -22.71  0.006249659    1.659    0.397
        12 -11.7944    133.1429     38.8984   5.3237387963e+01   4.6918158032e+01    0.8749536    0.5211906 -28.37  0.002682788    1.834    0.455
        13 -13.0077    123.7984     29.4770   5.2078874985e+01   5.0335938790e+01     1.781526    0.5814021 -34.92  0.006651318    3.114    0.679
        14  -9.6977    232.0446      3.5427   3.1202548270e+01   2.7591112985e+01    0.2482674    0.1427401 -76.44  0.001448237    1.544    0.352
        15 -10.3933    235.9108      1.8255   3.0594360595e+01   2.6959243923e+01     0.252822    0.1375091  68.30 0.0008984602    1.813    0.449
        16 -12.6402    131.2448     20.3891   4.7458951017e+01   4.9568013962e+01     1.379189    0.7032995  33.07  0.005838664    2.562    0.610
        17  -9.7924    229.0137      5.4950   3.1819569833e+01   2.8029202565e+01      0.18505    0.1662813  64.56 0.0004097169    1.408    0.290
        18  -8.3240    218.5898      4.2886   3.2332330645e+01   3.0418154525e+01    0.1357273   0.07070147 -68.38 0.0002836998    1.818    0.450
        19 -10.0666    244.3935      3.1751   3.0320677361e+01   2.5070058881e+01    0.1890091    0.1273108  65.97 0.0007847911    1.642    0.391
        20  -7.9879    158.8816      2.1991   3.7569199134e+01   4.4569454218e+01    0.1596009    0.1351947  43.83 0.0005077531    1.305    0.234
        21  -7.6365     92.2953    247.2736   1.0952281902e+02   1.0599242366e+01    0.1084248   0.09418413   9.06 0.0002025226    1.524    0.344
        22  -8.6393    204.1677    243.1811   8.6463563863e+01  -5.5663233718e+00    0.1779021    0.1369569   7.12 0.0003130593    1.114    0.102
        23  -9.2176    202.8822    225.4679   8.3798922394e+01  -2.7355106343e+00    0.3495351     0.274821 -80.55  0.001843473    2.661    0.624
        24 -14.2650    247.8982     82.5715   4.6555821670e+01   1.3735347221e+01     1.063113    0.3881858 -42.20  0.002645507    2.236    0.553
        25 -10.3137    223.0984    219.6443   7.8933252255e+01  -4.8474458404e+00    0.2150943    0.1835687  -6.30 0.0003344855    1.115    0.103
        26  -8.2124     46.5037    176.9379   1.1215542963e+02   3.2119239153e+01    0.1873849    0.1189972 -72.44  0.000377458    1.423    0.297
        27  -8.5993    103.1765    175.7752   9.7558039343e+01   2.4229590734e+01    0.2522187    0.1901832 -80.49  0.001180792    1.474    0.321
        28  -9.9008    185.1155    169.0359   7.6717404950e+01   1.0385693087e+01    0.2865349    0.2026132 -71.65  0.001243982    2.269    0.559
        29 -11.1360      2.2858    164.6744   1.2181088809e+02   3.9298632392e+01    0.7364121    0.1738427 -74.48   0.00278709    3.232    0.691
        30  -8.5965    214.8672    167.9315   7.0500480509e+01   5.0935537899e+00    0.2959487    0.1976649  66.96  0.001288128    2.703    0.630
        31 -10.0952    203.0768    167.6563   7.2730014496e+01   7.2793405374e+00    0.2784268    0.2321966 -32.15 0.0006716846    1.131    0.116
        32 -10.7157    199.4736    164.3990   7.2758788306e+01   8.5693219028e+00    0.3961729    0.2582595  53.22  0.001480789    1.863    0.463
        33  -9.4234    203.6702    160.7240   7.1133855892e+01   8.4817613581e+00    0.2922343    0.2311169  51.50  0.001373313    1.461    0.315
        34  -9.6582    181.4968    159.2913   7.5400797666e+01   1.3055270413e+01    0.4206233    0.2893709  81.43  0.001436472    2.833    0.647
        35 -12.9030     15.6043    153.4809   1.1749628959e+02   4.0970953967e+01    0.8902267    0.7121021 -84.18  0.003838863    1.021    0.020
        36  -9.3043    148.9237    156.8338   8.2329364698e+01   2.0118871226e+01    0.3282757    0.2578605  78.58 0.0009052037    1.677    0.404
        37  -9.9939    197.9711    153.8278   7.0763343605e+01   1.0903865794e+01    0.3857969    0.2566612  14.79  0.001412444    2.056    0.514
        38 -10.7726    191.9722    152.1508   7.1611543674e+01   1.2416647243e+01     0.622972      0.31589 -58.35  0.002149951    3.163    0.684
        39  -9.5053    204.9089    153.5935   6.9338577745e+01   9.6062024929e+00    0.4633195    0.2806656 -61.66  0.001867129    2.575    0.612
        40  -8.7331    211.1875    150.7306   6.7504851450e+01   8.9494195404e+00    0.2781221     0.223207 -65.33  0.001437477    1.588    0.370
        41 -10.0419    133.8820    146.0682   8.3703311647e+01   2.5615666621e+01     1.006069    0.2882318 -55.53  0.002421224    5.212    0.808
        42  -9.4406    131.9872    137.0331   8.2113264987e+01   2.8113173207e+01    0.4887565    0.2428131 -59.11  0.001337615    2.504    0.601
        43 -13.5775    249.5796     43.5291   3.8081799351e+01   1.9128316553e+01    0.3826795    0.2721587 -36.15 0.0009429342    1.422    0.297
        44 -11.5746     44.0610    143.4877   1.0842056233e+02   4.0748359851e+01    0.4414857    0.4235779  16.76 0.0009626613    1.234    0.189
        45 -13.3749     52.8274    140.1390   1.0534236248e+02   4.0582633359e+01     2.828972     1.772621  13.02  0.009838229    2.183    0.542
        46  -9.3608    192.5440    143.8053   6.9607482467e+01   1.3966323626e+01    0.2933242    0.2310716  25.46  0.001078533    1.397    0.284
        47  -9.7628    145.0214    140.0313   7.9489266644e+01   2.4722132101e+01     0.528118    0.2630551 -66.07  0.001470881    4.334    0.769
        48  -9.6442    215.1444    139.1039   6.4186538736e+01   1.0365857454e+01    0.3169659    0.2724881  78.55  0.001725464    1.490    0.329
        49 -10.3404    211.0307    136.8415   6.4427409610e+01   1.1597816037e+01     0.403688     0.320854  62.56  0.001868016    1.527    0.345
        50 -10.7110    188.3304    137.5337   6.9019836895e+01   1.6095587787e+01    0.4694657    0.3538624 -50.55  0.002281056    1.350    0.259
        51  -9.4086    178.6419    117.8600   6.6270927012e+01   2.2182454555e+01    0.3744836    0.2425011 -49.43 0.0005118018    1.549    0.354
        52 -10.8896    173.3559    113.2957   6.6237532675e+01   2.4296377653e+01    0.7929025    0.4472304  38.27  0.003162233    2.037    0.509
        53 -12.3564    185.2416    123.5188   6.6301013902e+01   1.9583936024e+01    0.9996763    0.8954706 -61.32  0.005266658    1.166    0.142
        54 -10.7770    188.2130    131.8799   6.7708862144e+01   1.7260811037e+01    0.5009487    0.2640783  38.81  0.001996856    2.124    0.529
        55  -9.1593    158.1294    139.6494   7.6213833158e+01   2.2044379552e+01    0.2661196    0.2123445 -57.81 0.0006913802    1.336    0.251
        56 -12.5913     59.7499    138.6243   1.0303829066e+02   4.0099255650e+01     1.020568    0.7897597  83.45  0.003726615    1.397    0.284
        57 -11.0642    180.8930    135.2151   7.0033588631e+01   1.8137830226e+01    0.4469848    0.3886424  32.56  0.002309534    1.204    0.170
        58 -10.5889    203.5132    129.8840   6.4226292724e+01   1.4445749778e+01    0.8012072    0.4739966  -8.97  0.002718404    3.593    0.722
        59 -10.3533    197.1295    127.7642   6.4949800659e+01   1.6189561362e+01    0.5584962    0.2948208 -55.07  0.001886005    2.345    0.574
        60 -10.2995    224.2605    130.3420   6.0619273622e+01   1.0210037924e+01    0.4764386    0.3615686  47.07  0.002560984    1.476    0.322
        61 -10.2022    175.7711    130.9748   7.0120001112e+01   2.0115938177e+01     0.417989    0.1921952 -50.56  0.001488523    2.375    0.579
        62 -10.7692    160.3940    128.8539   7.3071039345e+01   2.3914886032e+01    0.4812457    0.4285084 -29.79  0.001790907    1.134    0.118
        63  -9.9534    217.9348    128.3979   6.1266163346e+01   1.1803627075e+01    0.3408965    0.2495946  55.76  0.001489515    1.575    0.365
        64  -7.6639     94.3187    128.3057   9.0605123881e+01   3.7434934532e+01    0.1554889    0.1195602 -19.47  0.000702941    1.632    0.387
        65  -9.0238    154.0099    125.0788   7.3644134085e+01   2.6135405837e+01    0.2987776    0.2251144 -68.87  0.001324226    1.629    0.386
        66  -9.0364    151.3738    120.5422   7.3130197176e+01   2.7708003866e+01     0.426699    0.1414797 -50.90  0.001196026    3.611    0.723
        67  -8.5829     94.8820    124.8123   8.9628909823e+01   3.8195795434e+01    0.2282486    0.2073279 -22.63 0.0005428304    1.180    0.152
        68  -8.7253    218.3367    123.1354   5.9992111887e+01   1.2690922483e+01    0.2659415    0.2130914   3.44 0.0007119834    1.545    0.353
        69  -9.0028    191.1535    220.1258   8.5210236161e+01  -5.5183780059e-02    0.2118448    0.1735892  35.80 0.0002608951    1.243    0.196
        70  -8.4870    205.9148    123.0719   6.2179690068e+01   1.5249116133e+01    0.2277296    0.1923101 -58.56  0.001149451    1.241    0.194
        71  -9.9235    165.4856    120.6618   6.9850302558e+01   2.4541394540e+01    0.4400706    0.2681426 -68.24  0.001393012    2.671    0.626
        72  -9.6960    164.9774    116.0384   6.8785868338e+01   2.5625464304e+01    0.3456843    0.2606683 -18.88  0.001556637    1.604    0.376
        73  -8.9643    144.5313    122.4848   7.5315505838e+01   2.8784381205e+01    0.1574662    0.1544524 -48.66 -4.685182e-06    1.009    0.008
        74  -9.1330    191.1769    118.6480   6.3915828113e+01   1.9255556650e+01    0.3963744    0.2402236 -63.18  0.001557241    2.323    0.570
        75  -9.7189    187.3632    113.1407   6.3307206850e+01   2.1177755068e+01    0.4439341     0.242327 -60.19  0.001194894    2.617    0.618
        76  -9.3590    143.7950    145.9553   8.1166977742e+01   2.3625743176e+01    0.3034286    0.2253297 -68.66  0.001350879    1.633    0.388
        77 -10.3563    193.0029    133.7476   6.7179548762e+01   1.5876685135e+01    0.3355065    0.2922555 -60.72 0.0009716022    1.242    0.195
        78  -8.5173     78.9504    107.1374   9.0297436585e+01   4.5181530834e+01    0.2083355    0.1942899 -86.72 -0.0009232552    1.172    0.147
        79  -8.9620    147.0023    106.0143   7.0364635392e+01   3.1813613068e+01    0.2406612     0.232698   0.56 0.0005680324    1.075    0.070
        80  -8.6867     86.1405    100.7149   8.6276703783e+01   4.5499512478e+01     0.263556    0.1925977 -58.72 0.0006323046    1.419    0.295
        81  -9.1565    196.2214     97.4798   5.7703455072e+01   2.2160161228e+01    0.2887288    0.1962376 -39.19 0.0006684723    1.394    0.283
        82  -9.0317    192.4319    215.8709   8.4214873443e+01   4.4992103041e-01    0.2042779    0.1685565  32.81 0.0004661204    1.201    0.168
        83 -10.0972     96.3714     88.1292   7.9391580486e+01   4.6455457332e+01     0.248667    0.2319689  25.36 0.0002946388    1.087    0.080
        84 -10.3324    157.4177     81.8779   6.1187886983e+01   3.4161726987e+01    0.4383685    0.3350198 -46.12  0.001275798    1.305    0.234
        85 -10.4799    197.4005    177.1703   7.5850292436e+01   6.5243230709e+00    0.4406296    0.3157961  84.87  0.001788711    2.983    0.665
        86  -9.9815    154.6501     71.8285   5.8875477140e+01   3.6628188755e+01    0.4118383    0.2840513 -53.37  0.000964211    1.561    0.359
        87 -11.9040    161.4060     64.3816   5.5311553713e+01   3.6235958247e+01     1.462575    0.5122333  55.88  0.005051034    2.731    0.634
        88  -8.9746    193.1497    210.9433   8.3197548135e+01   1.1685487329e+00    0.1844019    0.1747341  16.54 0.0003132702    1.194    0.162
        89  -8.3163    219.9888    207.9965   7.7412074358e+01  -2.5910262769e+00    0.1574412    0.1314736   1.30 0.0003217397    1.017    0.017
        90 -12.2311    153.2142     47.3317   5.1843243895e+01   4.0857122267e+01     1.053195    0.8205287  63.88  0.004245762    1.218    0.179
        91 -10.0986    160.2226    205.4200   8.9174724518e+01   7.7516101681e+00     0.231221    0.2235405  -4.81 0.0002995452    1.090    0.082
        92  -8.0295    112.4562    202.4434   9.9563020464e+01   1.6572302824e+01    0.1387252    0.1292651  48.59 0.0002084469    1.040    0.038
        93 -10.6750    237.6513    197.3016   7.2181408138e+01  -3.5627456797e+00     0.358859    0.2540798  51.93  0.001988602    2.096    0.523
        94  -9.6029    204.5558    200.2820   7.8952779624e+01   1.1261087988e+00    0.2493493    0.1574789  14.80  0.001215255    1.810    0.448
        95 -10.1810    181.9372     63.0280   5.1193875045e+01   3.1447933623e+01     0.684816    0.2167063 -37.16  0.002052953    2.999    0.667
        96  -9.9348    143.6734     65.5715   5.9413522525e+01   4.0352836730e+01    0.3558497     0.234544  -4.02 0.0008403151    2.445    0.591
        97  -9.7037    131.2957     65.3466   6.2273649457e+01   4.3338424463e+01    0.2700019    0.2348328  20.40  0.001414086    1.242    0.195
        98  -9.1723    187.2652     59.5700   4.9399034644e+01   3.0701934983e+01     0.294347    0.2467529   8.20  0.001104521    1.587    0.370
        99  -9.6873    153.0068     58.4003   5.5227497938e+01   3.9250563582e+01    0.2705554     0.213034  -8.35 0.0006224277    1.582    0.368
       100  -9.9254    187.7506     43.8887   4.5176118683e+01   3.2865100160e+01     0.521422    0.2394022 -41.38  0.002255451    2.077    0.519
       101  -8.5328    199.7539     37.4591   4.1944784556e+01   3.0863097235e+01    0.1882396    0.1635281 -57.35  0.001138185    1.107    0.097
       102  -8.9761    199.8691     32.8713   4.0789915782e+01   3.1425533050e+01    0.2845957    0.1920789 -21.23 0.0008634388    1.872    0.466
       103 -10.9157    195.7268     34.3817   4.1666870084e+01   3.2212582686e+01    0.4623836    0.2995591 -14.13   0.00132667    2.229    0.551
       104  -9.1921    197.2846     29.3347   4.0212887700e+01   3.2474595692e+01    0.2196294    0.1634607 -34.89 0.0007763196    1.431    0.301
       105  -8.0455     91.6369     38.1708   6.3715339727e+01   5.6413445422e+01    0.1804777    0.1251123 -15.89 0.0002361266    1.570    0.363
       106  -9.8002    164.2015     40.2347   4.7777351096e+01   3.9120362617e+01    0.3407869    0.2279605  -0.38  0.001544094    2.326    0.570
       107  -8.1073    189.9880     36.1929   4.2859081284e+01   3.3350351352e+01    0.1837026    0.1629822 -79.69  0.001105313    1.013    0.013
       108  -9.2750    157.8690     36.1448   4.7640629430e+01   4.1216666988e+01    0.2055625    0.1768399 -83.10  0.000306167    1.165    0.142
       109  -7.7671    171.2312     35.0209   4.5176375130e+01   3.8063749786e+01    0.2938795    0.1265238 -47.99  0.001177828    2.493    0.599
       110  -8.1039    170.5616     31.2326   4.4212784146e+01   3.8699163255e+01     0.175056     0.136193  -9.31  0.000940449    1.656    0.396
       111 -10.4810    116.5940     34.2393   5.5410433034e+01   5.1441626783e+01    0.2779313    0.2200897  47.33  0.000893997    1.150    0.131
       112  -9.6789    112.9173     29.4937   5.4596453477e+01   5.2877347201e+01    0.2063006    0.1830595 -14.70 0.0007013531    1.207    0.172
       113  -7.9378    182.6419     26.8534   4.1361620267e+01   3.6277224372e+01    0.1835384    0.1088618 -46.72 0.0004804173    1.665    0.399
       114  -8.9197    202.0829     25.5380   3.8739118450e+01   3.1807398821e+01    0.1838736    0.1589575 -69.06 0.0005647703    1.060    0.056
       115 -10.7305    204.3112    174.7636   7.3967340142e+01   5.7274245560e+00    0.4414555    0.3449599 -89.74  0.002134091    2.229    0.551
       116  -9.5151    112.6846     24.4511   5.2815083491e+01   5.3515844085e+01     0.226427    0.1257309 -24.48  0.001075589    1.996    0.499
       117  -9.0774    199.1286     22.1897   3.8240683754e+01   3.2891778891e+01    0.2162564    0.1980623  -4.79 0.0005036449    1.436    0.304
       118  -9.5772    203.1082     18.1445   3.6850124468e+01   3.2425933268e+01    0.2602545    0.2530811   4.41  0.001159909    1.352    0.260
       119  -8.9103    161.2339     23.1654   4.3285992082e+01   4.1934188057e+01    0.2320762    0.1592377  58.69 0.0007389906    1.339    0.253
       120  -9.1968    250.4494     15.3248   3.2307338119e+01   2.2493402458e+01    0.1342567    0.1261673  70.19   0.00045805    1.444    0.308
       121  -7.6194    200.5683     13.1557   3.5906689524e+01   3.3563219098e+01    0.1473947    0.1249106 -14.86 0.0006585683    1.550    0.355
       122  -8.7440     89.6543     11.3157   5.3514435622e+01   5.9988260160e+01    0.1217647   0.09990662 -75.48 0.0007047979    1.719    0.418
       123 -10.7849    192.6592    194.5048   8.0255022248e+01   4.1525208102e+00    0.9698468    0.4867679 -61.64  0.002850451    5.832    0.829
       124 -10.0536    228.4486    193.5035   7.3109325303e+01  -1.5662876681e+00    0.4002828    0.2050067  49.96  0.001765181    2.837    0.648
       125  -9.2138     44.7767    192.3360   1.1423414457e+02   2.8642136723e+01    0.2113538    0.1775038 -73.23  0.000312308    1.194    0.162
       126 -11.6892    215.6703    183.7725   7.3585570567e+01   2.1357263135e+00    0.6838941    0.5201528  53.37 0.0008469615    1.722    0.419
       127  -8.9826    182.2548    190.8283   8.1723810930e+01   6.6638913129e+00    0.2289277    0.2125355  -1.03 0.0005209538    1.033    0.032
       128 -11.1520    208.0697    184.5285   7.5205687488e+01   3.2935129957e+00    0.7146301    0.4465499 -66.28  0.002764566    3.585    0.721
       129  -9.7172    236.5172    183.5621   6.9723663699e+01  -1.2028652219e+00     0.242883    0.1113269 -46.68  0.001038095    2.527    0.604
