#   1 NUMBER                 Running object number                                     
#   2 MAG_AUTO               Kron-like elliptical aperture magnitude                    [mag]
#   3 X_IMAGE                Object position along x                                    [pixel]
#   4 Y_IMAGE                Object position along y                                    [pixel]
#   5 X_WORLD                Barycenter position along world x axis                     [deg]
#   6 Y_WORLD                Barycenter position along world y axis                     [deg]
#   7 A_WORLD                Profile RMS along major axis (world units)                 [deg]
#   8 B_WORLD                Profile RMS along minor axis (world units)                 [deg]
#   9 THETA_WORLD            Position angle (CCW/world-x)                               [deg]
#  10 FWHM_WORLD             FWHM assuming a gaussian core                              [deg]
#  11 ELONGATION             A_IMAGE/B_IMAGE                                           
#  12 ELLIPTICITY            1 - B_IMAGE/A_IMAGE                                       
         1 -12.2250     17.9365     24.2652   1.0310585637e+02   6.7745804235e+01    0.4092876    0.2757502 -45.59  0.002548825    1.906    0.475
         2 -11.0664    131.9008     22.8660   6.7646199476e+01   4.8265578962e+01    0.3255411     0.307662 -57.08  0.001443691    1.205    0.170
         3 -11.8649      6.9723     18.6960   1.0598284432e+02   6.9506889347e+01    0.3498529    0.1714934 -29.93 0.0006069718    1.700    0.412
         4 -11.2391     34.4281     19.4570   9.4115956378e+01   6.6488801297e+01    0.3443571    0.2741987 -68.28  0.001745612    3.283    0.695
         5 -10.9976    182.2811     18.8912   5.9099972163e+01   3.7365851489e+01    0.2198658    0.2106462  27.39 0.0008278101    1.397    0.284
         6 -12.1753     80.2053     15.6665   7.7045060114e+01   5.9616170414e+01    0.3084019    0.2768092 -18.66  0.001397874    1.304    0.233
         7 -10.6187     43.3467     16.3015   8.9323699774e+01   6.5645340226e+01    0.2779692    0.2285157  72.93  0.001745486    2.634    0.620
         8 -10.9473    115.6518     15.7053   6.8661752160e+01   5.2493739446e+01    0.4216309    0.1773988  44.37  0.001984142    2.182    0.542
         9 -12.2541     26.1386     13.2885   9.5039212716e+01   6.8226194532e+01    0.3623233    0.2248564  23.14  0.001915936    1.384    0.278
        10 -10.1016     67.0959     11.8334   7.9434420001e+01   6.2330269094e+01    0.1617697    0.1493206  23.11 0.0005326697    1.250    0.200
        11 -11.8570     45.3211      8.4375   8.5362495315e+01   6.6161243971e+01    0.3013764    0.2146766  44.16  0.002075384    1.549    0.354
        12 -11.7138     38.5523      3.6219   8.5858351790e+01   6.7596174502e+01    0.3122863     0.240875 -39.88  0.002228993    1.985    0.496
        13  -9.8989      7.9930     10.9972   1.0234455780e+02   7.0409678795e+01     0.134623    0.1143869  15.69 0.0004575695    1.558    0.358
        14 -12.3282    209.6002      5.4624   5.3449421268e+01   3.2850249734e+01     0.409629     0.228693 -70.64 0.0005813688    1.678    0.404
        15 -10.2699    128.0838      8.3577   6.4177895863e+01   5.0463394401e+01    0.1806032    0.1527099  37.95 0.0003251494    1.229    0.186
        16 -10.5401     74.2232      8.5592   7.6119466048e+01   6.1353991108e+01     0.186163    0.1515242  -3.72 0.0003572433    1.287    0.223
        17 -10.3950     87.4443      7.2367   7.2172448418e+01   5.8979066613e+01    0.1875923    0.1128143 -11.61 0.0008222267    1.959    0.490
        18  -9.9975    159.7194      7.6125   5.9258028916e+01   4.3534195867e+01    0.1761264   0.09849004  78.66 0.0009525302    1.641    0.390
        19  -9.8914     62.5032      6.9937   7.8982879931e+01   6.3549814400e+01    0.2018618    0.1461558 -87.88  0.001047778    3.539    0.717
        20 -10.4676     24.7525      6.9227   9.2907492770e+01   6.9089933439e+01    0.1661062    0.1314921 -26.51  0.001002365    1.558    0.358
        21  -9.4075     19.6910      7.2606   9.5282758856e+01   6.9645174663e+01   0.08866392   0.07694119  17.09 0.0002736601    1.527    0.345
        22 -11.4032    194.3647      3.7627   5.4504811063e+01   3.6271821935e+01    0.2431809    0.1523799  63.42 0.0005993354    1.477    0.323
        23  -9.7681    111.7873      4.9800   6.6131353817e+01   5.4227479936e+01    0.1327155   0.09701151 -17.84 0.0003479033    1.644    0.392
        24 -10.8458     13.7706      4.5922   9.6814415259e+01   7.0583073058e+01    0.2132244    0.1774048  47.96  0.001361731    2.406    0.584
        25  -9.1947      7.4888      5.4982   1.0021333116e+02   7.1111610766e+01    0.1081248   0.07348391  -4.15 3.935873e-05    1.082    0.076
        26 -11.5123    161.4564      3.0767   5.7936380833e+01   4.3554393726e+01    0.3612751    0.2091624  82.96  0.001901127    1.605    0.377
        27  -9.8376     30.7326      3.9569   8.9094641498e+01   6.8634901505e+01    0.1493587    0.1119853  -0.35 0.0004182422    1.126    0.112
        28 -10.5889    217.9003      2.6831   5.2217142384e+01   3.1407413946e+01    0.1713701    0.1527945 -61.53  0.001246625    1.349    0.259
        29 -10.9651     73.9261      2.0051   7.3770489296e+01   6.1937171554e+01    0.2524578    0.1624899  47.96  0.001406994    1.284    0.221
        30 -11.2205    181.5313      2.0156   5.5416852914e+01   3.9227043093e+01    0.3175648    0.1309063  65.83  0.001348806    1.950    0.487
        31 -10.7428     50.1708      2.0541   8.1005636077e+01   6.5989159997e+01    0.1810007      0.12569  32.56 0.0003287564    1.149    0.130
        32 -10.4283    199.2775      1.4061   5.3561301913e+01   3.5447596577e+01    0.2136443   0.08784941  69.12 0.0009205491    1.985    0.496
        33  -9.9680     90.5082      1.3356   6.9411226701e+01   5.8837451857e+01    0.1858345   0.08924124  56.60 0.0002064457    1.710    0.415
        34  -9.5209      2.5463      1.4935   1.0087144438e+02   7.2025321169e+01    0.1031574   0.07297103  -4.52 0.0008085884    1.034    0.033
        35 -10.2549    173.1248    233.2054   1.0850831681e+02  -9.0470741027e-01    0.2100408    0.1742943   2.24 0.0006290635    1.247    0.198
        36 -11.8517    209.8093    247.2399   1.0343563111e+02  -9.0140348040e+00    0.3295788    0.2771015   2.44 0.0004571426    1.009    0.009
        37 -11.3577    186.9807    247.8873   1.0807783812e+02  -5.7313992700e+00    0.3953906    0.2384983 -34.71  0.001480509    1.760    0.432
        38  -9.8539    158.5216    250.7135   1.1436982285e+02  -1.7583117889e+00    0.2218603      0.10549  37.49 0.0005163549    1.874    0.466
        39 -11.2088    130.4543    246.5195   1.1965561948e+02   3.5681627144e+00    0.2989299    0.2205031 -38.20  0.001191676    1.616    0.381
        40 -11.1152    129.6619    242.1078   1.1919819157e+02   4.5684261261e+00    0.2858856    0.2019524 -68.12   0.00152077    1.667    0.400
        41 -10.4602    111.3391    247.1088   1.2377817461e+02   6.5247936764e+00    0.3971051    0.1524435 -51.51  0.001632913    2.876    0.652
        42 -11.8241    111.7784    243.2205   1.2317651579e+02   7.2441434955e+00    0.6068624    0.1968006  33.42   0.00170234    3.421    0.708
        43 -10.8853    121.3101    247.9046   1.2178048418e+02   4.7735608213e+00    0.2805895    0.2501515  28.63  0.001731558    1.171    0.146
        44 -11.0805    115.0254    249.9268   1.2336862847e+02   5.3775768784e+00    0.3675522     0.265271  21.37   0.00176465    1.662    0.398
        45 -10.5337    117.8269    246.4066   1.2231569112e+02   5.6303599557e+00    0.2415391    0.1869248 -63.33 0.0001657909    1.418    0.295
        46  -9.1649     71.9470    251.0000   1.3234105546e+02   1.1682583958e+01    0.1768931   0.06472758  37.64            0    2.524    0.604
        47 -12.4827     46.5078    246.9491   1.3696731083e+02   1.5972963848e+01    0.3187338    0.2200514 -82.65 0.0006888373    1.330    0.248
        48 -11.9791     19.9696    217.2584   1.3968907799e+02   2.5642994371e+01    0.2495903    0.2208624 -70.41 0.0006460904    1.318    0.241
        49 -11.5810     19.9769    222.2300   1.4009700876e+02   2.4516972316e+01    0.3549656    0.2648437  25.06  0.001767582    1.812    0.448
        50 -13.4800     28.5515    217.9469   1.3799216673e+02   2.4546168326e+01     0.912353    0.4598125 -51.59  0.002524895    2.395    0.582
        51 -12.4144     30.3108    230.8673   1.3876021138e+02   2.1433930600e+01     0.717961    0.2328335  46.96 0.0004454412    2.669    0.625
        52 -12.0747      6.8654    223.1161   1.4272480859e+02   2.5667017579e+01    0.6216269    0.2576915 -70.87  0.001452742    2.008    0.502
        53 -12.4490     38.4114    219.9540   1.3612723581e+02   2.2935766998e+01    0.7273592    0.2695032 -63.38  0.002578989    2.408    0.585
        54 -12.6882     39.5345    229.6098   1.3680264985e+02   2.0612726250e+01    0.3053313    0.2392387 -78.82  0.001948037    1.194    0.162
        55 -12.0022     46.0267    229.9674   1.3551147911e+02   1.9723034953e+01    0.6012502    0.2970868 -82.96 0.0009162941    2.092    0.522
        56 -13.0874      3.2426    233.5198   1.4410335661e+02   2.3759578078e+01    0.8019584    0.3202003 -88.07  0.002649767    2.316    0.568
        57 -13.2688     11.7786    231.7254   1.4240180799e+02   2.3283186885e+01    0.5631047    0.3485356  54.14 0.0007873257    1.440    0.306
        58 -13.5615      8.0552    213.6972   1.4179879259e+02   2.7660287222e+01    0.6186832    0.4034365  32.67  0.002493434    1.831    0.454
        59 -13.6972     14.6433    247.6864   1.4296307177e+02   1.9591526596e+01    0.7050632    0.5804272  37.75    0.0050814    1.552    0.356
        60 -14.1197     35.4826    243.2949   1.3878179413e+02   1.8121567464e+01    0.8992823     0.610714  86.65  0.003590172    1.266    0.210
        61 -13.5484      4.6832    244.9965   1.4455974958e+02   2.1198003782e+01    0.8166484    0.5603842 -44.59  0.004050356    2.386    0.581
        62 -13.2500     23.7636    245.9672   1.4118815912e+02   1.8934478183e+01     0.663048    0.3716614 -89.91  0.002187329    1.579    0.367
        63 -12.9518     21.7704    238.0907   1.4098181083e+02   2.0831405365e+01    0.4119351    0.2819422  38.81   0.00107862    1.601    0.375
        64 -11.5747    143.7040    232.2953   1.1468094714e+02   4.2015717904e+00    0.4113173    0.2250649  39.17  0.001028192    1.687    0.407
        65 -11.7588     92.3386    243.0345   1.2727199806e+02   1.0329771563e+01     0.452707    0.3592595  36.00  0.001616226    1.304    0.233
        66  -9.8899    152.5218    231.4887   1.1263363294e+02   2.8725267376e+00    0.2410448     0.136341 -64.49 0.0008515227    2.481    0.597
        67 -10.3581     80.8086    231.3105   1.2831735063e+02   1.4605728761e+01    0.2461431    0.1706643  73.24 0.0005650731    1.475    0.322
        68 -10.5283     74.7690    231.0108   1.2958116637e+02   1.5563360173e+01    0.2386517    0.1754067 -65.04  0.000680831    1.382    0.276
        69 -11.7721     72.9598    226.3532   1.2942484746e+02   1.6871694766e+01     0.422556    0.2151417  58.81  0.001212697    2.104    0.525
        70 -10.8061     57.9629    230.0199   1.3303872748e+02   1.8146729341e+01    0.4304757    0.2032959  60.97  0.001497749    2.314    0.568
        71  -9.1461    248.5003    230.5133   9.3313074519e+01  -1.1650961599e+01    0.1238982   0.09864454 -12.50 0.0008105207    1.011    0.011
        72 -10.8189    242.8331    229.2877   9.4104802231e+01  -1.0721153857e+01    0.2888846    0.2136021 -50.64  0.001734017    1.765    0.433
        73 -12.2294    107.3349    228.0307   1.2206931746e+02   1.1179958684e+01    0.2886644    0.2592774  61.37 0.0003374395    1.015    0.015
        74 -10.6829    111.4626    227.5112   1.2107735243e+02   1.0617545396e+01     0.227108    0.1993224 -89.73 0.0001641191    1.160    0.138
        75 -10.1762     96.8394    230.1414   1.2467695755e+02   1.2400499602e+01    0.2110388     0.166751  71.22 0.0005171148    1.244    0.196
        76 -10.0844    202.9399    228.0385   1.0146882193e+02  -4.7524200502e+00    0.2222478    0.1655017 -53.76 0.0009212575    1.648    0.393
        77 -10.8641    173.9963    228.1474   1.0746239287e+02  -8.9918235028e-02    0.3117993    0.2025426  36.95 0.0008304504    1.462    0.316
        78  -9.5382    157.9193    229.0000   1.1105476321e+02   2.4527851740e+00    0.2331508   0.07451735  37.90 0.0003221347    2.938    0.660
        79  -9.5841    125.8528    228.1793   1.1797452982e+02   8.0740920419e+00    0.1807896    0.1606795   2.46 0.0004236531    1.323    0.244
        80  -9.3295    248.9562    227.0000   9.2606434137e+01  -1.1162608017e+01    0.1739926   0.06623685  34.83 0.0005921324    2.787    0.641
        81 -10.9150     78.8921    223.4908   1.2777654597e+02   1.6649569254e+01    0.3076838    0.1840519 -67.91 0.0009890693    1.661    0.398
        82 -11.1801    176.9318    222.7119   1.0589074945e+02   4.6512199005e-01     0.347232     0.257462  69.13  0.001353621    2.017    0.504
        83 -11.7507    121.4655    221.9745   1.1800756285e+02   1.0156782688e+01    0.3527604    0.2895278  14.01 0.0003359613    1.462    0.316
        84 -12.3433     13.5360    222.3187   1.4137495387e+02   2.5173666213e+01    0.6202489    0.2595499 -80.61  0.001152241    2.112    0.527
        85  -9.8653     53.9321    222.5316   1.3310056455e+02   2.0383059500e+01    0.2506768    0.1380624 -37.96  0.001034852    3.363    0.703
        86 -10.1869    187.9509    222.0619   1.0345836080e+02  -1.2517284892e+00    0.2049959    0.1849178  -7.01 0.0003777133    1.041    0.039
        87 -10.6988    159.0630    221.9664   1.0961652607e+02   3.6705629957e+00    0.2663042    0.2129067  62.20  0.001231869    1.474    0.322
        88  -9.7391    241.8515    221.1702   9.2818722871e+01  -9.2853569335e+00    0.1734228    0.1249991 -12.62 0.0002380805    1.296    0.229
        89 -11.3877    135.2343    218.5943   1.1435534327e+02   8.5261120048e+00    0.3188375    0.2618438 -45.11  0.000953144    1.292    0.226
        90 -10.0372     63.3689    220.3949   1.3082004896e+02   1.9596638599e+01    0.3106124    0.1596903  67.25  0.001095179    2.367    0.577
        91 -11.5720     47.0880    217.9798   1.3408731709e+02   2.2319001983e+01    0.3886112    0.2787317  88.48  0.001620035    1.249    0.199
        92  -9.7075    190.2037    218.1573   1.0228363631e+02  -8.8435755429e-01    0.1714194    0.1635553  70.80 0.0002313992    1.292    0.226
        93 -10.8126    173.2242    216.5989   1.0559324703e+02   2.3040905833e+00    0.4043113    0.2752674 -71.91  0.001693996    2.290    0.563
        94 -10.6545     88.3406    217.6908   1.2490246033e+02   1.6541680693e+01    0.3051565     0.200202  75.98 0.0009291379    1.776    0.437
        95 -11.8510     84.6919    213.8704   1.2521342287e+02   1.7995052823e+01    0.5903234     0.459537 -15.91  0.003011093    1.963    0.491
        96 -10.0557    228.0459    217.0140   9.4589533115e+01  -6.6311241802e+00    0.1785626    0.1624189 -73.09 0.0003607839    1.598    0.374
        97 -10.1986    217.8039    217.3319   9.6596667001e+01  -5.1501372618e+00    0.1844815    0.1550649 -31.54  0.001113722    1.150    0.131
        98 -10.7930    117.6824    212.6783   1.1741293390e+02   1.2879669073e+01    0.2708845    0.2134704  22.46  0.001392589    1.458    0.314
        99 -10.4582    101.2767    217.1648   1.2187851493e+02   1.4601125484e+01    0.2156817    0.1743859 -44.74 0.0006245571    1.408    0.290
       100 -10.4846     72.5747    216.8308   1.2835028021e+02   1.9116107543e+01    0.2378579    0.2127579 -11.93 0.0007797873    1.537    0.349
       101  -9.8534    157.2691    216.6700   1.0909212688e+02   5.0733824420e+00    0.1378537    0.1126893  81.20            0    1.582    0.368
       102 -10.3255    146.7659    215.1378   1.1117047243e+02   7.2481447050e+00    0.3996356    0.2234851  65.70  0.001404126    3.409    0.707
       103  -9.4593    107.5212    216.4826   1.2034634550e+02   1.3729373527e+01    0.1414313    0.1322701  68.08 0.0008099892    1.018    0.018
       104 -12.0149     96.0230    209.7391   1.2200149652e+02   1.7177411922e+01    0.5908731     0.277526 -60.02    0.0024561    2.124    0.529
       105 -10.1122     76.7491    216.3248   1.2734648755e+02   1.8621180438e+01    0.2142056    0.1507066  58.73 0.0006834907    1.361    0.265
       106 -11.2572    111.9462    213.7411   1.1890775312e+02   1.3613705010e+01    0.3703606    0.2571574 -52.11  0.001093524    1.498    0.332
       107  -9.8911    249.2827    220.0072   9.1289038997e+01  -1.0095305860e+01    0.1880094    0.1410421  76.35 0.0009089949    3.454    0.711
       108  -9.6635    164.3554    212.8353   1.0684580153e+02   4.6220608923e+00    0.1968853    0.1280383 -36.70 0.0009210581    1.646    0.392
       109 -11.7964     38.8338    211.8624   1.3523489208e+02   2.4763479050e+01    0.2637278    0.2099871 -86.07 0.0003765891    1.073    0.068
       110  -9.7271    231.3158    212.2921   9.3104405763e+01  -6.2957791061e+00     0.132935   0.09142321  -7.64 0.0003341218    1.597    0.374
       111 -10.7328    116.6199    216.6530   1.1828499011e+02   1.2161768632e+01    0.2892558     0.230096 -21.45  0.001117704    1.662    0.398
       112 -11.7369    128.9619    209.2354   1.1423162158e+02   1.1697131241e+01    0.4852794    0.3696423 -57.31  0.002483087    1.352    0.260
       113 -10.4090     24.6947    210.3698   1.3810960233e+02   2.6722819546e+01    0.3761171    0.1664738  62.00  0.001692253    2.461    0.594
       114 -10.0289    214.4641    210.4469   9.5960252886e+01  -3.3905954738e+00    0.1351717    0.1195675 -12.46 0.0001069766    1.004    0.004
       115 -10.0554     80.6204    210.2733   1.2565908520e+02   1.9464425960e+01    0.1861201    0.1238088 -57.30 0.0009284309    1.511    0.338
       116 -12.2993     67.1250    207.6067   1.2841971866e+02   2.2079319123e+01    0.3175461    0.2285565  66.35   0.00169809    1.362    0.266
       117 -10.0201    143.3155    208.1906   1.1074146267e+02   9.3732957209e+00    0.4168786    0.1660368  37.97  0.001525636    2.460    0.594
       118 -11.0146     13.8564    198.0971   1.3930396348e+02   3.0709266216e+01    0.3695627    0.2046693  70.28  0.001564022    1.800    0.444
       119 -10.2662     17.2084    207.6904   1.3944136648e+02   2.8131724473e+01     0.202107    0.1428875  59.08 0.0003558952    1.328    0.247
       120 -11.1583     14.2785    205.0086   1.3982235859e+02   2.9048955395e+01    0.2281638    0.1828669 -84.72 0.0001775778    1.080    0.074
       121 -12.7747     19.2578    201.4097   1.3844365347e+02   2.9393407264e+01    0.3803128      0.25346 -62.81   0.00224407    1.431    0.301
       122 -10.4700    152.4311    207.2010   1.0848894712e+02   7.9487437998e+00    0.1956008    0.1420937 -63.20 0.0004093475    1.573    0.364
       123 -10.8022     52.1188    207.0722   1.3177595112e+02   2.4243400072e+01    0.3207956    0.1920002  27.62  0.001554563    2.050    0.512
       124 -10.5986    101.0414    206.2964   1.2030093368e+02   1.7168902055e+01    0.2034828    0.1717258  50.36 0.0003036156    1.146    0.127
       125  -9.8735     38.6652    206.1405   1.3467750959e+02   2.6135251735e+01    0.1745613    0.1025125 -63.88 -0.000275831    1.561    0.359
       126 -10.6963      3.0256    205.6562   1.4219374102e+02   2.9963021542e+01    0.3110926    0.1512209  53.05   0.00113559    1.967    0.492
       127 -11.4581    183.5750    203.7576   1.0099064887e+02   3.0889304639e+00    0.2973167    0.2459635 -37.05 0.0003487044    1.182    0.154
       128 -12.3099    109.4827    197.9734   1.1694217935e+02   1.7724390012e+01     1.014866    0.4271265 -67.87  0.003261184    3.495    0.714
       129 -11.6891    108.8902    194.0390   1.1641889622e+02   1.8771780922e+01    0.3050787    0.2424236 -63.71 0.0003190408    1.246    0.198
       130 -10.7004     90.1879    204.9500   1.2266252974e+02   1.9248532976e+01    0.2205683    0.1773993  79.29 0.0003856115    1.251    0.201
       131 -10.8442    195.5816    204.1135   9.8542962042e+01   9.2812527744e-01    0.2451786    0.1978635  31.18 0.0007358358    1.250    0.200
       132 -10.7715    122.4502    203.2570   1.1474044533e+02   1.4215729045e+01    0.3053529    0.2733645  58.12 0.0009588422    1.092    0.084
       133 -10.8002    121.4114    199.1471   1.1427918169e+02   1.5359074264e+01    0.2541364    0.2344955  34.93 0.0003669639    1.121    0.108
       134 -10.2070    159.2680    202.8284   1.0614211205e+02   7.6566347676e+00    0.2974397    0.1961655  27.51 0.0007577509    1.658    0.397
       135  -9.8861     75.0815    212.4915   1.2722804043e+02   1.9767427855e+01    0.2093365    0.1294148  40.77   0.00103086    1.590    0.371
       136 -11.7791     52.4190    202.1929   1.3113006848e+02   2.5377542714e+01     0.376074      0.32245  -9.02  0.002100716    1.668    0.401
       137 -10.9164     24.9315    194.6357   1.3653902691e+02   3.0421307887e+01    0.4582859    0.1684357 -76.56  0.001860917    2.585    0.613
       138 -10.8454     31.4363    202.5896   1.3590406707e+02   2.7813554807e+01    0.2265624    0.1690163  72.41 0.0005609019    1.214    0.176
       139 -10.3880     28.0012    201.0300   1.3650326800e+02   2.8563991450e+01    0.2080862    0.1687003  52.59 0.0003501764    1.281    0.220
       140 -12.3572    240.7565    201.0096   8.9268862426e+01  -5.7163984447e+00    0.4097427    0.3441921 -40.75  0.002021442    1.228    0.186
       141 -10.1864    165.6604    201.8725   1.0453260172e+02   6.6978869244e+00    0.2372408    0.1953682  27.81 0.0007423995    1.227    0.185
       142 -10.8562     39.7715    201.8463   1.3396805934e+02   2.7030391540e+01      0.23442     0.190385   9.40 0.0007930006    1.761    0.432
       143 -11.2479    190.7517    200.7838   9.8904836366e+01   2.4277444952e+00    0.2372745    0.2266863 -38.40 0.0002494808    1.112    0.101
       144 -11.2454     95.9516    200.2016   1.2056389486e+02   1.9460660444e+01    0.2835265    0.2007928 -61.76 0.0004607973    1.385    0.278
       145 -10.5931     70.1926    200.9382   1.2682244166e+02   2.3250393727e+01     0.323388     0.231402 -54.44  0.001120302    1.439    0.305
       146 -12.6252      4.9790    199.8425   1.4133348641e+02   3.1127600735e+01    0.2880427    0.2489199  79.92 0.0008146462    1.166    0.143
       147 -11.0016    208.8731    199.3481   9.4936147392e+01  -3.9772641106e-01    0.2692815    0.1882692 -33.47 0.0006247155    1.349    0.259
       148 -11.2633     89.6544    199.7147   1.2200197849e+02   2.0594006488e+01    0.3810665    0.2276614  44.32 0.0003412895    1.639    0.390
       149  -9.9990     44.9930    200.0103   1.3257592049e+02   2.6842357862e+01    0.1989631    0.1561415 -37.26   0.00111882    1.685    0.407
       150  -9.9845    169.5695    198.7162   1.0306445343e+02   6.6589332431e+00    0.2812206    0.1375831 -43.45  0.001128254    2.049    0.512
       151  -9.6926    155.2206    199.6544   1.0646420662e+02   9.0908816457e+00    0.1970479    0.1365971  29.75  0.000242865    1.524    0.344
       152 -10.8233    224.0261    197.7435   9.1699961852e+01  -2.5698962874e+00    0.2155558     0.183182 -24.00 0.0004809898    1.037    0.036
       153 -12.4407    229.4501    194.7918   9.0119546593e+01  -2.8839390892e+00    0.3585127    0.2631015  -9.22  0.001956365    1.495    0.331
       154  -9.4770    162.0095    198.0204   1.0461769743e+02   8.1979747127e+00    0.1720541    0.1680059 -13.37 0.0003408343    1.011    0.011
       155 -11.3392     52.8280    192.7098   1.2985439424e+02   2.7639476160e+01    0.2534179    0.2097764  82.08 0.0002768651    1.101    0.092
       156 -11.9052     62.6981    196.3095   1.2797502712e+02   2.5438169335e+01    0.3400711    0.2963384  35.68 0.0002356127    1.307    0.235
       157 -10.9091     57.0289    195.1599   1.2917192096e+02   2.6487373092e+01    0.2559547    0.1982513  72.50 0.0004654938    1.243    0.196
       158 -10.6087    136.2145    195.3068   1.1006874641e+02   1.3576986292e+01    0.4448338    0.2748628  80.97  0.001567046    3.212    0.689
       159  -9.8243    139.7630    194.9134   1.0915795745e+02   1.3013561384e+01    0.2456649    0.2052371  25.81 0.0006837983    1.276    0.216
       160 -12.1665    217.4815    194.6328   9.2337727896e+01  -9.2657352327e-01    0.3898813      0.30656  21.50  0.002184249    1.344    0.256
       161 -10.6537    188.9048    196.2004   9.8399962555e+01   3.6841789584e+00     0.203983    0.1963824  59.31 0.0004159055    1.181    0.154
       162 -10.0567    102.4359    196.3229   1.1837335888e+02   1.9321414169e+01    0.2317885    0.1334891  38.53 0.0001356549    1.739    0.425
       163 -10.4395     95.3395    194.9296   1.1987397027e+02   2.0839185349e+01    0.2451275    0.2115746  30.06 0.0003755002    1.286    0.222
       164  -9.6236     82.4840    195.5150   1.2309661505e+02   2.2742134565e+01    0.1443973    0.1321052  89.30 8.101454e-05    1.013    0.013
       165 -10.5214     44.7368    194.6780   1.3200761220e+02   2.8170432085e+01    0.2031061    0.1703345  60.39 0.0003501615    1.184    0.156
       166 -10.9492    123.1805    193.1710   1.1279640628e+02   1.6453495884e+01    0.2704857    0.2482507  57.09 0.0003583787    1.074    0.069
       167 -10.5502    119.9851    191.0141   1.1318223885e+02   1.7542731138e+01    0.2913873    0.2480421 -73.68 0.0005965982    1.206    0.171
       168 -10.3969     71.2511    194.1396   1.2561916244e+02   2.4762378685e+01    0.2286564    0.2002048  54.14 0.0007029175    1.157    0.136
       169 -11.0129    146.8515    193.0384   1.0714207564e+02   1.2125324451e+01    0.3065413    0.2157442  29.68 0.0007927312    1.528    0.345
       170 -11.0080     34.7811    191.4651   1.3395083170e+02   3.0120997595e+01    0.3229602    0.1929771  50.90 0.0008582469    1.691    0.409
       171 -11.4103    246.0338    190.7803   8.6396046901e+01  -4.6929854102e+00    0.2173225    0.1532831  30.81 0.0007272139    1.591    0.372
       172 -10.8254     66.6134    191.1146   1.2631432293e+02   2.6173805399e+01    0.2403788    0.2050975  30.33 0.0006270807    1.358    0.264
       173 -10.5026     57.2483    189.9715   1.2843167975e+02   2.7738442815e+01    0.2856141    0.1905407 -69.39  0.001015984    1.356    0.263
       174 -11.0176    249.4016    190.1982   8.5710344022e+01  -5.0854938403e+00    0.2990457     0.161911 -46.48  0.001493238    1.748    0.428
       175 -10.4572     16.8726    191.0530   1.3798477570e+02   3.2091576724e+01    0.1851217    0.1623907  77.20 0.0002679917    1.152    0.132
       176 -10.5308    227.0820    189.4724   8.9517903687e+01  -1.5203877437e+00    0.2367172    0.1752919 -51.73 0.0003974523    1.449    0.310
       177 -11.0663    189.5544    189.2620   9.6888256509e+01   4.9965706897e+00    0.2809853    0.2308236  -2.36 3.929147e-05    1.352    0.261
       178 -12.3612     91.6097    188.8806   1.1980772465e+02   2.2932984192e+01    0.3222153    0.2667136 -88.05 0.0006414826    1.213    0.176
       179 -10.0647     77.3258    190.3554   1.2357703239e+02   2.4800938400e+01    0.2186988    0.1679103 -30.14 0.0009999167    1.721    0.419
       180 -10.4427     81.0309    189.1972   1.2248359644e+02   2.4525243894e+01    0.2652214    0.2071459  34.38 0.0004951645    1.392    0.282
       181 -11.1262    131.8871    186.7553   1.0950180104e+02   1.6379688062e+01    0.2898049    0.2288209 -65.19 0.0004085641    1.323    0.244
       182 -11.1270      3.7281    187.9641   1.4059950183e+02   3.4019226930e+01     0.181463    0.1610485 -80.86 0.0003151974    1.199    0.166
       183  -9.9196    205.3036    187.0185   9.3211128393e+01   2.6323465577e+00    0.1990731    0.1649426 -35.69 0.0001613978    1.118    0.105
       184  -9.9751    221.0046    186.2732   9.0018628002e+01   8.4016922110e-02    0.1831846    0.1711768  -6.82  0.000345391    1.086    0.079
       185 -10.0352    131.1902    191.8596   1.1062828038e+02   1.5304392860e+01     0.202668    0.1763289 -21.95 0.0003674465    1.320    0.243
       186 -11.4700    104.7598    184.1883   1.1571974189e+02   2.1889026712e+01    0.5015059    0.3772228 -30.92  0.002379164    1.654    0.395
       187 -10.6689     10.3394    185.8635   1.3894732542e+02   3.3941544748e+01    0.2535028    0.1994234 -40.70  0.001599569    1.619    0.383
       188 -11.1478     15.6290    182.9893   1.3746478536e+02   3.4148852921e+01    0.3652183    0.2420972 -43.12  0.002050456    1.849    0.459
       189 -10.5890    177.8214    184.2019   9.8379551468e+01   8.2440585298e+00     0.247302    0.2184806  -3.72 0.0004514635    1.208    0.172
       190 -10.6919    174.3130    183.2088   9.8946623589e+01   9.1240254902e+00    0.3879049    0.2369243  38.81  0.001047893    1.685    0.407
       191 -10.6833    225.7902    183.6824   8.8612198228e+01  -2.1710067309e-01    0.2355317    0.1946816  -5.10 0.0008502248    1.272    0.214
       192 -11.7870     29.2160    181.0881   1.3407045623e+02   3.3267993108e+01    0.5086532    0.3481477 -60.48  0.002872622    1.343    0.255
       193 -11.7457     32.5979    177.1304   1.3277872343e+02   3.3886314330e+01    0.5516226    0.2890758 -55.26  0.002040783    1.772    0.436
       194  -9.6389    122.8361    182.8431   1.1097031735e+02   1.8990398420e+01     0.214644    0.1767592  69.50 0.0005754799    1.327    0.246
       195 -10.7373     79.8174    182.8314   1.2177813831e+02   2.6299300057e+01    0.2111163    0.1890533 -50.04 0.0004093552    1.192    0.161
       196 -11.4251     59.5449    180.6510   1.2655774508e+02   2.9758375100e+01    0.5117019    0.2316271 -50.52  0.002100917    2.234    0.552
       197 -10.3843     55.4932    181.4880   1.2769212741e+02   3.0083389706e+01    0.2473267    0.2135598  87.05 0.0006075131    1.065    0.061
       198 -11.0425     47.7088    181.8421   1.2967098167e+02   3.0978486358e+01    0.2931172    0.2570244   0.39 0.0009797945    1.513    0.339
       199 -12.2012     47.6956    177.1622   1.2903912354e+02   3.2150233692e+01    0.3007721    0.2454461  37.63 0.0003592591    1.373    0.272
       200 -11.4566    229.6304    180.5284   8.7283884651e+01  -2.5251619083e-01    0.2981984    0.2459911 -67.76  0.001675922    1.547    0.354
       201  -9.8781     88.1528    182.1296   1.1955195018e+02   2.5169197289e+01    0.2076507    0.1658752  86.10 0.0004492671    1.315    0.240
       202  -9.8908     63.4602    182.4702   1.2584207801e+02   2.8769717828e+01    0.1426646    0.1270966 -80.68 0.0001125877    1.019    0.019
       203 -10.7220      4.1036    181.7039   1.3995671122e+02   3.5471583005e+01    0.5008829    0.1248669 -64.58  0.001833789    2.853    0.649
       204  -9.8611    132.4937    180.4841   1.0814228489e+02   1.7757450385e+01    0.1531057    0.1479578 -90.00  0.000810291    1.028    0.027
       205 -11.8720     79.9407    175.2437   1.2049358523e+02   2.8189389733e+01     0.684869    0.4035563  89.49  0.002344883    2.495    0.599
       206 -10.0665     70.7029    178.6853   1.2343219617e+02   2.8698536492e+01    0.1901529    0.1301847 -72.98 0.0003747815    1.409    0.290
       207 -11.0338     74.0617    177.0861   1.2231591324e+02   2.8610503022e+01    0.2758057    0.2443694 -14.26 0.0004835941    1.416    0.294
       208 -11.5960    106.1167    176.4772   1.1396973924e+02   2.3560307798e+01    0.5178605    0.3695474  20.69  0.001505594    1.765    0.433
       209 -10.4126     91.8058    177.4157   1.1780736793e+02   2.5757426801e+01    0.1917689    0.1478384  20.76 0.0002368469    1.580    0.367
       210 -10.2794    136.5568    176.2068   1.0629911653e+02   1.8004187836e+01    0.2225409     0.142615 -40.71 0.0007567972    1.652    0.395
       211 -10.7221     22.4091    175.6845   1.3508152874e+02   3.5282714517e+01    0.2139391    0.1597997  87.01  0.001264611    1.210    0.173
       212 -10.3885    156.2429    173.9452   1.0113385799e+02   1.4701345159e+01    0.2239673    0.2197356   7.48            0    1.045    0.043
       213 -10.3510    159.7520    173.4777   1.0022209083e+02   1.4118079897e+01    0.2913722    0.2187178  36.99 0.0002874086    1.381    0.276
       214 -10.3355    191.8000    174.3968   9.3377355541e+01   7.6947590569e+00    0.1965217    0.1409624  27.99 0.0003256084    1.575    0.365
       215  -9.7392      2.1857    173.8712   1.3966099383e+02   3.7494485310e+01    0.1542294    0.1231458 -59.20  0.000363365    1.281    0.220
       216 -10.4330     98.1804    172.2555   1.1522575527e+02   2.5986054360e+01    0.3109365    0.1985855 -66.23 0.0009600005    1.613    0.380
       217 -10.6479    199.8741    171.6313   9.1147523870e+01   6.7544610225e+00    0.2296621    0.1863072 -31.42 0.0003425478    1.193    0.162
       218 -11.6225     47.4877    166.8527   1.2761883310e+02   3.4767614129e+01    0.4292478    0.3245988 -85.09  0.002330079    1.268    0.211
       219 -10.3721     31.6714    169.9270   1.3210207734e+02   3.5772332289e+01    0.2858812    0.0902364 -61.42  0.001105503    2.490    0.598
       220 -10.2859    114.1853    168.8089   1.1042055332e+02   2.4013296099e+01    0.2374245    0.2098969  80.28 0.0007100504    1.192    0.161
       221 -10.1787     57.4776    169.7245   1.2544526071e+02   3.2787655685e+01    0.2212751     0.126614  32.75 -1.942502e-05    1.933    0.483
       222  -9.1931     14.4948    169.4711   1.3629555180e+02   3.7534452319e+01    0.1305339    0.1047015 -83.07 7.790562e-05    1.037    0.035
       223 -10.1319      2.1254    169.0307   1.3920611921e+02   3.8657440077e+01    0.1817503    0.1325073 -62.56 0.0003244928    1.241    0.194
       224  -9.8553    133.0106    168.4806   1.0559086353e+02   2.0538753106e+01    0.2274763    0.1542426  41.17 0.0004120661    1.504    0.335
       225 -10.9903     73.1520    165.7577   1.2065153747e+02   3.1613307304e+01    0.4526498    0.2714197 -87.83  0.001838773    2.298    0.565
       226  -9.3230     66.0000    167.9825   1.2292772732e+02   3.2075205051e+01    0.2302561    0.0761458 -61.63 0.0006228829    2.757    0.637
       227  -9.8433    121.5036    167.4442   1.0827222900e+02   2.2989655801e+01    0.1540414    0.1495285 -75.74 5.948943e-05    1.008    0.008
       228 -10.5770     81.9934    166.0215   1.1834043787e+02   3.0204634595e+01    0.3055929    0.2090435  36.47  0.001035123    1.557    0.358
       229 -10.3451     59.2799    165.9003   1.2436740107e+02   3.3518414916e+01    0.2038826    0.1683324 -69.31 0.0005097734    1.082    0.076
       230 -12.0187     24.0258    163.9989   1.3327941047e+02   3.8006349752e+01    0.2483365    0.2180276  75.63 0.0004052527    1.167    0.143
       231 -10.3101     32.9699    162.2785   1.3075206550e+02   3.7542604320e+01    0.2010479    0.1510054 -68.33 0.0002051187    1.126    0.112
       232 -11.6099     35.0352    158.3965   1.2966304853e+02   3.8295862328e+01    0.5164346    0.2538508  47.52  0.001072941    2.305    0.566
       233 -10.1714     18.7313    160.7529   1.3422085148e+02   3.9294931969e+01    0.1813197    0.1517777 -65.15 0.0008694541    1.110    0.099
       234  -9.7221    149.0266    159.2293   9.9694309457e+01   1.9560663728e+01    0.2040811    0.1988071  75.56  0.000233621    1.048    0.046
       235 -10.8623    108.0954    158.3828   1.0989130970e+02   2.7710151098e+01    0.4547552      0.24308  37.31  0.001808742    1.964    0.491
       236 -11.0358     45.7915    158.9099   1.2686523529e+02   3.6970662047e+01    0.2605694    0.2216472 -23.56  0.001192013    1.432    0.302
       237 -10.8742    248.4610    157.6723   7.9526938161e+01   9.4127539548e-01    0.2125759    0.1617587   9.65  0.001067378    1.757    0.431
       238  -9.6982     75.5140    162.5109   1.1944438084e+02   3.2086357335e+01    0.1484962    0.1358532 -72.33 0.0001381494    1.001    0.001
       239 -11.6914    141.1918    161.1267   1.0200961359e+02   2.0689052678e+01    0.2799043    0.2533132  50.31  0.000257644    1.132    0.116
       240  -9.8851     11.5494    157.9986   1.3571274138e+02   4.0581065753e+01    0.1895539    0.1020668 -68.29 5.432975e-05    1.475    0.322
       241 -10.0755    164.0568    155.6995   9.5391970903e+01   1.7304827307e+01    0.3033185    0.1891015  21.30  0.001151125    2.436    0.590
       242 -11.2532     96.4496    154.1140   1.1213905556e+02   3.0835616630e+01    0.3655973    0.2958387  -8.97 0.0003721172    1.595    0.373
       243 -10.7383     52.1550    155.9902   1.2467216743e+02   3.6940277202e+01    0.2225051    0.1916133 -72.93  0.001271362    1.040    0.038
       244 -10.1071    113.1785    153.8798   1.0759420655e+02   2.7888960885e+01    0.2427259    0.2079344 -87.39  0.001198474    1.279    0.218
       245  -9.8795     71.0689    154.5163   1.1920135068e+02   3.4768355143e+01    0.1961178    0.1485405  31.29 0.0003183039    1.468    0.319
       246 -10.3034     65.1644    152.0740   1.2039335724e+02   3.6223553992e+01     0.217917    0.1984277 -72.94  0.001231318    1.030    0.029
       247 -10.4849    249.1049    150.8815   7.8078661366e+01   2.0886864210e+00    0.2019034    0.1631236 -58.70 0.0003098626    1.265    0.210
       248  -9.4824    137.5153    151.5143   1.0080077312e+02   2.3713494396e+01    0.1570341    0.1523118 -52.19 0.0001372215    1.020    0.020
       249  -9.6669     79.5591    150.4790   1.1606711686e+02   3.4513654681e+01    0.1501374    0.1372337 -55.59 3.719234e-05    1.046    0.044
       250  -9.5377     71.2685    150.6511   1.1842075870e+02   3.5715837523e+01     0.149026    0.1102915  84.34 0.0003275266    1.620    0.383
       251 -10.1258     51.8575    149.3295   1.2363055551e+02   3.8655004083e+01    0.2361365    0.1740154 -73.06 0.0003026597    1.282    0.220
       252 -10.2919    226.1856    148.6222   8.1378817043e+01   6.5156920624e+00    0.1775871    0.1342604  32.18 0.0002989742    1.594    0.372
       253  -9.3190     62.7089    147.2394   1.2019236221e+02   3.7778471131e+01    0.1357446    0.1063372  71.77 0.0001828548    1.465    0.317
       254 -11.1579     36.0686    145.5726   1.2743713826e+02   4.1385417091e+01    0.3754215    0.1762002 -65.35 0.0009269775    1.836    0.455
       255 -10.1061    164.1681    145.8228   9.3137251158e+01   1.9514391114e+01    0.2162139    0.1857663 -15.67 0.0003594916    1.346    0.257
       256 -10.6850      4.7105    143.4617   1.3573220279e+02   4.4616630175e+01     0.257228     0.131914 -66.45 0.0002191082    1.507    0.336
       257  -9.6026     16.2891    142.9900   1.3254230819e+02   4.3853918713e+01    0.1683595   0.09731802 -68.28 0.0006694446    1.413    0.292
       258 -10.8721    132.3149    140.3982   9.9567858855e+01   2.7402896510e+01    0.2766182    0.2491708 -72.29 0.0004134784    1.146    0.128
       259  -9.9118     72.7932    140.1676   1.1591693915e+02   3.8119369829e+01    0.2043087    0.1632942 -35.92  0.000374347    1.312    0.238
       260  -8.9560      1.3277    140.3169   1.3624720748e+02   4.5598521858e+01     0.130595   0.07462845 -46.63 0.0007045623    1.677    0.404
       261 -10.2468     65.9683    139.0334   1.1766907958e+02   3.9381906266e+01    0.2110409    0.1922435 -58.65  0.001189731    1.005    0.005
       262 -10.0213     48.6632    138.2810   1.2257865933e+02   4.1798270203e+01     0.207943    0.1123161 -52.71 0.0004033426    1.611    0.379
       263 -10.2409     50.8118    135.1465   1.2136195118e+02   4.2316391635e+01    0.2580024    0.1617332 -51.20 0.0004870368    1.412    0.292
       264 -10.3376     34.7681    138.0960   1.2658487633e+02   4.3367582183e+01    0.2254349    0.1816588  56.86  0.001306933    1.418    0.295
       265 -10.6940     95.7168    136.0193   1.0843739329e+02   3.5440280184e+01    0.3549655    0.3332569 -20.40  0.001469683    1.127    0.113
       266  -9.9040     55.0197    136.0205   1.2028674411e+02   4.1582027575e+01    0.1649301    0.1571673 -55.31 0.0009757249    1.073    0.068
       267 -10.2447     40.4881    133.4194   1.2409777716e+02   4.3918735367e+01    0.2899321    0.1790669 -76.68  0.001338045    1.745    0.427
       268 -11.5424     27.5956    131.3556   1.2754892238e+02   4.5705864960e+01    0.4205069    0.2569411  65.93  0.002023047    2.269    0.559
       269 -10.2059     61.8057    131.1774   1.1729877978e+02   4.1889608419e+01    0.1953204    0.1520857 -37.05 0.0002398482    1.297    0.229
       270  -9.7092    122.0248    130.0580   9.9786526601e+01   3.1910837950e+01    0.1837899    0.1746694 -51.11 0.0003359469    1.021    0.020
       271  -9.3286      2.6470    130.2828   1.3459252755e+02   4.7895428375e+01    0.1210044   0.08532698  70.28 0.0007017188    1.658    0.397
       272  -9.5947    126.5854    128.4800   9.8199718705e+01   3.1354056168e+01     0.155454    0.1490196 -50.79 8.609194e-05    1.016    0.016
       273  -9.2498     17.3475    128.3175   1.3007107107e+02   4.7312932477e+01    0.1382555   0.08033871 -40.32 0.0007048364    1.728    0.421
       274 -10.3113     91.3744    127.1316   1.0763020494e+02   3.8335872604e+01    0.2547207    0.2125735  12.12  0.000799936    1.377    0.274
       275 -10.2358      9.9394    131.0456   1.3262982604e+02   4.7219962913e+01    0.1890317    0.1524276 -59.95 0.0003227956    1.049    0.047
       276 -10.4507     30.3856    125.7873   1.2575238591e+02   4.6790311503e+01     0.198588    0.1822896   7.80   0.00028039    1.271    0.213
       277 -10.1800      3.6662    124.8947   1.3355191844e+02   4.9099367154e+01    0.2008497    0.1116877 -55.34 0.0001742864    1.421    0.296
       278 -10.5651     71.5294    121.4794   1.1223298025e+02   4.2857313885e+01    0.1458504    0.1336472 -45.54 -0.0001199066    1.001    0.001
       279 -10.7377     20.6484    109.6842   1.2582944636e+02   5.1427357445e+01    0.4043136    0.1694131 -40.60  0.001790229    2.319    0.569
       280  -9.9122     21.7291    121.3239   1.2760064770e+02   4.8622441694e+01    0.2097643    0.1410629 -64.92 0.0002858965    1.270    0.213
       281 -10.8537     19.5997    118.4787   1.2775977695e+02   4.9467316683e+01    0.3127261    0.1783727  21.24  0.001251343    2.093    0.522
       282 -10.7224     18.9765    114.9012   1.2732149815e+02   5.0353630509e+01    0.2323437    0.1840894 -63.49 0.0002980678    1.107    0.096
       283  -9.7424     39.4504    122.0370   1.2227165477e+02   4.6784815687e+01    0.2146133     0.116237 -58.19  0.001019066    1.571    0.364
       284 -10.6846     91.9896    117.6253   1.0514982855e+02   4.0462123223e+01    0.4233159    0.3392704  89.28  0.002068606    1.623    0.384
       285  -9.2587    147.3646    118.2539   9.0450632232e+01   2.9242467246e+01    0.1536529    0.1230505  12.44 0.0005408996    1.626    0.385
       286  -9.7310     54.9451    117.6891   1.1652216694e+02   4.6027078998e+01    0.1811525    0.1739609 -25.78 0.0004094687    1.094    0.086
       287  -9.6455     10.5840    117.7811   1.3040883709e+02   5.0304586049e+01    0.1744934    0.1060342 -75.86 0.0008108229    1.589    0.371
       288  -9.7579    138.5597    115.5566   9.1912047058e+01   3.1734047596e+01    0.1524471    0.1492133 -61.52 5.248084e-05    1.004    0.004
       289  -9.3083     49.2567    115.6808   1.1787984136e+02   4.7194803274e+01    0.1304065    0.1047868  89.04 0.0002255945    1.540    0.351
       290 -10.1208    106.1328    114.2098   1.0019095670e+02   3.8657434529e+01    0.3494463    0.1234796  35.01  0.001069546    3.467    0.712
       291  -9.6965     60.1756    113.7328   1.1397605049e+02   4.6275288770e+01    0.2230491    0.1474551  77.10 0.0007554424    2.667    0.625
       292 -11.2554      2.8791    107.8318   1.3116887689e+02   5.3085527333e+01     0.263627     0.189056 -70.98 0.0007473226    1.258    0.205
       293  -9.7200      6.0383    114.2689   1.3123305512e+02   5.1421229807e+01    0.1787048    0.1493365 -79.87 0.0003509997    1.221    0.181
       294 -10.8112      4.1554    111.6250   1.3138870439e+02   5.2145720718e+01    0.3055317    0.1445925 -35.03 0.0009172312    2.246    0.555
       295 -11.8001    149.8085    111.2598   8.8109257731e+01   3.0195388508e+01    0.2613913    0.2495442 -67.90 0.0002373292    1.026    0.025
       296  -9.7356    120.5280    112.4547   9.5766072070e+01   3.6200283498e+01    0.1509887    0.1484457 -38.37 2.907778e-05    1.005    0.005
       297 -10.0688     73.8928    111.9531   1.0923628964e+02   4.4725549062e+01    0.2267304    0.1883169 -19.87  0.001212463    1.270    0.213
       298 -10.6793     38.0028    111.7577   1.2064401850e+02   4.9356980571e+01    0.2025241    0.1687128 -50.04  0.001212507    1.030    0.029
       299 -11.2601     38.0630    108.5509   1.1994173766e+02   5.0090596354e+01    0.2681347     0.231565  44.86   0.00163738    1.379    0.275
       300 -10.5071     86.2561    109.9583   1.0493151789e+02   4.3192220880e+01    0.3030402    0.2226399  72.62  0.001289369    1.993    0.498
       301  -9.9870     65.5320    109.0269   1.1115305157e+02   4.6621644961e+01    0.1956076    0.1701622 -47.57 1.285253e-05    1.071    0.066
       302 -10.3712     63.2065    105.4212   1.1101172352e+02   4.7762008808e+01    0.2585746    0.1976584 -71.94  0.000753974    1.575    0.365
       303 -11.1477    112.8574    105.0205   9.5895463166e+01   3.9356376899e+01    0.2291926    0.2133168  35.15 0.0002847164    1.089    0.082
       304  -9.7705    123.7977    103.2935   9.2481569267e+01   3.7482391525e+01    0.2006062    0.1744524 -10.30 0.0005375362    1.299    0.230
       305 -11.2863     58.7609    100.3408   1.1119104456e+02   4.9495126052e+01    0.2517674    0.2315651 -15.69 0.0003187146    1.072    0.067
       306 -11.8485     51.9776    101.3660   1.1369274390e+02   5.0138900593e+01    0.5393375    0.3289517  18.88   0.00182566    1.905    0.475
       307  -9.9208     55.4933     97.4526   1.1154382476e+02   5.0555163863e+01    0.2110076    0.1702073  57.45 4.040682e-06    1.612    0.380
       308 -11.2257     43.1860    102.2304   1.1683033429e+02   5.0975381231e+01    0.3298111    0.2365557 -59.11 0.0009113549    1.337    0.252
       309  -9.5501     29.3728    103.2366   1.2167112990e+02   5.2145989105e+01    0.1708711    0.1122527 -65.63 0.0002817244    1.495    0.331
       310  -9.9021     18.7124    103.5041   1.2526706220e+02   5.2986736830e+01    0.1601102    0.1155249  38.85 0.0007668978    1.700    0.412
       311 -10.7333      9.2617    101.4548   1.2799502462e+02   5.4122737070e+01    0.4025919    0.1670092 -57.99  0.001290495    1.822    0.451
       312 -11.0885     70.6788    101.6270   1.0764137327e+02   4.7525615177e+01    0.2712936    0.2255904 -29.69 0.0002591771    1.148    0.129
       313 -10.9592    135.0530    100.7746   8.8934155597e+01   3.5597527822e+01    0.3030232     0.211252 -38.24  0.001236239    1.473    0.321
       314 -10.8773     36.9104     98.8691   1.1816355814e+02   5.2391599668e+01    0.3190291    0.1596631 -65.84  0.001404002    2.294    0.564
       315 -12.9233    106.4126     97.6012   9.5688026316e+01   4.2184258539e+01    0.3275102    0.2970872  28.60 0.0008576753    1.111    0.100
       316 -11.0894     85.9366     97.5945   1.0175725611e+02   4.5943224610e+01    0.3485086    0.2958598 -15.39  0.001389724    1.215    0.177
       317  -9.1392      4.6520     98.9735   1.2906178502e+02   5.4963294313e+01       0.1954   0.09336792 -88.76 0.0007049164    4.432    0.774
       318 -10.0348     79.8470     96.1610   1.0326473760e+02   4.7264845500e+01    0.2076773    0.1632604 -17.72  0.001082301    1.362    0.266
       319 -10.7093     62.8605     96.0928   1.0874030929e+02   4.9858338876e+01    0.2102572    0.1933435  10.14 0.0003475312    1.130    0.115
       320  -9.8905     23.4535     96.2016   1.2215934613e+02   5.4230186207e+01    0.1706742    0.1128809 -68.93 0.0004781359    1.598    0.374
       321 -10.3238     53.7006     92.8261   1.1095478791e+02   5.1780026495e+01    0.2574043    0.1716453  -5.78  0.001278112    1.864    0.464
       322  -9.7664      1.5768     92.8222   1.2895856256e+02   5.6487335968e+01    0.1624685    0.1015124 -74.13 0.0005556394    1.647    0.393
       323 -10.6321    105.9748     91.4712   9.4103720151e+01   4.3510995411e+01     0.218516     0.194874 -38.97 0.0003348817    1.116    0.104
       324 -11.2231      6.7352     90.1195   1.2666176019e+02   5.6767276360e+01     0.395008    0.2539724  53.50    0.0022185    2.316    0.568
       325 -10.6257    113.1049     90.8639   9.1943560383e+01   4.2206953232e+01    0.3933427    0.0963814  43.11  0.001104839    4.147    0.759
       326 -10.5129     88.1457     89.1316   9.8713366952e+01   4.7300694294e+01    0.2311267    0.1892675  -9.03 0.0008748231    1.309    0.236
       327 -10.1975     77.9605     88.0196   1.0159475341e+02   4.9251178708e+01    0.2111347    0.1903073 -23.06 0.0003806926    1.031    0.030
       328 -10.2775     67.4546     88.5275   1.0516510479e+02   5.0783109638e+01    0.1956227    0.1295792  17.98 0.0001570847    1.710    0.415
       329 -10.8127     63.4780     86.9348   1.0604915330e+02   5.1686825793e+01    0.2675766    0.2197292  25.61 0.0004794595    1.264    0.209
       330 -10.9656     27.4915     87.9515   1.1886759163e+02   5.5660401552e+01    0.1986455    0.1086276 -54.36   0.00096274    1.576    0.366
       331  -9.4986     21.1678     88.1908   1.2117047091e+02   5.6150288531e+01    0.1497412    0.1369296 -70.32  0.001007107    1.287    0.223
       332 -11.6591     48.8950     84.8328   1.1048457212e+02   5.4046722270e+01    0.4340473    0.2556747 -21.48   0.00206673    2.043    0.511
       333 -10.5608     53.5104     82.4866   1.0822169364e+02   5.3942543955e+01    0.1836876    0.1619685 -19.03 0.0006435469    1.025    0.024
       334 -11.3427      9.3189     85.7590   1.2484791655e+02   5.7531973013e+01     0.209745    0.1792799 -45.29 0.0002498268    1.094    0.086
       335 -10.0500    128.9808     85.5502   8.6298460615e+01   3.9880935950e+01    0.2354702    0.1414976  50.59  0.001042676    1.648    0.393
       336 -10.2989     98.3597     84.0648   9.4179921426e+01   4.6422619817e+01    0.2198698    0.1873777  20.16 0.0005238291    1.190    0.159
       337 -10.7169    133.2085     82.6789   8.4462495049e+01   3.9484869221e+01    0.2529965    0.2147558 -86.94 0.0008135413    1.374    0.272
       338 -10.7746     89.5502     81.0026   9.5921065432e+01   4.8632238980e+01     0.403367    0.2366647 -47.70  0.001871507    1.783    0.439
       339 -11.4373     42.0119     80.6105   1.1177978298e+02   5.5710323438e+01    0.3499716    0.2399599 -46.08  0.001992185    1.306    0.235
       340 -10.1050     20.0524     82.0515   1.2013300612e+02   5.7528261154e+01    0.1855904     0.152633 -37.82 0.0003786469    1.022    0.022
       341 -10.2933     76.9399     80.8082   9.9833823476e+01   5.0836370323e+01    0.2167217    0.1737236  -7.64  0.000793791    1.296    0.228
       342 -10.2137     67.9676     78.8293   1.0220745048e+02   5.2629941572e+01    0.2058715    0.1638022 -10.42 0.0004526422    1.262    0.208
       343 -10.1104    110.7725     77.6321   8.8780865332e+01   4.5166850577e+01    0.1950262     0.131982  53.84 0.0004091743    1.564    0.360
       344  -9.8053     61.2945     77.6552   1.0413086154e+02   5.3835518249e+01    0.1243191    0.1084481 -89.00 0.0005926461    1.666    0.400
       345 -11.5244     52.7716     75.5270   1.0648772942e+02   5.5405047169e+01    0.3924515    0.2831393 -31.15   0.00224717    1.258    0.205
       346 -10.2361     17.7056     75.7704   1.1946408339e+02   5.8994573059e+01    0.2908032    0.1694813 -70.56  0.001402343    2.311    0.567
       347 -10.3059     28.3200     74.9867   1.1528270682e+02   5.8242868384e+01    0.2796368    0.1400663 -37.60 0.0008283494    1.760    0.432
       348 -10.1372      3.4325     75.2756   1.2469424235e+02   6.0063056908e+01    0.2323456    0.1427531 -89.16  0.001092922    2.926    0.658
       349 -10.5270    141.2567     73.7250   8.0110423200e+01   3.9260906998e+01    0.2954876    0.2353512   3.18 0.0008706976    1.659    0.397
       350 -10.2239     80.6502     74.0965   9.6626789865e+01   5.1471290369e+01    0.2090661    0.1806518  41.21 0.0003292825    1.246    0.198
       351 -10.0303     69.4955     74.0310   1.0025678405e+02   5.3299907975e+01    0.1955531    0.1265627 -44.27  0.001004207    1.531    0.347
       352 -10.8389     59.6814     74.0927   1.0363089773e+02   5.4741273259e+01    0.3217224    0.1862103  38.91  0.001612256    1.867    0.464
       353  -9.7825     37.0178     71.5216   1.1106884260e+02   5.8044883637e+01    0.1830332    0.1191866  21.02  0.001038561    1.610    0.379
       354  -9.8126    118.0314     69.6793   8.4519933580e+01   4.5031943860e+01    0.1933157    0.1687001  38.61 0.0002607377    1.098    0.089
       355 -10.2266     79.9913     69.3661   9.5379011378e+01   5.2427565261e+01    0.2551627    0.1644718 -38.49  0.001097357    1.536    0.349
       356 -11.8409     52.5524     68.6565   1.0450847503e+02   5.6722058501e+01    0.3445342    0.2516768 -53.22  0.001966749    1.579    0.367
       357  -9.9078     87.9467     69.0536   9.2791035661e+01   5.1080882930e+01    0.2168866     0.157295   4.29 0.0004732999    1.639    0.390
       358  -9.3861     63.6867     69.6826   1.0089855535e+02   5.4975534444e+01    0.1375198    0.0946274  -9.20 0.0007036165    1.646    0.392
       359 -10.1217     58.4992     69.4673   1.0263951444e+02   5.5763573740e+01    0.1331373    0.1133594 -11.89 7.779926e-05    1.040    0.038
       360 -11.1981     45.1082     68.4390   1.0715718513e+02   5.7702771283e+01    0.3219368    0.1631009 -44.98  0.001605618    1.798    0.444
       361  -9.3305     83.3081     68.3059   9.3997300339e+01   5.2037203858e+01    0.1385892    0.1005481   1.38   0.00027486    1.609    0.379
       362 -11.6573     22.3610     67.8268   1.1560464711e+02   6.0171774500e+01    0.4147438     0.255232 -58.84 0.0003771153    1.759    0.432
       363 -10.9065     17.4999     67.0046   1.1726796431e+02   6.0731798785e+01    0.3100571    0.1945951  41.26 -0.002460038    2.213    0.548
       364  -9.6264    127.0067     66.5357   8.1376273153e+01   4.3614257946e+01    0.2098682    0.1322668  52.15 0.0005317368    1.512    0.338
       365  -9.6962     75.4612     66.5088   9.5947208724e+01   5.3686446574e+01    0.1342392    0.1196674  -1.35 2.546746e-05    1.006    0.006
       366  -9.6519    136.9969     63.6851   7.8259193632e+01   4.1852061216e+01    0.1906152     0.169597  55.97  0.000716274    1.058    0.055
       367  -9.4542    101.6728     63.6894   8.7096202217e+01   4.9369407635e+01    0.1418699    0.1027538  12.63 0.0004913419    1.662    0.398
       368 -10.8789      9.4822     62.8456   1.1931298537e+02   6.2116472811e+01    0.2185357    0.1576963   1.57 0.0004584458    1.421    0.296
       369 -11.5729      5.2747     59.5015   1.2011250495e+02   6.3022286102e+01    0.3920397    0.2196314  -7.72  0.001885272    1.909    0.476
       370  -9.1032    131.2804     75.3159   8.2863539504e+01   4.1212622579e+01    0.1411546    0.1122365  11.56 0.0002859353    1.575    0.365
       371 -10.1541     31.2863     58.9792   1.0953345290e+02   6.0962134500e+01    0.1668813    0.1486915 -30.44 0.0003260084    1.224    0.183
       372 -10.4263     25.2139     61.2346   1.1260729024e+02   6.1149231799e+01    0.2382065    0.1137131 -55.94  0.000969211    2.312    0.567
       373 -11.8554     29.1545     54.4346   1.0895574925e+02   6.1974661086e+01    0.6725416    0.3355981 -14.41  0.002943485    2.797    0.642
       374 -10.6812     21.4061     57.0016   1.1286523253e+02   6.2258041544e+01    0.2465573    0.1710083  23.69 0.0009225658    1.572    0.364
       375  -9.8430     73.8314     61.1574   9.4771037008e+01   5.4858408872e+01    0.1796882    0.1401864   5.16 0.0003177757    1.283    0.221
       376 -10.9629     68.9131     60.8912   9.6324494400e+01   5.5698905649e+01    0.3910259    0.1807306  37.01  0.001484368    2.128    0.530
       377 -10.4127     39.4718     60.5910   1.0686343557e+02   5.9785974925e+01    0.2271316    0.1866862 -14.81 0.0008981566    1.021    0.021
       378 -10.9332     47.6809     58.3086   1.0303485887e+02   5.9183616909e+01    0.2140695    0.1674737  12.08 0.0006982988    1.207    0.171
       379  -9.6436    106.3609     57.6685   8.3945193539e+01   4.9368200079e+01    0.1359369    0.1084809 -86.60 0.0007040111    1.803    0.445
       380 -11.2247    225.8740     55.7702   6.1890648647e+01   2.3075700067e+01    0.2105116    0.1655914 -65.56 0.0002867156    1.081    0.075
       381  -9.3897    137.3234     56.3229   7.6108961349e+01   4.2892882708e+01    0.1406162    0.1034398  25.31 0.0007047058    1.682    0.405
       382 -10.4813     79.3665     55.2930   9.1065202752e+01   5.4854102446e+01    0.2471321    0.1197042 -33.36  0.001128309    2.147    0.534
       383 -10.0898     52.4890     55.4992   1.0033562752e+02   5.9016337261e+01    0.1259006    0.1081237  -6.74 0.0008102863    1.039    0.037
       384 -10.4624     91.7051     54.0269   8.6890975384e+01   5.2799027204e+01    0.2682332     0.176743  72.55  0.001186984    2.809    0.644
       385 -11.5431     41.6008     52.4256   1.0340698364e+02   6.0927171388e+01    0.3122298    0.2031695 -19.18  0.001161344    1.476    0.322
       386  -9.8126     53.8085     52.1525   9.8731772530e+01   5.9374494808e+01    0.1694336    0.1253769  -6.40 0.0002327272    1.286    0.222
       387 -10.8781    174.0337     50.2916   6.7704220810e+01   3.5346587542e+01    0.2162753    0.1812974 -61.70 0.0003148496    1.186    0.157
       388 -10.3094    128.8659     50.2570   7.6208208392e+01   4.5643090240e+01    0.2328803    0.1943224 -15.60 0.0007139584    1.375    0.273
       389 -10.9679     65.8012     50.2322   9.3836165685e+01   5.7883151889e+01    0.2494838    0.2010038 -44.72 0.0009917299    1.495    0.331
       390 -11.4087     11.8347     39.4741   1.1132840460e+02   6.6036050927e+01     0.401289    0.2648204  -5.53  0.002668238    1.364    0.267
       391 -11.0946     13.3046     50.4867   1.1422224069e+02   6.4079752375e+01    0.2473863    0.1517595  17.63 0.0008155367    1.692    0.409
       392 -11.2069     17.2597     46.4299   1.1128195709e+02   6.4445703332e+01    0.2325621    0.1520544 -17.93 0.0005937454    1.334    0.251
       393 -10.5801     97.8471     49.8342   8.3786500295e+01   5.2220424824e+01    0.3728122     0.274064 -80.83  0.001840857    2.415    0.586
       394 -10.3439     93.8970     49.9259   8.4926432287e+01   5.2977233621e+01    0.2240176     0.182468   3.02 0.0003344971    1.271    0.213
       395 -11.0759     73.5211     50.0855   9.1206309803e+01   5.6644077569e+01    0.1913926    0.1620802  19.49  0.001060059    1.063    0.059
       396  -9.5814    152.8786     48.3605   7.0826925861e+01   4.0479206005e+01    0.2019547    0.1072684  49.83 0.0006055821    1.797    0.443
       397  -9.7200    205.1645     46.8778   6.2510701566e+01   2.8799990166e+01    0.1571072    0.1459927  71.02 0.0002691093    1.266    0.210
       398 -10.5310    122.9652     46.2463   7.6347505404e+01   4.7482356190e+01    0.2359193    0.1944473 -41.95 0.0006942917    1.340    0.254
       399 -10.0370    114.3418     47.0290   7.8612749735e+01   4.9230253119e+01    0.1746995    0.1631649 -10.37 0.0003470022    1.143    0.125
       400 -11.3036     61.6858     45.0796   9.3478315942e+01   5.9288816974e+01    0.3060717    0.1931007 -18.19  0.000399831    1.669    0.401
       401 -11.6472     12.3526     46.3654   1.1334530396e+02   6.4860170009e+01    0.2774977    0.2502456 -56.59 0.0004634912    1.556    0.357
       402 -10.4358     80.9193     43.2046   8.6521402663e+01   5.6329814984e+01    0.1946373    0.1691529  -8.06 0.0003176048    1.132    0.117
       403  -9.9012     33.9079     44.3253   1.0368564099e+02   6.3127723358e+01    0.1719668    0.1346702  34.61  0.001135237    1.571    0.363
       404  -9.4214     25.6636     44.2580   1.0703740634e+02   6.4018134951e+01   0.09882487    0.0900624  34.39  0.000234298    1.575    0.365
       405 -10.7475    141.5010     42.3686   7.1336719323e+01   4.3865093992e+01    0.2202574    0.1951801  64.07 0.0001945225    1.016    0.016
       406 -10.7909     69.9242     41.7739   8.9522386686e+01   5.8431075159e+01    0.2399668    0.1728823 -25.12 0.0009030471    1.388    0.280
       407 -10.6862     56.8331     41.0587   9.3772188937e+01   6.0599349719e+01    0.1947287    0.1548539  20.95  0.000317177    1.136    0.120
       408 -10.5241     19.3992     41.0169   1.0857409391e+02   6.5136726302e+01    0.3244107    0.1066479  33.06  0.001492217    3.325    0.699
       409 -11.3042    103.6594     38.9998   7.8746660589e+01   5.2492903043e+01    0.2240635    0.2144585  69.58 0.0004019804    1.200    0.167
       410 -10.9555     41.3536     38.4094   9.8620464655e+01   6.3119487557e+01    0.3359695    0.1891898   1.12  0.001008911    2.247    0.555
       411 -10.0378      4.3224     35.5677   1.1336594744e+02   6.7229365306e+01    0.5329492    0.1401045 -50.07  0.002344576    3.383    0.704
       412  -9.6665    116.2814     38.6281   7.5569238448e+01   4.9899694714e+01    0.1272317   0.09956694 -72.17 0.0007013376    1.700    0.412
       413 -10.3456     86.5301     37.2569   8.2819750037e+01   5.6071256223e+01    0.2415799    0.1231882 -25.74 0.0007545784    2.203    0.546
       414 -10.8493     87.1712     33.4032   8.1318987852e+01   5.6419923970e+01     0.196258    0.1122231  47.29  0.001013193    1.573    0.364
       415  -9.9661     72.3375     36.2749   8.6796764651e+01   5.8748673404e+01     0.128475   0.08396057  17.04 0.0003304151    1.609    0.378
       416 -10.2120    209.4845     35.0430   5.9471309645e+01   2.9443266393e+01    0.1758251    0.1149325 -43.58 0.0007649498    1.552    0.356
       417 -11.6409    118.7905     33.8433   7.3540363226e+01   4.9933046624e+01    0.3138632    0.2544487 -89.01   0.00126254    1.511    0.338
       418 -10.0991     60.5527     33.9932   8.9899913379e+01   6.0979490690e+01     0.206524    0.1484009  11.66  0.001280402    1.298    0.230
       419 -10.1712     55.7072     34.1035   9.1648054748e+01   6.1711201188e+01    0.2605817    0.1888831  56.62  0.001380495    2.134    0.531
       420 -11.4246    140.8116     33.0342   6.8870399885e+01   4.5162143324e+01    0.4499872    0.2827586  52.14  0.002441711    1.422    0.297
       421 -11.7650     77.4282     33.3341   8.4162282241e+01   5.8222151154e+01    0.2886799    0.2178419  66.07   0.00122647    1.890    0.471
       422 -10.5867     29.3431     34.1242   1.0190868152e+02   6.5169862168e+01    0.1850359    0.1433837  15.97 0.0004514252    1.247    0.198
       423  -9.7765    112.7379     33.5464   7.4813784431e+01   5.1259801674e+01     0.166765    0.1158387  64.34 0.0004635563    1.477    0.323
       424 -11.4674    193.8913     35.3131   6.1374098812e+01   3.2838731545e+01    0.2137805    0.1841281 -77.21 0.0002705577    1.076    0.071
       425 -10.4603    206.7855     31.3281   5.8991855232e+01   3.0500744106e+01    0.2065592    0.1313691  76.08  0.001090914    1.397    0.284
       426 -11.7455    107.2281     29.6674   7.4877526979e+01   5.2854506150e+01    0.4114587    0.2797481 -25.17 0.0005597429    1.657    0.397
       427 -10.8843    130.0288     36.9604   7.2080651514e+01   4.7107547860e+01    0.4935889    0.2014398  42.58  0.002006742    2.647    0.622
       428 -11.1629     33.8200     30.5003   9.8698286938e+01   6.5158538535e+01    0.2879784    0.1736745  21.04  0.001609638    1.524    0.344
       429 -10.1088    159.0326     29.9734   6.4966489197e+01   4.1382257333e+01    0.1894473     0.165703  72.71  0.001219075    1.030    0.029
       430  -9.8741     51.1590     28.9434   9.1365475898e+01   6.3044769929e+01    0.1569733     0.139813  11.40 0.0003190661    1.234    0.190
       431 -12.0682     77.8585    248.2727   1.3086435063e+02   1.1397116488e+01    0.3261833    0.2146612 -87.23  0.001803388    1.615    0.381
       432  -9.6489     48.4622     33.6418   9.4134752750e+01   6.2826715045e+01    0.2634737    0.1474615   9.94  0.001351163    2.192    0.544
       433 -11.2227    242.9035     25.3627   5.4353997156e+01   2.3752261866e+01    0.2015704    0.1530942 -68.94 0.0003514722    1.074    0.069
       434 -11.8428      1.9226     25.3189   1.1089965429e+02   6.8970085090e+01    0.2546118    0.1290679 -43.22  0.001604995    1.748    0.428
       435 -12.3917     75.5556    240.7362   1.3051787908e+02   1.3323414036e+01    0.5403436    0.3765481 -89.51  0.001692743    1.456    0.313
       436 -10.0351     46.0215     24.9936   9.1761393121e+01   6.4268739005e+01    0.1541841    0.1465218  47.96  0.001127142    1.638    0.389
       437 -10.3836     60.9715     23.8963   8.5992283215e+01   6.2127308677e+01    0.2325913    0.1397429  24.69  0.001105694    1.563    0.360
       438 -10.8410      9.9681     23.0211   1.0626038667e+02   6.8657321586e+01    0.1920083    0.1273627 -32.45 0.0008104898    1.337    0.252
       439  -9.9447    149.1660    240.5346   1.1478707448e+02   1.6607744391e+00    0.2651501    0.1271513 -59.85  0.001093314    2.763    0.638
       440 -10.6248    221.9443     22.5339   5.5668920937e+01   2.8350097816e+01     0.172753    0.1346314 -68.72  0.000329437    1.109    0.099
       441 -11.4127    190.1899     20.6003   5.8554150717e+01   3.5419284568e+01    0.2318842    0.2088008 -39.18 0.0004486144    1.379    0.275
       442 -10.0962    153.0473     23.4391   6.4213436249e+01   4.3466673890e+01    0.1952633    0.1068532  63.63 0.0006592514    1.556    0.357
       443 -11.9990    117.5288     22.6541   7.0399967898e+01   5.1420384925e+01    0.3262748    0.1940682  50.88 0.0005541501    1.420    0.296
       444  -9.8418    102.0112     22.2699   7.3725082582e+01   5.4711560920e+01    0.1739508    0.1406658  49.06 0.0004283835    1.083    0.076
       445  -9.7349     78.8355     22.1594   7.9763174347e+01   5.9225670705e+01    0.1639519    0.1176032  24.02  0.001019773    1.280    0.219
       446 -10.7079     38.2392     20.9853   9.3197106991e+01   6.5812844093e+01    0.2743465      0.16778  21.02  0.001735857    1.443    0.307
       447 -11.4290    141.7329    238.4634   1.1606416486e+02   3.2980739338e+00    0.5772263    0.2333204  40.40  0.002060109    2.234    0.552
       448 -10.2349    149.4785    247.4599   1.1577179112e+02   2.9486912322e-01    0.2121412    0.1989202  89.45  0.001126467    1.230    0.187
       449 -10.6914     92.7294     18.7187   7.4808405642e+01   5.6924718084e+01     0.223343    0.1571933 -33.70   0.00137899    1.660    0.397
       450 -10.1660    198.8909     18.2310   5.7084397714e+01   3.3772558089e+01    0.1957591    0.1176341  51.22  0.001093647    1.941    0.485
       451 -10.6656    151.9562    244.7316   1.1483774293e+02   4.0303559113e-01    0.2171224    0.1944343 -54.76 0.0002601911    1.255    0.203
       452 -10.0515     74.9302     12.9476   7.7538997181e+01   6.0837817044e+01    0.2052266    0.1576286  55.33  0.001325287    1.404    0.288
       453 -10.4996     59.1005     17.5022   8.4172556875e+01   6.3119966171e+01    0.3562988    0.1585265  42.56  0.001883584    1.947    0.486
       454 -11.5724    146.1742    243.0405   1.1580716360e+02   1.6715071807e+00    0.5222696    0.2388946 -54.51  0.002003429    2.506    0.601
       455 -10.8005    140.9217    246.9206   1.1749688784e+02   1.7878272011e+00    0.2181095    0.1558057  65.44  0.001143002    1.729    0.421
       456 -10.1535    112.4718     15.5040   6.9249198660e+01   5.3186829150e+01    0.2116082    0.1593914  39.97  0.000597136    1.215    0.177
       457 -10.1508     90.4684     25.0829   7.7563755284e+01   5.6722547160e+01     0.169621    0.1191726 -24.27  0.001022058    1.567    0.362
       458 -10.8307    136.6656    246.8878   1.1839233678e+02   2.4868281893e+00    0.1776327    0.1691631  89.96 0.0005918379    1.151    0.131
       459 -10.6629     99.1568     27.1381   7.6017430159e+01   5.4783148224e+01    0.3076768     0.158848  49.02  0.001585284    1.648    0.393
       460 -10.8152    218.5239     18.9927   5.5296111352e+01   2.9484186238e+01    0.1673708    0.1071309 -43.97 0.0008801375    1.592    0.372
       461 -10.5220    179.9933     13.5462   5.8158007488e+01   3.8440156057e+01    0.1843392     0.100914  70.90 0.0003793926    1.536    0.349
       462 -10.4178    148.5170     12.9504   6.2170184413e+01   4.5539394238e+01    0.2414161    0.1361594  53.94 0.0008025653    1.558    0.358
       463 -10.1705     85.8580    245.1414   1.2887341216e+02   1.0869426113e+01    0.2892087    0.1728248  42.71 0.0006645258    1.506    0.336
       464 -11.9711     99.8499    245.8437   1.2603524396e+02   8.5874161390e+00    0.7065275    0.4785396  68.08  0.003793593    1.581    0.368
       465 -10.3576     87.0677    231.1131   1.2693757340e+02   1.3704151711e+01    0.2557128      0.14276  59.53 0.0006047764    1.906    0.475
       466  -9.4511     13.2760     11.3021   9.9967704062e+01   6.9865998005e+01    0.1080036   0.06309955  -6.45 0.0006955269    1.540    0.351
       467  -9.8229     93.4756    237.4622   1.2634813575e+02   1.1336767689e+01    0.3222014    0.1895134  52.96  0.001102531    1.604    0.376
       468  -9.5622    246.7016     10.6726   5.1467095188e+01   2.4775459367e+01   0.09455724   0.08273215  63.15 0.0002754449    1.635    0.388
       469  -9.6720      3.0372     11.0000   1.0476205673e+02   7.0844196215e+01    0.1550138   0.05043646  25.19 0.0007996272    2.923    0.658
       470 -11.0106     92.7491    233.1102   1.2595586041e+02   1.2390647656e+01    0.7535897    0.2873341  55.37  0.002616256    3.464    0.711
       471 -11.9786    200.3098    245.1454   1.0495143085e+02  -7.2856745346e+00    0.2545424    0.2154613 -11.09 0.0003360325    1.104    0.094
       472 -11.1690    201.4648    240.4966   1.0393572446e+02  -6.6814605648e+00     0.283199    0.2326829  31.37  0.001146391    1.221    0.181
       473 -11.9371     63.4388    244.1128   1.3335510281e+02   1.4318979530e+01    0.3405011    0.2957574  67.87 0.0007107754    1.093    0.085
       474 -11.5423    102.0622    239.5398   1.2477188485e+02   9.5530932428e+00    0.4078822     0.296089 -66.84 0.0006409903    1.458    0.314
       475 -10.2633    191.3894    240.3426   1.0593400779e+02  -5.1164552116e+00    0.2724488     0.181151   9.90  0.001412867    1.720    0.419
       476  -9.9327    184.9930    240.9869   1.0734587957e+02  -4.2308876739e+00     0.196172    0.1634496  68.24  0.001126142    1.692    0.409
       477 -11.5678    122.3532    240.8319   1.2058656503e+02   6.0216810855e+00    0.4836106    0.2369061  27.15  0.001971623    2.581    0.613
       478 -11.5216    167.9791    238.7821   1.1051678684e+02  -1.1029034085e+00    0.2961646    0.2492651 -67.92 0.0003776638    1.497    0.332
       479 -10.7802    157.2510    238.6081   1.1276076290e+02   6.9366208294e-01    0.2126769    0.1583442  66.85 0.0009531568    1.778    0.438
       480 -10.8191    109.9616    238.8333   1.2298091094e+02   8.4429660878e+00    0.2081534    0.1907654 -78.63  0.000318022    1.146    0.127
       481 -10.4154    198.4507    240.4536   1.0452993122e+02  -6.2187191077e+00    0.2404642    0.1874912  24.76 0.0004702625    1.181    0.153
       482 -11.3983     83.6283    238.0223   1.2851420614e+02   1.2716229858e+01    0.3115798     0.217316  68.61 0.0005764792    1.418    0.295
       483 -11.7158     44.7192    236.8126   1.3641689736e+02   1.8376025922e+01    0.3643745     0.191816  63.83  0.001136495    1.850    0.460
       484 -11.0558    218.7711    232.9536   9.9235291095e+01  -7.9764043124e+00    0.4274804    0.2259225 -25.41  0.002032794    2.122    0.529
       485 -11.5022    196.9107    234.1993   1.0376504140e+02  -4.9011714552e+00    0.3321567     0.228878 -32.07  0.001234235    1.450    0.310
       486  -9.5896    133.0089    234.9816   1.1742793189e+02   5.4535173775e+00    0.1623358    0.1505608  46.50 0.0003715862    1.009    0.009
       487 -10.0747    105.9936    235.2840   1.2336276397e+02   9.8295213043e+00    0.1867502    0.1571966  52.04 0.0001822977    1.076    0.071
       488 -11.3223    231.1664    233.8289   9.7045892237e+01  -9.8694072478e+00    0.5180083    0.2817068  -4.39  0.002258533    2.908    0.656
       489 -10.2686    183.8244    232.7032   1.0618509586e+02  -2.5574472092e+00    0.3236518    0.1973303  14.12  0.001494375    2.098    0.523
