#   1 NUMBER                 Running object number                                     
#   2 MAG_AUTO               Kron-like elliptical aperture magnitude                    [mag]
#   3 X_IMAGE                Object position along x                                    [pixel]
#   4 Y_IMAGE                Object position along y                                    [pixel]
#   5 X_WORLD                Barycenter position along world x axis                     [deg]
#   6 Y_WORLD                Barycenter position along world y axis                     [deg]
#   7 A_WORLD                Profile RMS along major axis (world units)                 [deg]
#   8 B_WORLD                Profile RMS along minor axis (world units)                 [deg]
#   9 THETA_WORLD            Position angle (CCW/world-x)                               [deg]
#  10 FWHM_WORLD             FWHM assuming a gaussian core                              [deg]
#  11 ELONGATION             A_IMAGE/B_IMAGE                                           
#  12 ELLIPTICITY            1 - B_IMAGE/A_IMAGE                                       
         1 -12.5248     73.9130     50.6915   7.4483209685e+01   5.7647154388e+01     1.236459    0.6853951 -47.62   0.00568204    2.080    0.519
         2 -11.1167     79.2743     33.6678   6.5964301669e+01   5.9303525022e+01    0.9113676    0.5413371  27.78  0.004498862    1.755    0.430
         3 -11.8433     60.1757     46.5657   7.8104537445e+01   6.0607873110e+01     1.133237    0.6891709 -32.58  0.005882171    1.549    0.354
         4 -11.3939     61.0806     36.4680   7.3739582153e+01   6.2108066436e+01     1.055807    0.6189849   5.51  0.003708267    2.356    0.576
         5 -13.2334     42.5918     45.7039   8.5073892686e+01   6.3206483665e+01    0.7675502     0.619029  55.14 0.0007574398    1.903    0.475
         6 -12.1446    124.8671     27.9118   5.1371219786e+01   5.0153855719e+01     0.962186    0.4259247  48.15  0.003019876    2.044    0.511
         7 -12.3820    120.7239     57.3394   6.2416712614e+01   4.7030726220e+01     2.384538     1.456757 -72.85  0.008316619    3.696    0.729
         8 -11.4812    165.0536     17.9405   4.1266610644e+01   4.1521045808e+01    0.6855543    0.3848247  23.73   0.00289102    3.087    0.676
         9 -11.0779      7.8892     33.5636   9.7145396614e+01   6.8735055302e+01     2.453068    0.3683557 -50.30  0.009098468    3.812    0.738
        10 -10.1722     47.1543     19.0280   7.1825316335e+01   6.6766953475e+01    0.3124623    0.2414888 -11.45  0.001173016    1.139    0.122
        11 -11.8075     26.9725     27.9826   8.5272687916e+01   6.8052715888e+01    0.5046834    0.4028975  14.59  0.002392878    1.286    0.223
        12 -12.3124     48.6230     12.9430   6.8301231722e+01   6.7300979817e+01    0.5069001    0.2856066  40.02  0.001530616    1.697    0.411
        13 -11.6802     20.0503     21.8769   8.6157776802e+01   6.9745409256e+01    0.6575978    0.2400874 -40.53  0.003190276    2.320    0.569
        14 -12.4762     16.6879     13.0595   8.3896817922e+01   7.1423876138e+01    0.8294294    0.4113728 -23.80  0.003362592    1.903    0.474
        15 -12.0438     22.8643     11.5606   7.9830574305e+01   7.0980977099e+01     0.520927    0.3144265  -8.18  0.002298761    1.579    0.367
        16 -10.3978    147.0721     16.7696   4.3583429975e+01   4.6015921384e+01    0.5128717    0.3155917  43.07  0.002508709    1.682    0.405
        17 -11.3278    136.6558     22.9382   4.7341548697e+01   4.7895990912e+01    0.8920748    0.3400362  50.37  0.003608289    2.335    0.572
        18 -12.1326    131.4825     15.0367   4.5682548405e+01   4.9945883245e+01     1.339437    0.5502921  67.72  0.005526382    2.376    0.579
        19 -10.9045    198.7833     29.4395   4.0066003183e+01   3.2134218610e+01    0.6401193     0.373814 -28.83   0.00324001    1.886    0.470
        20 -11.9299     36.5499     17.1019   7.5700908952e+01   6.8532678615e+01    0.7110757    0.4443029 -17.69   0.00312732    1.469    0.319
        21  -9.6584     31.8695     12.1817   7.5551882200e+01   6.9805451908e+01    0.1934727    0.1678568  21.42 0.0004453568    1.404    0.288
        22 -11.2610     87.1831      7.5726   5.2695644538e+01   6.0667277021e+01    0.5313038    0.3301104  59.22  0.002018622    1.571    0.363
        23 -11.1680     90.8874     21.1232   5.7253172569e+01   5.8535575116e+01    0.5880882    0.3711373 -26.69   0.00253317    1.677    0.404
        24 -11.3007     86.0526     14.2921   5.5826396909e+01   6.0266979536e+01    0.7221051    0.4077018  16.41  0.003100102    2.205    0.546
        25 -10.3684     60.4803     21.2913   6.7437000810e+01   6.4334216858e+01    0.4311899    0.2633073 -29.24  0.001124253    1.635    0.388
        26 -10.9009    178.9487     21.0731   4.0303186689e+01   3.7820711902e+01    0.5430608    0.2551208  46.59  0.001721923    2.473    0.596
        27 -11.8654     68.2279     18.0076   6.3114368875e+01   6.3358105244e+01     0.478735    0.3834497  19.27   0.00176797    1.060    0.056
        28 -11.9599    246.8043      6.6551   3.0776096177e+01   2.4249260654e+01    0.6205712     0.518935  -3.17  0.004272228    1.890    0.471
        29 -11.3297    234.2355      5.8766   3.1468369590e+01   2.6913582016e+01    0.4652875    0.3809859  71.95  0.002663448    1.342    0.255
        30 -10.8045    241.8233      3.6192   3.0498820995e+01   2.5583064386e+01    0.3334154     0.204746  62.11  0.002059487    1.817    0.450
        31 -12.2112    238.3193     15.7274   3.3205594095e+01   2.4977635604e+01    0.8996601    0.3867896  76.99  0.004296237    2.286    0.562
        32 -11.2605    226.3781     15.1293   3.4023202761e+01   2.7578031290e+01    0.4653387    0.2853993 -73.85  0.001560971    1.519    0.341
        33 -10.9186    211.2744     18.6515   3.6151904907e+01   3.0521858378e+01    0.2579739    0.2376472 -43.94 0.0003045783    1.249    0.199
        34 -11.3293    105.9198     20.4093   5.3003330472e+01   5.5347597650e+01    0.4733791    0.4245904 -39.24  0.001997375    1.287    0.223
        35 -11.5505    192.3282      9.4814   3.5806186848e+01   3.5864085061e+01    0.8861392    0.4699444 -12.44  0.004081498    2.968    0.663
        36 -12.2118    104.5789     12.6451   5.0370271437e+01   5.6423946572e+01    0.4807224    0.4758803  -3.54  0.002156764    1.174    0.148
        37  -9.7671      4.7318     12.5830   9.0480831508e+01   7.2544592516e+01    0.2348057    0.1807593  17.88  0.001723196    1.495    0.331
        38  -9.3339      5.4662      9.4239   8.8569121287e+01   7.2973399606e+01    0.1732047   0.08836656 -39.75 0.0005739039    1.644    0.392
        39 -10.9645    211.5096     10.7929   3.4319983611e+01   3.1328554374e+01    0.3484869    0.2855342  22.62   0.00154444    1.790    0.441
        40 -10.5333    213.4211      5.7607   3.3019653824e+01   3.1424748616e+01    0.2162084    0.2054386  69.73 0.0007911123    1.302    0.232
        41 -10.3137     65.6956     10.2401   6.0470670147e+01   6.4669633240e+01    0.2865054    0.1936413  44.44 0.0009405634    1.372    0.271
        42 -10.0120     62.6409      6.7856   5.9921273339e+01   6.5574741792e+01    0.3367532    0.2133491  26.19  0.001895346    1.414    0.293
        43  -9.6570    168.8223      9.7236   3.8474806979e+01   4.1430465890e+01    0.3258194    0.1511137  52.67  0.001509922    2.082    0.520
        44  -9.2523    163.1089     10.0718   3.9290583920e+01   4.2776497072e+01    0.1986488    0.1594934  48.93 0.0006885888    1.291    0.225
        45  -9.5364      1.0000      8.1339   9.0648491672e+01   7.3509815407e+01    0.2134328   0.05145047 -47.89 0.0008945607    3.617    0.724
        46  -9.3180     78.4815      7.5393   5.5140535098e+01   6.2460888296e+01     0.227805    0.1494673  49.48 0.0005742428    1.362    0.266
        47 -11.3199     75.3105      3.4650   5.4274767480e+01   6.3455648480e+01    0.6807361    0.3004461  47.31   0.00323657    1.853    0.460
        48 -10.6854    184.1018      4.9026   3.5489324283e+01   3.8242722510e+01     0.422787    0.2945904 -36.95  0.002138091    1.519    0.341
        49  -9.6010    154.2720      7.2659   3.9649357799e+01   4.5172394095e+01    0.3660991    0.1690632  74.04   0.00135735    2.037    0.509
        50 -10.5415     41.6064      4.4226   6.7045492637e+01   6.9352996464e+01    0.3680813     0.202457   5.87  0.001950687    2.096    0.523
        51 -10.9780    218.8056      3.4152   3.2076214262e+01   3.0475158046e+01    0.3174763    0.2434697 -36.24  0.001115483    1.424    0.298
        52 -10.5491    223.6442      1.9032   3.1390965091e+01   2.9577120302e+01    0.3296292    0.1771798  74.00  0.001268115    1.695    0.410
        53 -10.9575    176.9079      5.8003   3.6481202887e+01   3.9863652796e+01    0.3944446    0.1920207  82.74  0.001846554    2.045    0.511
        54  -9.8691    169.5099      2.8570   3.6515881935e+01   4.1897147312e+01    0.3006263    0.1722807 -66.63  0.001523481    1.933    0.483
        55 -10.7862    105.1268      1.7610   4.6095024426e+01   5.7226734888e+01     0.900503    0.4482494  87.69  0.003321366    4.160    0.760
        56 -11.0206    109.8039      1.6303   4.5091882528e+01   5.6175855003e+01     1.055158    0.3580956  73.55  0.003401802    4.596    0.782
        57 -12.1498    134.3066      2.5502   4.1095319989e+01   5.0371962610e+01    0.4147311    0.2478769  72.94 0.0005781877    1.535    0.348
        58 -10.0119    142.5685      3.2255   4.0068036289e+01   4.8340420356e+01    0.3743841    0.1897459  71.66  0.001819723    1.772    0.436
        59 -10.2490    122.5806      5.0211   4.3889149290e+01   5.2948359722e+01     0.375805    0.1521425  65.06  0.001640659    2.155    0.536
        60 -11.0014    207.5686      2.5305   3.2768841459e+01   3.3057028367e+01    0.2915138    0.2002044  77.69 0.0004626481    1.296    0.228
        61 -10.0177    203.6762      1.6824   3.2897176198e+01   3.4018326595e+01    0.3203282    0.1442415  61.46  0.001428598    2.094    0.523
        62 -10.2174    228.3745      3.1738   3.1320479038e+01   2.8434081854e+01    0.2995351    0.2064648 -40.75  0.001478112    1.429    0.300
        63 -11.4050      2.8016      1.9782   8.6465982469e+01   7.4276578433e+01    0.3929085    0.1788194  10.61  0.002195725    2.335    0.572
        64 -10.1928     12.8137      1.7350   8.0288951462e+01   7.3381890716e+01    0.3159647    0.1369596  26.27  0.001359149    2.212    0.548
        65  -9.5511    158.3836      2.4037   3.7704017965e+01   4.4605532418e+01    0.3752101     0.154225  49.97  0.001656858    2.386    0.581
        66  -9.1536    151.7891      1.3469   3.8233477512e+01   4.6279225846e+01    0.2454569    0.1083237  73.86 0.0007408144    2.066    0.516
        67  -9.3155    122.3764      1.3367   4.2651416030e+01   5.3288231957e+01    0.2628595   0.09229182  60.92 0.0009443104    2.237    0.553
        68 -10.3696     82.2435      1.3157   5.1360494300e+01   6.2223019447e+01     0.197989   0.09692375  54.32 0.0003455579    1.742    0.426
        69 -10.8405    135.0199     45.6970   5.5126931023e+01   4.5455487570e+01    0.4285536    0.2247513  55.92  0.001001869    1.789    0.441
        70 -10.1661    142.9430    249.9559   9.9596561141e+01   2.8771499538e+00    0.1980885    0.1615712  38.85  0.001041469    1.058    0.055
        71  -9.6862    234.5685    149.9765   6.3265026275e+01   5.0680949760e+00    0.2977743    0.1829593 -14.69  0.001365529    2.063    0.515
        72 -10.1176    239.7076    146.6212   6.1694753765e+01   4.7524516586e+00    0.2412461    0.1886723 -26.66 0.0006171116    1.120    0.107
        73 -10.6841    249.4906    141.3451   5.9024991732e+01   3.9738047019e+00    0.3962928     0.234209 -28.51  0.002010211    1.567    0.362
        74  -9.0201    107.6991    145.9772   9.0671482980e+01   3.0692883373e+01    0.2161058    0.1914502 -59.17 0.0003888349    1.105    0.095
        75 -10.7026     33.4589    144.4319   1.1134484143e+02   4.1478749026e+01    0.4460134    0.2687508  50.87  0.001863265    1.802    0.445
        76  -8.7524    233.6866    143.3160   6.1981186600e+01   6.3815520556e+00     0.133472     0.105176 -63.89 0.0007035065    1.643    0.391
        77  -9.9103    133.0234    140.6109   8.2734022851e+01   2.7132085985e+01    0.3233256    0.2367911 -48.83 0.0008617702    1.348    0.258
        78  -9.5771     27.3006    140.0206   1.1249086567e+02   4.3153106601e+01    0.3174804    0.1979566 -65.73  0.000957666    1.343    0.256
        79 -11.3911     22.6866    135.4198   1.1320482652e+02   4.4694016750e+01    0.6812653    0.4424794  31.51  0.003813469    1.760    0.432
        80 -11.8381     30.0055    132.9402   1.1074304993e+02   4.4671224705e+01    0.5984622    0.3565942  88.87 0.0003465161    1.859    0.462
        81 -10.3589     47.1083    135.9417   1.0616273845e+02   4.2177967005e+01    0.4953054    0.1734242 -63.70  0.001366176    2.469    0.595
        82  -9.8044     79.7427    137.3721   9.6801456607e+01   3.7488614181e+01    0.4241961    0.2595605 -31.52  0.001769564    2.176    0.540
        83 -10.2659     67.1572    135.8000   1.0019910327e+02   3.9709403792e+01    0.4147478     0.213258 -45.22  0.001608545    2.000    0.500
        84 -10.1324     39.8361    138.1551   1.0863837830e+02   4.2407731321e+01    0.3005682    0.1982638  26.70  0.001348031    1.752    0.429
        85  -9.8345    244.9683    134.6882   5.8307597173e+01   5.8668628727e+00    0.1828903    0.1663754 -29.63  0.000507492    1.082    0.076
        86 -10.7181     93.7807    131.9835   9.1565832198e+01   3.6557867836e+01    0.6124585    0.1750449 -50.46  0.001866187    3.211    0.689
        87  -9.0682     92.4673    128.5290   9.1177588275e+01   3.7629185667e+01    0.2454855    0.2330213 -71.36 0.0009105476    1.051    0.048
        88  -9.4064     87.3290    135.3143   9.4165106247e+01   3.6807397271e+01    0.1541286     0.115402 -23.21 0.0007044424    1.674    0.403
        89  -9.9160     74.1532    132.3947   9.7451086836e+01   3.9570116162e+01    0.3302552    0.2155638 -35.15  0.001495892    1.783    0.439
        90  -9.9675     62.0750    132.0072   1.0100140846e+02   4.1346033283e+01    0.4289418    0.2812998 -39.06  0.002048632    1.665    0.399
        91  -9.6194     39.3845    133.2876   1.0802477440e+02   4.3675190046e+01    0.2186281    0.1703022   4.43 0.0006462264    1.631    0.387
        92  -9.8717    104.0208    130.8468   8.8356091620e+01   3.5031722163e+01    0.2546838    0.2158782 -32.61            0    1.238    0.192
        93 -10.7551     10.2086    127.6482   1.1583417799e+02   4.7548696799e+01    0.6051095     0.201967 -59.32  0.002636561    2.256    0.557
        94  -9.3026     78.8576    128.8201   9.5297995066e+01   3.9756566329e+01    0.2285357    0.1930394 -35.61 0.0004408985    1.233    0.189
        95  -9.0974    223.8356    126.8016   5.9977647110e+01   1.1146599697e+01    0.1946813    0.1539401 -54.12 0.0004560862    1.326    0.246
        96  -9.6822      2.2712    126.0769   1.1794443930e+02   4.8432207437e+01    0.2613582    0.1726523  78.14  0.001079486    1.534    0.348
        97  -9.7471     81.8208    125.1293   9.3599719665e+01   4.0210280471e+01    0.3277237    0.2745858  34.04  0.001715595    1.274    0.215
        98  -9.6260     58.5044    118.1109   9.9359870585e+01   4.5280520453e+01    0.3013826     0.153636 -53.84  0.001148129    1.719    0.418
        99 -10.5903     55.1604    123.3402   1.0146676833e+02   4.4396868491e+01    0.5472457    0.3022164 -32.27  0.001954339    2.410    0.585
       100 -11.3991     45.0567    119.4498   1.0391610897e+02   4.6536862138e+01    0.5891547    0.3600084  89.11  0.002640454    2.192    0.544
       101 -10.5266    217.0926    138.1495   6.3716472289e+01   1.0391280177e+01    0.4233437    0.3160343 -59.00  0.001600274    1.597    0.374
       102  -9.3510    238.6709    125.3322   5.7251310940e+01   8.5938300054e+00    0.1387025    0.1011296 -63.81 0.0007051835    1.718    0.418
       103 -12.2321    103.9649    122.4422   8.6378671653e+01   3.7064567790e+01    0.4388026    0.4096059  -2.61 0.0007323353    1.142    0.124
       104 -10.8859     18.8084    122.3134   1.1258341529e+02   4.8240953830e+01    0.2341102     0.176634 -67.78 0.0002458206    1.089    0.082
       105  -9.7985     49.5535    123.1376   1.0318369852e+02   4.5113653470e+01    0.3181613    0.2413929  -9.27  0.001100842    1.673    0.402
       106  -8.8764    139.5963    122.1909   7.6562651395e+01   2.9966638779e+01    0.2173696     0.147292 -34.49 0.0003468911    1.559    0.359
       107  -9.2427     71.3350    120.8918   9.5895835633e+01   4.2844261335e+01    0.2140906    0.1736914 -52.07 0.0006500052    1.134    0.118
       108 -10.2112     22.8698    127.0356   1.1202075055e+02   4.6755432028e+01    0.1922077    0.1724688 -66.24 0.0003161478    1.090    0.083
       109  -9.5362    185.3253    119.0101   6.5266566134e+01   2.0616226647e+01    0.2603701    0.1741942  48.39  0.001180161    1.572    0.364
       110  -9.9731     33.2658    118.5527   1.0750424945e+02   4.7950830030e+01    0.3203891     0.202724  44.86  0.001663818    1.812    0.448
       111  -8.7427     13.7033    118.7335   1.1364808264e+02   4.9488868629e+01    0.1264515   0.08124516 -45.30 0.0002535555    1.514    0.340
       112  -9.6589    113.7656    115.7873   8.1885125542e+01   3.6757179698e+01     0.338273    0.2415009 -35.15  0.001526306    1.466    0.318
       113  -9.6639     79.7428    115.0058   9.1915775802e+01   4.3017235595e+01    0.4050144    0.2861094 -89.76  0.001786042    2.037    0.509
       114  -9.3548     67.4106    114.3009   9.5676885217e+01   4.5026847433e+01     0.373215    0.2586807 -83.52  0.001716521    1.879    0.468
       115  -8.9879     68.3780    110.7017   9.4537081096e+01   4.5767937936e+01    0.2386405    0.1499905  37.10 0.0006836007    1.714    0.416
       116  -8.9107     65.6898    110.6833   9.5409471311e+01   4.6150387686e+01     0.211346    0.1310789 -42.90 0.0006202187    1.553    0.356
       117 -11.6123     49.5215     98.9583   9.8152679037e+01   5.1042076931e+01     1.700349    0.6013635 -48.82  0.006509494    2.412    0.585
       118 -10.7884     42.7175     94.5088   9.9524286830e+01   5.2857484011e+01    0.3667925     0.308526  38.43  0.000760845    1.374    0.272
       119 -11.8677      7.1060     88.7586   1.1123008693e+02   5.7074621651e+01    0.5521205    0.4367503  19.78  0.002606807    1.541    0.351
       120 -11.5853      9.9248     97.6247   1.1172673267e+02   5.4826304033e+01    0.8998806    0.6698871  56.25  0.001187618    1.645    0.392
       121 -11.5239     17.1859    101.0396   1.0981000431e+02   5.3538699973e+01    0.3402596     0.296493   4.92 0.0002861697    1.367    0.268
       122 -11.9824     34.8285     93.7923   1.0219509057e+02   5.3821349274e+01     1.151458    0.7257875 -49.88  0.004120707    1.336    0.251
       123 -11.5043     27.0978     85.7677   1.0326114835e+02   5.6388634043e+01    0.5426676    0.4737313 -31.98  0.000611318    1.121    0.108
       124 -12.2656     42.7939     85.1575   9.7228372572e+01   5.5023905945e+01    0.9701627    0.5092757  18.99  0.004493877    2.265    0.558
       125 -11.2654     18.7333    106.0431   1.1012963723e+02   5.2222483832e+01    0.2505417    0.2216802 -44.59 0.0002096988    1.145    0.127
       126 -11.8830     24.4877    113.7297   1.0950734515e+02   4.9905824283e+01    0.8450142    0.3539225   8.04  0.003283514    3.881    0.742
       127 -12.3338     25.2536    108.2509   1.0833757314e+02   5.1183464420e+01     1.061322    0.6552693 -13.75   0.00538266    2.167    0.538
       128 -11.9079     18.3261     90.0926   1.0740861658e+02   5.6056642854e+01    0.5059196     0.250789 -60.05  0.001823906    1.603    0.376
       129 -10.2905      7.0310    114.2952   1.1511144225e+02   5.0999544154e+01    0.2366353     0.221787 -30.76 0.0008648876    1.258    0.205
       130 -12.6019      2.2036    111.2891   1.1622311096e+02   5.1999857310e+01    0.3684428    0.2178347 -72.72 0.0006051333    1.356    0.263
       131 -11.2749      3.9978    104.8589   1.1479782809e+02   5.3441915132e+01    0.4226263    0.3419671  40.03  0.001969893    1.499    0.333
       132  -9.1877    126.7014    113.9439   7.7811916808e+01   3.4543337891e+01    0.2266087    0.2021127 -43.83 0.0006732925    1.096    0.088
       133 -11.5820     22.3653     94.9053   1.0688908832e+02   5.4623833981e+01    0.5649271    0.3618449   2.57  0.002000551    1.939    0.484
       134 -10.4379    107.6672    112.1108   8.2686710281e+01   3.8798610875e+01     0.514549     0.347017 -64.26  0.002214916    1.769    0.435
       135  -9.5714    103.6782    112.3673   8.3927478094e+01   3.9499026917e+01    0.2943493    0.2457066  86.49 0.0006689863    1.487    0.328
       136 -10.9903    101.3890    109.2745   8.3800810198e+01   4.0648024692e+01     0.796611    0.5390871   0.53  0.002961941    2.343    0.573
       137  -9.5944     94.0936    112.2212   8.6775106123e+01   4.1284499209e+01     0.278786    0.2285928 -66.77 0.0008699183    1.315    0.239
       138  -9.7424     48.8507    112.5213   1.0133730525e+02   4.7829079554e+01    0.2620964    0.2145265 -77.28  0.001029212    1.249    0.200
       139 -11.0512    170.2829    110.5082   6.6270589345e+01   2.5660928814e+01    0.4413408    0.3456314 -34.86  0.001225858    1.264    0.209
       140 -10.3020    120.3670    109.0975   7.8256929402e+01   3.6947948734e+01     0.400425    0.2749815 -34.15  0.001763892    1.537    0.349
       141 -11.4878     79.5208    108.3692   9.0368626643e+01   4.4650286687e+01    0.6483649    0.3850877  30.79 0.0008893634    1.844    0.458
       142  -9.3276     59.0467    109.8208   9.7396738975e+01   4.7250340970e+01    0.2120712    0.1850438  81.35 0.0004325487    1.314    0.239
       143 -10.2525    129.3765    110.2097   7.6096603388e+01   3.4809776123e+01    0.2368681    0.2065035 -46.80  0.001177044    1.130    0.115
       144  -9.9069    157.3450    106.6584   6.8155854354e+01   2.9375973931e+01    0.3934556    0.2903982 -13.26   0.00172698    1.757    0.431
       145 -10.8446    143.4955    105.9804   7.1300099130e+01   3.2638937477e+01    0.3736623    0.3253132 -80.82  0.001498735    1.333    0.250
       146 -11.6607    145.4115    100.0620   6.9197443611e+01   3.3440027663e+01    0.4915748    0.4496043  31.97 0.0003284882    1.128    0.114
       147 -10.6325     89.4800    104.5167   8.6205889256e+01   4.3902339115e+01    0.4831187    0.3558634 -33.24 0.0005576594    1.403    0.287
       148 -10.2333     86.0070    103.7474   8.7103756265e+01   4.4677035045e+01    0.4399105    0.3197456 -28.72  0.001506324    1.505    0.335
       149  -9.5783     57.2326    102.4395   9.6308436745e+01   4.9268362505e+01    0.2745154    0.1820648 -54.94 0.0008625536    1.352    0.260
       150  -9.4008    246.1759    102.5975   5.1166221056e+01   1.1017445354e+01    0.1652103    0.1262914  40.27 0.0006125795    1.597    0.374
       151  -8.5422     82.2544    102.6509   8.8020424445e+01   4.5559019262e+01    0.1452563    0.1167056 -84.82 0.0005559322    1.595    0.373
       152  -9.5195    208.8732    100.9408   5.6432233196e+01   1.8874667474e+01    0.2530545    0.2180375  -0.58 0.0004052276    1.383    0.277
       153  -9.7757    209.6706     97.6809   5.5506811940e+01   1.9280202042e+01    0.2603984     0.203087 -27.65  0.001349752    1.323    0.244
       154 -10.3838     67.1111     82.0570   8.7441267789e+01   5.2594276383e+01    0.4105922    0.3300172 -27.65  0.002239676    1.190    0.159
       155 -11.3414     67.7841     95.6800   9.1003077781e+01   4.9424655724e+01    0.5943211    0.4683492  18.30  0.002906506    1.393    0.282
       156 -11.0863     89.8028     89.7408   8.1978217144e+01   4.7182701825e+01    0.7416916    0.3944825 -30.90  0.002861048    2.331    0.571
       157 -10.3568     77.5073     96.9329   8.8051745674e+01   4.7653519811e+01    0.3694255    0.2741789  66.56  0.001364975    1.872    0.466
       158 -11.2635     79.2878     92.9955   8.6372811926e+01   4.8263664440e+01    0.8243895     0.535646  40.71  0.003887776    1.650    0.394
       159 -10.5385     80.3513     83.8178   8.3349606965e+01   5.0112406585e+01    0.5927642    0.3574618 -39.07  0.002702517    1.597    0.374
       160 -11.5016     74.4182     78.1092   8.3657247031e+01   5.2307911516e+01    0.6624734    0.6298725  62.85  0.003868682    1.267    0.211
       161 -10.0168     57.0317     97.4489   9.5172594365e+01   5.0481142581e+01    0.2804438    0.2331756 -59.07  0.001565217    1.161    0.139
       162 -10.2222    117.5972     93.1924   7.4565076929e+01   4.0989074979e+01    0.4301192     0.313052   1.45  0.001825665    1.909    0.476
       163 -11.5942    120.9870     88.6157   7.2264166628e+01   4.1215353641e+01    0.8978317    0.4147801 -43.23  0.003049723    2.142    0.533
       164 -10.6220    125.8899     93.8726   7.2467235465e+01   3.9069161691e+01    0.3711527    0.3378538 -34.25 0.0008748598    1.083    0.077
       165  -9.7858    122.3223     93.6697   7.3383750473e+01   3.9883137567e+01    0.2840718    0.1514767 -46.91  0.000616706    1.893    0.472
       166 -10.2474     66.5693     88.6833   8.9529325377e+01   5.1202437718e+01    0.3430808    0.2357885 -27.82 0.0007951569    1.557    0.358
       167  -9.3901    160.7405     93.8797   6.3909066998e+01   3.1141131245e+01    0.2954165    0.2067503  83.58  0.001153639    2.077    0.518
       168  -9.6226    103.3368     93.3239   7.8785659270e+01   4.3861928545e+01    0.4715711    0.3325045 -22.17   0.00211848    1.688    0.407
       169 -11.1228     99.5356     90.9553   7.9256568352e+01   4.5110484003e+01     0.997589     0.598693   9.40  0.003478363    3.222    0.690
       170 -11.4062    113.7430     83.8274   7.2862934866e+01   4.3733024439e+01    0.5680824    0.4594053 -38.38  0.002856122    1.220    0.180
       171 -10.6113    183.5995     85.8845   5.7089088769e+01   2.7269593861e+01     0.720722    0.2925322 -46.27  0.002581984    2.496    0.599
       172 -10.3305    165.7836     83.6932   5.9997424025e+01   3.1865481760e+01    0.3943909    0.3085767 -52.78  0.001174203    1.306    0.235
       173 -11.2480    142.7400     84.2812   6.5334287907e+01   3.7182078870e+01    0.5623128    0.3362652  42.18  0.001166376    1.733    0.423
       174 -10.2391    127.5217     82.9235   6.8780590626e+01   4.0915326544e+01    0.3048666    0.2627455  22.43 0.0009963482    1.234    0.189
       175 -10.5149    126.7500     77.4423   6.7306114157e+01   4.2138562451e+01    0.4327533    0.3173944 -10.25 0.0007188045    1.736    0.424
       176  -9.9997     60.2875     83.3358   9.0273100398e+01   5.3287730827e+01    0.3022061    0.2293172 -45.44 0.0007793527    1.192    0.161
       177 -10.7454     58.0059     77.8133   8.9515506563e+01   5.4810784819e+01    0.3424156    0.2627404 -55.86  0.001001234    1.341    0.254
       178 -11.5772     53.0632     75.9339   9.0823155919e+01   5.5868389810e+01     0.612492    0.4106759 -53.66  0.002745382    1.442    0.307
       179 -10.7719     47.0399     74.8460   9.2819431982e+01   5.6845061430e+01    0.3566958    0.2351315 -47.32 0.0008312285    1.332    0.249
       180  -9.3704     21.1354     80.8271   1.0442647188e+02   5.7997207723e+01    0.1806725     0.167904 -84.69 0.0007176486    1.262    0.207
       181  -8.5865    249.2845     80.7099   4.6003427874e+01   1.3914478526e+01    0.1311249   0.08697388 -61.36 0.0002109766    1.533    0.348
       182 -11.2131    109.1547     80.8079   7.3266419674e+01   4.5298346551e+01    0.6047777    0.4007137  -8.54  0.002464916    2.274    0.560
       183 -11.8005    103.9551     74.7471   7.2900225710e+01   4.7559979263e+01    0.5721299    0.2890882 -37.85            0    1.988    0.497
       184 -10.3856    232.8537     77.7172   4.7377215934e+01   1.7676021882e+01    0.3607537    0.2343286 -36.98  0.001817013    1.411    0.291
       185 -10.6962     94.1491     76.2563   7.6438634446e+01   4.9201193592e+01    0.5796629    0.3795554  27.62  0.001956739    1.690    0.408
       186 -11.5910     86.1808     73.3954   7.8123029529e+01   5.1256703029e+01    0.7764456    0.4798671  36.87   0.00297958    1.654    0.395
       187 -11.4364     91.4656     63.0841   7.2927474385e+01   5.2235003720e+01    0.7410926    0.3676535  51.36  0.002805533    2.374    0.579
       188 -12.0883     89.6764     57.2350   7.1461730303e+01   5.3621451487e+01     1.306707     1.019797  83.03   0.00639306    2.090    0.522
       189 -11.2732     77.8522     66.1388   7.8571697076e+01   5.4153454061e+01     0.686785    0.5650755 -86.21  0.003294951    1.866    0.464
       190  -9.6829    175.0161    246.9501   9.2797483349e+01  -1.4865800996e+00    0.2026682    0.1642641  23.80  0.001086942    1.016    0.016
       191 -10.5192     81.9687     40.2055   6.7659923926e+01   5.7850990503e+01    0.4618467    0.3205083  65.03  0.001630692    2.150    0.535
       192 -11.1712    127.7807    241.7752   1.0162382516e+02   6.5793096183e+00     0.328565    0.3083279  15.23  0.001979093    1.172    0.146
       193 -11.6733     13.9600     74.8570   1.0590668219e+02   5.9849001732e+01    0.5485865    0.3149808 -62.56  0.002037599    1.490    0.329
       194 -10.0399     14.6935     67.3571   1.0386929307e+02   6.1460135928e+01    0.3373232    0.2190907  12.31  0.001808054    1.757    0.431
       195 -11.5933      1.9648     71.3026   1.0993653123e+02   6.1313277424e+01    0.6379076    0.1669573 -63.84  0.002596662    2.789    0.641
       196 -12.5567      5.9564     62.4900   1.0638264154e+02   6.3040501871e+01      0.71644     0.436639 -12.04  0.003757487    1.801    0.445
       197 -12.2781    186.1164     69.8161   5.2364619525e+01   2.9413400385e+01     1.089094     0.583084 -41.77   0.00353536    1.786    0.440
       198  -9.9069     63.8833     74.7099   8.6397963821e+01   5.4646998811e+01    0.5277297    0.3221498  38.10  0.002543191    1.778    0.437
       199 -10.8139    152.1378     91.6888   6.5244839118e+01   3.3570030843e+01    0.4544874    0.3560239 -67.63  0.001853558    1.511    0.338
       200 -11.7010     32.8870     72.0311   9.7624384393e+01   5.8968285922e+01    0.7949476    0.2493035  28.38  0.003150715    3.370    0.703
       201 -10.4911     40.9992     69.0009   9.3501231099e+01   5.8790419936e+01    0.3175835    0.2478319   2.82  0.001146592    1.344    0.256
       202  -9.9505     41.4631     72.4877   9.4327888302e+01   5.7991189495e+01    0.2918234    0.1773625 -41.03 0.0008983341    1.432    0.302
       203  -9.3859    206.1812     73.3623   5.0067098088e+01   2.4174467378e+01    0.1950968    0.1315905  76.63 0.0005339303    1.692    0.409
       204  -9.8187    153.0247     72.8997   5.9614793141e+01   3.6830557560e+01    0.4929945    0.1713956  43.05  0.001514477    3.447    0.710
       205 -11.8818    123.0129     69.0298   6.5643658761e+01   4.4522462561e+01    0.5462987     0.515541  28.57  0.001677731    1.033    0.032
       206  -8.6632     19.6506     71.6789   1.0288585723e+02   6.0163238901e+01    0.1395823   0.07581311 -34.26 0.0007048682    1.742    0.426
       207  -9.9755    172.2165     68.5899   5.4503793487e+01   3.2940302738e+01    0.3147673    0.2514585  12.26  0.001116999    1.636    0.389
       208 -10.2353    171.5211     64.5376   5.3496370178e+01   3.3765057578e+01    0.4625362    0.3428561 -69.59   0.00140803    1.553    0.356
       209  -9.7340    162.0713     70.7764   5.7096005401e+01   3.5021755933e+01    0.3035191    0.2352574 -63.50  0.001324361    1.435    0.303
       210  -9.2732     22.8943     66.3763   1.0020033759e+02   6.1071441034e+01    0.3782722    0.3331629 -62.69   0.00245773    1.256    0.204
       211 -11.3913    219.7536     66.5829   4.6500657397e+01   2.2207080467e+01    0.5238484    0.3393734  65.98  0.002007885    1.631    0.387
       212  -9.6959    192.4084     65.7108   5.0246538362e+01   2.8582158842e+01    0.2712157     0.205015 -72.20 0.0006969842    1.433    0.302
       213  -9.4124     53.2227     66.0079   8.7711205956e+01   5.7936419163e+01    0.2759666    0.1753998  38.90  0.001090143    1.791    0.442
       214 -10.3080    200.0220     63.8219   4.8588519826e+01   2.7095247976e+01    0.5224618    0.3166251  89.25   0.00227688    2.229    0.551
       215  -9.6954    105.6466     63.7945   6.8780029225e+01   4.9241513916e+01    0.2995934    0.1888585 -39.50  0.001383689    1.601    0.376
       216 -10.9287    106.7980     58.8261   6.6749892050e+01   4.9857466803e+01    0.3932593    0.3183602  81.53 0.0008206118    1.693    0.409
       217  -9.4638     64.9967     62.0167   8.1845444479e+01   5.7046334231e+01    0.3283462    0.1818972 -46.48  0.001173957    1.773    0.436
       218 -10.4334     60.0845     63.5954   8.4251296227e+01   5.7471318815e+01    0.4204091    0.2835971  -6.38  0.001299939    1.773    0.436
       219  -9.7831     57.3254     61.2970   8.4546574766e+01   5.8318230077e+01    0.2626334    0.1917746  -9.12 0.0006035044    1.446    0.309
       220 -11.2878     21.1060     46.7734   9.5170789137e+01   6.5239930528e+01    0.4608634    0.2872658 -35.21  0.002702141    1.318    0.241
       221 -12.1196     26.2036     56.2479   9.5881548152e+01   6.2915403680e+01     1.162481    0.7350705   7.49  0.006590276    1.734    0.423
       222 -10.4217     66.0037     53.6820   7.8513812804e+01   5.8443110516e+01    0.3603016    0.3059308 -74.67 0.0007615916    1.779    0.438
       223 -11.3638     26.7104     47.4486   9.2807798656e+01   6.4610501847e+01     0.670282    0.3097962 -24.47  0.002962395    2.657    0.624
       224 -10.0589     22.2870     36.8320   9.1108345158e+01   6.6997399598e+01    0.6542375    0.3801145  49.76  0.003104036    3.487    0.713
       225  -9.1491    163.7819    243.6010   9.4544353985e+01   7.3438602688e-01    0.1841018    0.1010921  42.77 0.0009495746    1.675    0.403
       226  -9.7754     68.0400    240.4909   1.1362922613e+02   1.5421183762e+01    0.1836477    0.1038845  38.78  0.001028125    1.579    0.367
       227 -10.9398     52.6829     49.1270   8.2086902931e+01   6.1258681555e+01     0.476513    0.3969358  61.14  0.002764447    1.836    0.455
       228 -11.0501    148.9451    237.9724   9.6756684808e+01   3.9623805316e+00    0.4374916    0.2295994  30.61  0.001677339    1.778    0.438
       229 -12.0535     58.1741     29.9674   7.2157785899e+01   6.3544504475e+01    0.3694467    0.2590065  -2.41 0.0009089836    1.424    0.298
       230 -11.7241     49.2212     30.4432   7.6059713876e+01   6.4849106924e+01     0.779898    0.3196241  39.27  0.003553299    2.497    0.600
       231 -12.2756     48.3945     60.3365   8.7787060769e+01   5.9702795655e+01    0.7783244    0.5456676  31.28  0.003930321    1.544    0.352
       232 -11.4422    234.3738     60.9772   4.3399302618e+01   1.9906238782e+01    0.4601615    0.3773355  72.82  0.001761718    1.296    0.228
       233  -9.5062    156.7419     63.4034   5.6025964277e+01   3.7528512094e+01    0.3821031    0.1912945  43.40  0.001039095    2.184    0.542
       234  -9.5950    161.1743     61.6375   5.4623576469e+01   3.6735925218e+01     0.288347    0.2217655  60.62 0.0008692245    1.276    0.216
       235  -9.8701    167.7429    237.9861   9.2920929892e+01   1.0296629850e+00    0.1515324    0.1100899 -40.76 0.0008899569    1.563    0.360
       236 -10.7561    198.4035    232.8578   8.6020036155e+01  -2.8459289828e+00    0.3420769    0.3036164   8.68  0.002305202    1.140    0.123
       237 -12.5047    117.8229     43.6154   5.8475162215e+01   4.9775531692e+01    0.8910033    0.6146141  74.45  0.003907828    1.881    0.468
       238 -11.2840    114.1999     38.2176   5.7486563242e+01   5.1343318408e+01    0.4015054    0.3062001  -8.22 0.0009733074    1.466    0.318
       239  -9.2256    150.6804     60.7010   5.6470850824e+01   3.9428661046e+01    0.2176825    0.1951688 -37.94 0.0007122775    1.143    0.125
       240  -9.1386    147.3463     60.7157   5.7185080654e+01   4.0230612220e+01    0.2714812    0.1312106  56.16  0.000831977    2.019    0.505
       241 -11.1721     40.8879     57.0589   8.9807406982e+01   6.1257396064e+01    0.3830861    0.2294519  31.86  0.001680815    1.826    0.452
       242 -10.7314    136.3987     56.8393   5.8412623836e+01   4.3464319378e+01    0.6893464    0.4348308   4.89  0.002703447    2.738    0.635
       243 -10.4702    135.3002     50.8483   5.6737788200e+01   4.4641735543e+01    0.3566339    0.3010359 -84.95  0.001690565    1.384    0.277
       244 -11.3887    145.8846     47.3902   5.3367607218e+01   4.2598527250e+01    0.9796916    0.4236051 -22.40  0.003453016    3.264    0.694
       245  -9.9598    145.5191     39.4500   5.0951394365e+01   4.3772519045e+01    0.2289064    0.2095084  -1.89 0.0005506845    1.212    0.175
       246 -10.3986    162.5734     43.6737   4.9103957644e+01   3.9039735494e+01    0.5354906    0.3192091  57.22  0.002538339    1.574    0.365
       247 -11.2708    156.5978     53.2016   5.3020234704e+01   3.9145809285e+01      1.03393    0.5728544 -43.22  0.004565103    1.853    0.460
       248  -9.5167    172.2972    238.6768   9.2107119292e+01   2.1526186152e-01    0.1183582   0.09653439  60.07 0.0007022591    1.623    0.384
       249 -10.8772    155.6231     42.1839   4.9895192154e+01   4.0943056218e+01    0.4852195    0.4132247  16.98  0.002604119    1.383    0.277
       250 -12.2463    153.0311     35.9044   4.8458395533e+01   4.2395140667e+01    0.4179213    0.3755936  55.57 0.0003561842    1.073    0.068
       251 -12.3065    159.9625     29.6934   4.5428484155e+01   4.1456513242e+01    0.4520377    0.3967567 -31.83  0.001143161    1.245    0.197
       252 -11.1669    164.0632     27.6780   4.4202595677e+01   4.0689537248e+01    0.3082169    0.2720047 -48.12 0.0004777293    1.185    0.156
       253  -9.0553    238.4540     55.5320   4.1731749285e+01   1.9841738486e+01    0.1304158    0.1093285 -59.77 5.495158e-05    1.004    0.004
       254 -10.7218    240.3303     50.4819   4.0427812222e+01   2.0163238648e+01    0.3649693    0.3055569 -60.04   0.00138515    1.013    0.013
       255 -10.7504    244.8723     51.1683   4.0115581630e+01   1.9137884529e+01    0.3403893    0.1866072  77.89  0.001748611    2.060    0.514
       256  -9.4653    187.8260     55.2218   4.8199117495e+01   3.1270139927e+01    0.3209847    0.1699329  56.22      0.00143    1.861    0.463
       257  -9.8562    211.3757     52.7644   4.4269911208e+01   2.6129842671e+01    0.2778136    0.2335373 -66.28  0.001643742    1.082    0.076
       258 -11.2659    201.6182     47.9022   4.4336082172e+01   2.9062526806e+01    0.8942633    0.4256055 -46.23  0.003972914    1.992    0.498
       259  -9.6243    176.2367     43.5682   4.6830209484e+01   3.5717254503e+01     0.307201    0.2469107  67.15  0.001400019    1.185    0.156
       260  -9.1943    104.4903     53.0048   6.5391689622e+01   5.1309861483e+01    0.2062102    0.1237995  -7.50 0.0008105792    2.596    0.615
       261 -12.6512    119.2641     37.7792   5.6082090272e+01   5.0241914707e+01    0.8332014    0.6038047  89.20  0.003352679    1.945    0.486
       262  -9.5280     91.1165     47.9993   6.7642552165e+01   5.4869770752e+01    0.2801146    0.1811972 -39.91  0.001385232    1.625    0.385
       263 -10.7012     12.8232     47.8970   9.9399136862e+01   6.5652383273e+01    0.3886303    0.1532534 -35.11  0.001815386    2.315    0.568
       264  -9.2707     15.3307    233.6216   1.2324000760e+02   2.2911301267e+01    0.2066893    0.1173287 -78.96  0.001309005    1.603    0.376
       265 -10.4250     13.9142     23.4594   9.0089613559e+01   7.0051438500e+01    0.2457959    0.1578861 -22.98 0.0004409989    1.276    0.216
       266 -10.1371    247.6063    232.0674   7.6842364046e+01  -9.5527829956e+00    0.2333462    0.2162236 -70.49  0.001584011    2.176    0.540
       267 -10.1648    242.7065    232.0109   7.7683188426e+01  -8.9195230468e+00     0.239493    0.2330146 -48.97  0.001740312    1.809    0.447
       268  -9.5508     23.9076    231.9280   1.2154638296e+02   2.2367221090e+01    0.1919354   0.09919317  62.53 0.0008964389    1.636    0.389
       269  -9.0009    190.1717    229.7933   8.7133376488e+01  -1.1250839247e+00    0.1799099    0.1334314   4.47 0.0006688025    1.333    0.250
       270  -9.5879    233.9002    223.2061   7.7717459090e+01  -6.5424381247e+00    0.2387866    0.1352685 -10.23  0.001072393    1.999    0.500
       271  -9.0810    153.5021    219.4554   9.3028021262e+01   6.5212119118e+00    0.1349753    0.1197765  30.05 9.397512e-05    1.018    0.017
       272 -10.6507    139.8594     43.8401   5.3487039209e+01   4.4553130985e+01    0.3337818     0.246942  52.18   0.00101276    1.267    0.211
       273 -10.7510     94.1466     41.1479   6.4134650906e+01   5.5292103682e+01    0.6650839    0.2666264  47.99  0.002667625    2.353    0.575
       274  -9.4919     94.7468     36.2616   6.2093985753e+01   5.5854475067e+01    0.2995482    0.2058949  73.03  0.001421261    2.203    0.546
       275 -10.3972    189.1599     41.3998   4.4350126013e+01   3.2891208089e+01     0.473414    0.1915237 -29.61  0.001540591    2.710    0.631
       276  -9.9573     17.3223     41.3418   9.5138175416e+01   6.6590992522e+01    0.2600757    0.1748013 -21.70  0.001305826    1.315    0.240
       277 -10.5715    231.2300     38.5042   3.8714674650e+01   2.3694263479e+01    0.4012205    0.2645831 -67.86   0.00124534    1.440    0.305
       278  -9.1126    217.1968     38.5806   4.0195262184e+01   2.6758745837e+01    0.2988571   0.09809809 -55.52 0.0009640887    4.191    0.761
       279  -9.8775    193.8678     38.9517   4.3080823568e+01   3.2093706466e+01    0.2119675    0.1802385  71.15 0.0003712947    1.147    0.128
       280  -8.9939    184.3261     38.6429   4.4293385891e+01   3.4413384904e+01    0.2157945    0.1419088 -66.56  0.001065595    1.664    0.399
       281 -11.1473    176.7283     36.6622   4.4847458839e+01   3.6506047536e+01    0.4053652    0.3228681 -27.24  0.002276244    1.397    0.284
       282 -10.7644    175.9779     30.5543   4.3274355420e+01   3.7445784838e+01    0.4556056    0.1774645  51.11  0.001507744    2.605    0.616
       283  -9.7302    133.0458     37.2235   5.2768869323e+01   4.7072195323e+01    0.3880053    0.2588356 -88.21  0.001763212    2.146    0.534
       284  -9.4037    206.8207     37.1382   4.1025230334e+01   2.9302569592e+01    0.2039376    0.1608472 -69.45 0.0006576508    1.168    0.144
       285 -10.4015    125.6095     20.9225   4.8806419270e+01   5.0749712857e+01    0.8005788    0.2816052  69.36  0.002643071    3.783    0.736
       286 -10.6770    138.2375     33.7060   5.0546666770e+01   4.6268597927e+01    0.4603463    0.3127432 -55.45  0.001557512    1.747    0.428
       287  -9.7746    139.7667     27.7068   4.8309520570e+01   4.6613428065e+01    0.3980584    0.2372369 -56.72   0.00183355    2.139    0.533
       288 -10.4047    144.3364     25.2617   4.6698163079e+01   4.5781571154e+01    0.5142797    0.3045675  68.66  0.002504105    1.619    0.382
       289  -9.6607    149.0036     21.3064   4.4671975465e+01   4.5076841006e+01    0.3106275    0.2110675  49.74 0.0009681516    1.401    0.286
       290  -9.6125      9.7696    217.9904   1.2341281895e+02   2.6637639684e+01    0.1491116   0.07852391 -82.28 0.0006587217    1.629    0.386
       291 -10.3476    164.7483    212.3127   8.9452051582e+01   5.9604342023e+00    0.2558584    0.2127996  38.87 0.0007519558    1.163    0.140
       292  -9.6989    153.0954    207.6522   9.1188872318e+01   8.8181590048e+00    0.2224852     0.198185 -66.15 0.0007015031    1.326    0.246
       293 -10.2053    157.4578     20.6034   4.3132728186e+01   4.3090360537e+01    0.4641401    0.2045812  61.46  0.002047602    1.964    0.491
       294  -9.5433     61.1601    206.6574   1.1181472792e+02   2.3370189249e+01     0.211211    0.1596048  85.04 0.0006888128    1.236    0.191
       295 -11.9092    106.1707     32.7304   5.7561349286e+01   5.3858072581e+01    0.6201543    0.3338649  22.96  0.002480242    2.730    0.634
       296 -12.1696    113.7274     25.3218   5.2955815351e+01   5.3040604318e+01    0.8048204    0.3294699  50.12  0.002566386    2.108    0.526
       297 -10.9441    240.1478     31.1208   3.6283318164e+01   2.2757581564e+01    0.3966243    0.3170266 -35.25  0.001662742    1.364    0.267
       298 -10.0462    238.3415    204.5488   7.3547316327e+01  -4.4464249652e+00    0.2534409    0.1420609 -30.80  0.001358174    1.613    0.380
       299  -9.2942    221.5664     29.8762   3.7733128858e+01   2.6893785355e+01    0.1861025    0.1154436 -36.94  0.001017113    1.572    0.364
       300 -10.6712    189.4514     27.5836   4.0710199978e+01   3.4560041075e+01    0.3654415    0.2934669   5.69  0.001709632    1.724    0.420
       301  -9.1273     99.7303     30.4049   5.8421751145e+01   5.5558923340e+01    0.1883875    0.1140428  42.91 0.0003206838    1.502    0.334
       302  -9.6768     97.6999     26.5184   5.7482998234e+01   5.6468595034e+01    0.2660527    0.2255317 -48.12  0.001011344    1.438    0.305
       303 -10.3653    230.4237     27.0916   3.6278897995e+01   2.5307927843e+01    0.3397912    0.1864769 -43.08  0.001243707    1.607    0.378
       304  -9.1169    216.5125     20.5050   3.6084356966e+01   2.9134405641e+01    0.1768596    0.1059642  62.96 0.0007742356    1.670    0.401
       305  -9.5446    211.3121     27.3600   3.8186521159e+01   2.9496887729e+01    0.1827991    0.1629424  -9.33 0.0009749841    1.470    0.320
       306 -10.3038    214.1895     24.4379   3.7212068085e+01   2.9195765861e+01    0.3090764    0.2870344 -88.57  0.001244596    1.166    0.142
       307 -11.4144    183.1544     25.5582   4.0966690997e+01   3.6302807169e+01    0.5097363    0.3291592  54.97  0.002253229    1.546    0.353
       308  -9.8818    250.2878     26.6905   3.4527135755e+01   2.1239384451e+01    0.2255225    0.1566432 -30.61  0.001189175    1.614    0.380
       309 -11.3312      6.7140    195.0977   1.2264217526e+02   3.1851482433e+01     0.769715    0.1307348 -66.57  0.002838785    4.073    0.754
       310 -12.1278      4.8366    184.2429   1.2232399359e+02   3.4451486726e+01    0.6583906    0.4519318  82.79  0.003838563    1.177    0.150
       311 -10.4854    245.6549    200.9168   7.1590651743e+01  -4.9452856972e+00     0.211902    0.1525197  12.98 0.0007263186    1.311    0.237
       312  -8.9600    195.5642    199.7893   8.0774204039e+01   3.0161730959e+00    0.1787042    0.1292365 -49.32 0.0007004483    1.633    0.388
       313  -9.4859    168.8470     23.8652   4.2416037753e+01   3.9957175530e+01    0.2063793    0.1693202  48.43 0.0006416595    1.280    0.219
       314 -10.5598    234.2711    196.9044   7.2831597914e+01  -2.6782111235e+00    0.3888747    0.2740565   9.11  0.001633021    1.402    0.287
       315  -9.2598     82.7302    196.2341   1.0562841260e+02   2.2742955178e+01    0.3228713    0.2032206  19.36  0.001507085    2.164    0.538
       316  -9.0973    223.1996     22.1541   3.5841680661e+01   2.7464444598e+01    0.1759832     0.122043 -70.39 0.0005446341    1.295    0.228
       317  -9.9693    169.9358    191.4632   8.4595694867e+01   9.0165764725e+00    0.3554407    0.2206048  22.29  0.001180744    1.849    0.459
       318  -9.0098    162.5019    191.0016   8.6146807047e+01   1.0443344356e+01    0.1852716    0.1303003 -76.56 0.0004430014    2.348    0.574
       319 -10.2240     16.5110    203.3170   1.2115121691e+02   2.9141968549e+01    0.3180037    0.1026993 -79.27  0.001363454    2.843    0.648
       320 -10.1491    239.7161    184.8020   6.9525910985e+01  -1.5913295715e+00    0.3203743     0.203097 -15.60   0.00114519    1.605    0.377
       321  -9.9991    212.1777    181.6089   7.3938709174e+01   3.4004429224e+00    0.3692552    0.1935132   5.15  0.001048174    5.717    0.825
       322 -10.3917    250.2947    178.4214   6.6472794849e+01  -2.1788733861e+00    0.4949303    0.1261253 -33.62  0.001634163    3.971    0.748
       323 -10.2379     52.1900    173.6604   1.1016043685e+02   3.2197904763e+01     0.451703    0.2264204 -89.39  0.001856417    2.549    0.608
       324  -9.6300     27.6663    175.8679   1.1642387435e+02   3.4354662729e+01    0.2317163    0.1704045  50.49 0.0008267209    1.351    0.260
       325  -9.2760    205.2580     17.4286   3.6447672365e+01   3.2027754242e+01    0.1763941    0.1086183  88.68 0.0007625071    1.562    0.360
       326  -9.8726    247.5704    174.0579   6.6058691830e+01  -1.0771975673e+00       0.4483    0.1915749  24.34  0.001592839    4.281    0.766
       327 -10.3075    186.3651     15.2441   3.7891605067e+01   3.6675259417e+01    0.2409873    0.1985019  85.44 0.0003885051    1.068    0.063
       328 -10.9041    152.0527     25.9212   4.5583821253e+01   4.3826942566e+01    0.7289394    0.3646545  46.35  0.003250212    2.039    0.510
       329  -8.8996    174.2163     15.8938   3.9497877248e+01   3.9515024625e+01    0.1696925    0.1388164  52.74  0.000486564    1.274    0.215
       330  -9.6199    230.2961    175.4446   6.9321112453e+01   1.4308676961e+00    0.2209459    0.1264291  34.13 0.0005568209    1.853    0.460
       331 -10.2566     38.4021    173.0593   1.1352538786e+02   3.3921771321e+01    0.4337383    0.1940635  52.91  0.001921343    2.363    0.577
       332  -9.9155     35.4791    169.4788   1.1385549880e+02   3.5098642247e+01    0.2190524    0.1799658 -84.69  0.001006922    1.039    0.038
       333  -8.6121      1.3154     20.7228   9.5916064440e+01   7.1443176934e+01   0.09058699   0.08770604  21.24 0.0003445311    1.568    0.362
       334  -8.7058    170.7336    172.0008   8.0567741673e+01   1.2767442982e+01    0.1888744    0.1271026 -42.83 0.0008775523    1.487    0.328
       335  -9.6413      9.1559    156.1081   1.1909512342e+02   4.0707472983e+01      0.23073    0.1638053 -51.29  0.000927277    1.504    0.335
       336  -8.7319     94.4597     12.4288   5.2770850762e+01   5.8671233519e+01    0.1282959    0.1118031  39.15 0.0002040984    1.043    0.041
       337 -11.5724      9.6423    167.0813   1.1993356980e+02   3.8050926291e+01    0.4759278    0.3764302  89.38  0.002224307    1.018    0.017
       338 -11.2755     13.5666    159.6027   1.1831583029e+02   3.9520894491e+01    0.5526802    0.2444479 -65.98  0.002724528    1.845    0.458
       339  -9.2078    198.0227    167.9951   7.3925575376e+01   8.4096314625e+00    0.2282277    0.1666404  -5.38  0.001088302    1.598    0.374
       340  -8.9239    156.3914    166.2017   8.2627818877e+01   1.6748234867e+01    0.2045071    0.1438637 -56.33 0.0005298964    1.576    0.366
       341  -9.5047     74.7425     19.4600   6.1526320080e+01   6.1968451430e+01    0.2529224    0.1706854  32.75 0.0008481715    1.319    0.242
       342  -8.9288    152.4300    166.5260   8.3624935083e+01   1.7445893039e+01    0.1490801    0.1444944  -3.42 0.0001083285    1.011    0.011
       343 -10.2338     19.0460    164.9413   1.1746383779e+02   3.7773693353e+01    0.3019292    0.2670712 -10.50  0.001592923    1.529    0.346
       344 -10.1302     27.5273    163.5157   1.1520417647e+02   3.7342197886e+01    0.3297209     0.200251  65.14  0.001741816    1.697    0.411
       345 -10.1586     28.6369    160.1925   1.1455982217e+02   3.8046906494e+01    0.2845328    0.1104479 -69.60   0.00087025    2.163    0.538
       346 -10.1362    205.1028    162.9714   7.1444161484e+01   8.0443524763e+00    0.4254051    0.2359209  48.50  0.001595714    2.063    0.515
       347  -9.6704    208.4800    160.4854   7.0252520415e+01   7.8829620826e+00    0.2832367    0.1306237 -43.01  0.001150962    2.082    0.520
       348  -9.6888    188.8006    163.9974   7.4972139852e+01   1.0919196810e+01    0.2452243    0.1615837 -14.61 0.0007870056    1.969    0.492
       349  -9.3232     78.9535    159.9922   1.0117521733e+02   3.1962693277e+01    0.2367476    0.1669496  74.61  0.001124912    1.666    0.400
       350  -9.8213    246.5068    159.0064   6.3179109784e+01   1.5354708989e+00    0.2143248    0.1132897 -36.50  0.001043841    1.623    0.384
       351  -9.6882    223.9481    157.0987   6.6640327612e+01   5.6911732691e+00    0.2708797     0.171104 -54.88  0.001254377    2.038    0.509
       352  -9.3695    215.5922    157.7253   6.8306561728e+01   7.0840744231e+00    0.2283429    0.1595098  -7.65  0.001101309    1.719    0.418
       353 -10.8836     32.0135    153.2601   1.1286777611e+02   3.9426419158e+01    0.7756315    0.4282665  63.81  0.003590399    2.082    0.520
       354 -10.8904    173.8341     48.3199   4.8537602697e+01   3.5644760847e+01     0.517699    0.3979681 -82.59   0.00272155    1.405    0.288
       355 -10.9740     22.4285    155.0181   1.1559702026e+02   3.9884141087e+01    0.5834324    0.3076431  43.12  0.002216457    1.972    0.493
       356 -11.5402     15.8703    147.7589   1.1653857599e+02   4.2210197672e+01     0.527999    0.3381595  45.81  0.002812795    1.671    0.401
       357 -11.6224     13.0729    138.1033   1.1623747061e+02   4.4787970730e+01     1.029205    0.5388131  88.08  0.005019334    1.978    0.495
       358 -11.1213     21.2860    150.6926   1.1542244324e+02   4.1043467708e+01    0.2089268    0.1680709  83.57 0.0001987841    1.136    0.120
       359 -11.7331     24.3515    147.8484   1.1427697107e+02   4.1476382219e+01    0.3687072    0.2013287 -58.61 0.0008798208    1.608    0.378
       360 -10.4049    104.7013    154.0968   9.3146230869e+01   2.9250910555e+01    0.3975124    0.3238965 -43.21   0.00201172    1.263    0.208
       361 -11.7587      3.7247    147.5195   1.1969122837e+02   4.3162788772e+01    0.7640269    0.3466477 -78.80  0.002926001    1.812    0.448
       362 -11.5412      3.0803    141.7328   1.1931973532e+02   4.4599164066e+01     0.620572    0.3426397  58.56  0.003350915    1.955    0.488
       363 -11.2433     45.8216    147.9556   1.0838482445e+02   3.9302949754e+01    0.7633289    0.4967488 -52.99  0.003962269    1.467    0.318
       364 -11.1082     63.3989    150.5806   1.0387991705e+02   3.6497273217e+01    0.5127832    0.3288494   2.87  0.002060498    2.527    0.604
       365  -9.3924    215.5815    151.2025   6.6891467734e+01   8.2790984265e+00    0.2080491    0.1255005 -28.87 0.0007535477    1.651    0.394
       366  -9.8282     71.8304    150.6267   1.0153304630e+02   3.5330689002e+01    0.3652866     0.249836 -39.64  0.001756713    1.659    0.397
