#   1 NUMBER                 Running object number                                     
#   2 MAG_AUTO               Kron-like elliptical aperture magnitude                    [mag]
#   3 X_IMAGE                Object position along x                                    [pixel]
#   4 Y_IMAGE                Object position along y                                    [pixel]
#   5 X_WORLD                Barycenter position along world x axis                     [deg]
#   6 Y_WORLD                Barycenter position along world y axis                     [deg]
#   7 A_WORLD                Profile RMS along major axis (world units)                 [deg]
#   8 B_WORLD                Profile RMS along minor axis (world units)                 [deg]
#   9 THETA_WORLD            Position angle (CCW/world-x)                               [deg]
#  10 FWHM_WORLD             FWHM assuming a gaussian core                              [deg]
#  11 ELONGATION             A_IMAGE/B_IMAGE                                           
#  12 ELLIPTICITY            1 - B_IMAGE/A_IMAGE                                       
         1 -13.8606    218.5141      7.8889   3.7277821159e+01   2.9630855022e+01     2.632521     1.518513  40.52   0.01205502    2.534    0.605
         2 -13.4510    192.6121     39.4443   4.8338103490e+01   3.2182454857e+01     1.118189    0.9765772 -14.09  0.004401764    1.338    0.253
         3 -12.9643    198.0624     33.4988   4.5975144529e+01   3.1600972566e+01    0.7899046     0.698889 -34.79  0.001517652    1.210    0.173
         4 -10.6226    189.8008     14.6626   4.1887622706e+01   3.5872743394e+01    0.2462551    0.2322995 -46.67 0.0008509419    1.167    0.143
         5 -13.1526    177.9197     52.5123   5.4372869196e+01   3.4040333446e+01      1.79137      1.26186  26.19  0.004305661    1.887    0.470
         6  -6.5312     44.6059    230.5361   1.2171637803e+02   2.1199059901e+01    0.1178905   0.08434798  69.25 0.0001636328    1.080    0.074
         7 -11.5500    247.4391    248.9265   8.5670323817e+01  -1.1611126122e+01    0.5468817    0.3011063  28.51  0.003448067    1.487    0.327
         8 -11.7271    248.5834    242.4335   8.4429491572e+01  -1.1034881198e+01    0.4326697    0.2483477   6.44  0.002584311    1.731    0.422
         9  -9.6173     48.4563    217.6748   1.2001860563e+02   2.3280120435e+01    0.1976795    0.1292567  34.76 0.0006544719    1.692    0.409
        10 -12.1576     49.1018    249.1287   1.2216959725e+02   1.7204990654e+01    0.1946952    0.1408781  82.17 0.0006490363    1.220    0.180
        11  -9.4533    174.9866    217.4957   9.4002213226e+01   3.6859261730e+00    0.1874412     0.103545  56.43 0.0008103751    2.542    0.607
        12 -10.4935     50.3843    224.7260   1.2020111680e+02   2.1633134305e+01    0.1972027    0.1200269  78.62 0.0007159399    1.496    0.331
        13 -10.3191    184.2664    212.3963   9.1288639314e+01   2.9350398930e+00    0.2302745    0.1608973 -24.45  0.000815815    1.626    0.385
        14  -9.7888     56.8023    209.5620   1.1765487607e+02   2.3913591178e+01    0.2550037    0.1478162 -68.28  0.001405386    1.697    0.411
        15  -9.5368     72.0000    248.8351   1.1807814932e+02   1.4334252270e+01     0.164245    0.1174938  87.72  0.001122621    1.374    0.272
        16 -12.9956     32.4592    206.6705   1.2232052365e+02   2.7400266230e+01    0.3438123    0.1630499  55.74  0.001609264    1.817    0.450
        17 -11.0984     65.9563    204.4041   1.1525003825e+02   2.3806382476e+01    0.3102707    0.1818659 -61.15   0.00122651    1.776    0.437
        18  -8.8557     70.4203    199.5608   1.1377994819e+02   2.4239482249e+01    0.1590654    0.1519284  -5.18 0.0004787039    1.451    0.311
        19  -8.1342    224.2727    206.6816   8.2546590406e+01  -2.8623999281e+00    0.1085315    0.1049912 -77.04 0.0002568554    1.566    0.361
        20  -8.8306     65.0000    223.8421   1.1729765768e+02   1.9942193598e+01    0.1554183   0.06362519 -69.82 0.0005316944    2.502    0.600
        21 -11.2839    195.9960    204.6036   8.7583512153e+01   2.1850225654e+00    0.4834302    0.2292251  29.27   0.00206533    2.273    0.560
        22  -8.9863    160.3847    205.2961   9.5004718870e+01   8.3538161835e+00    0.1417393    0.1021901   9.43 0.0007017352    1.769    0.435
        23  -8.4892     93.7467    205.4277   1.0940900339e+02   1.9589413202e+01    0.1994752    0.1576482   1.42 0.0007577101    1.995    0.499
        24  -9.2744     96.5024    202.0058   1.0837583376e+02   1.9880654898e+01    0.1905542    0.1275772 -67.67  0.001022147    1.561    0.360
        25 -12.4504     56.0455    197.5591   1.1667183231e+02   2.6574039372e+01    0.6545133    0.2623261 -54.11  0.002879625    2.879    0.653
        26 -10.9087    193.0352    195.3358   8.6474584170e+01   4.2549764373e+00    0.9815376    0.5180273 -61.27  0.003349327    4.588    0.782
        27 -11.8967    134.2229    195.9840   9.9139245255e+01   1.4813478761e+01    0.4401436     0.332787 -89.98  0.001627011    1.686    0.407
        28  -9.1245     81.8164    194.5800   1.1068892078e+02   2.3702939173e+01    0.2212162    0.1771668 -78.19 0.0008382076    1.215    0.177
        29 -10.6806    204.2766    198.9887   8.4923216162e+01   1.6629703374e+00    0.3051663    0.1747638  45.26  0.001484636    1.803    0.445
        30 -11.3731    149.1000    187.6519   9.4410517791e+01   1.3791404138e+01    0.4311491    0.3404533 -87.73  0.001621402    1.657    0.397
        31 -11.1391     98.9877    181.3333   1.0492061682e+02   2.3994176882e+01    0.4968774    0.3527057 -38.97   0.00211716    1.797    0.443
        32  -8.8469     96.8223    190.6189   1.0677409105e+02   2.2278425657e+01    0.2212835    0.1595662  57.87 0.0005806923    1.305    0.234
        33  -9.9322     94.5223    187.2557   1.0682961930e+02   2.3384502103e+01    0.2448635    0.2248392  79.50 0.0003650088    1.056    0.053
        34  -9.9229     61.0279    187.9925   1.1457503099e+02   2.8052831282e+01    0.2130601    0.1617995 -63.63 0.0003264968    1.362    0.266
        35 -12.2121     66.9510    183.8813   1.1275426024e+02   2.8195583436e+01    0.6799242    0.5921822 -79.61  0.003014888    1.136    0.120
        36  -9.4385     34.5626    197.1088   1.2115850761e+02   2.9206476556e+01    0.1452522     0.111205  84.39 0.0009608386    1.062    0.058
        37 -11.3135    144.1162    178.3628   9.3848886883e+01   1.6633719847e+01    0.4582604    0.2983277 -53.68  0.001455936    1.652    0.395
        38 -10.3535    189.1139    177.1971   8.3749873050e+01   8.2058695276e+00    0.4656917    0.3599961 -61.55   0.00237327    1.696    0.410
        39  -9.8959     58.1026    175.9881   1.1386901995e+02   3.1173737280e+01    0.2456364    0.1749043  55.60 0.0005071043    1.324    0.245
        40  -9.6383     84.0469    173.5408   1.0733592949e+02   2.8127514027e+01    0.2093801    0.1719527 -74.16 0.0003804934    1.164    0.141
        41 -10.4430     44.1063    173.0472   1.1681657638e+02   3.3545925394e+01    0.4268593    0.1885911  34.35 0.0008990033    2.365    0.577
        42  -9.7223     40.6397    170.3021   1.1733535208e+02   3.4573738958e+01    0.2500184    0.1600371  50.92 0.0009161726    1.510    0.338
        43  -8.6164    194.4009    172.2235   8.1640859476e+01   8.1055684300e+00    0.1944094    0.1351841 -48.60 0.0008533424    1.606    0.377
        44 -10.6717    138.7921    171.1458   9.3728930835e+01   1.9183235071e+01    0.3501114    0.2377336  41.84  0.001053378    1.411    0.291
        45 -10.1024    149.9245    177.6645   9.2391124747e+01   1.5673819314e+01    0.2905653    0.2158736 -65.20 0.0007746822    1.602    0.376
        46  -9.7625    240.4520    169.4746   7.2331971855e+01   1.4565861291e-01    0.1343457    0.1157223 -10.88  0.000107779    1.028    0.027
        47  -7.7413     76.2562    223.7238   1.1506044117e+02   1.8436446053e+01    0.1211952   0.07700413  66.95 0.0004776514    1.463    0.317
        48  -9.0762    187.7306    163.0154   8.1084695194e+01   1.1145786080e+01    0.3324114    0.1701148 -54.37  0.001153346    2.647    0.622
        49 -10.8702     54.8759    222.3983   1.1915060930e+02   2.1536060739e+01    0.2010155    0.1280047  55.55 0.0007045321    1.290    0.225
        50 -11.6822     95.0545    151.3556   1.0089876985e+02   3.1646831334e+01    0.6822874    0.5699425 -35.97  0.003623501    1.386    0.279
        51 -10.7647    133.8940    145.6062   8.9694051688e+01   2.5835626049e+01     1.262595    0.3332694 -54.94  0.003005493    5.571    0.820
        52  -9.5753    187.6833    151.9664   7.8668079864e+01   1.3297239530e+01    0.2136636    0.1918515 -29.59  0.000591561    1.095    0.086
        53  -9.5587    112.9465    150.9477   9.6157447997e+01   2.8621876340e+01    0.2433071     0.179717  79.16 0.0008942167    1.675    0.403
        54  -9.5644    174.5624    149.3066   8.0903518111e+01   1.6573391597e+01    0.3036428    0.2374646  75.87 0.0008294559    1.718    0.418
        55  -9.8525    109.2327    147.4166   9.6415559333e+01   3.0132120207e+01    0.2629113    0.2238944 -83.67 0.0002792623    1.228    0.185
        56  -9.7065     87.4358    143.9101   1.0154949055e+02   3.4687729807e+01    0.3863933    0.2360213  87.54  0.001554241    2.446    0.591
        57 -10.8609    106.7854    137.8723   9.5088254875e+01   3.2852851704e+01    0.5029725    0.3475672 -32.72  0.001449104    1.777    0.437
        58 -10.6266    105.9189    130.7423   9.3767258799e+01   3.4718501851e+01    0.4138791    0.3343782 -66.70  0.001260431    1.256    0.204
        59 -11.6322     94.8744    137.5256   9.8267795231e+01   3.5022326556e+01    0.3022382    0.2639389 -46.77 0.0004058431    1.172    0.146
        60 -10.8165    114.9943    129.2441   9.0936929066e+01   3.3370917457e+01    0.4654105    0.3961541  60.67 0.0009853266    1.240    0.193
        61  -9.9222    136.1711    129.3495   8.5365349586e+01   2.9069685670e+01    0.4252845    0.1949141 -50.31  0.001481164    2.223    0.550
        62  -9.1924    160.9709    127.9654   7.8939686299e+01   2.3992074348e+01    0.2563012    0.2003563 -82.85  0.001141702    1.709    0.415
        63 -10.4786    101.9084    124.8585   9.3553929015e+01   3.6856325966e+01     0.304737    0.2608988 -20.40 0.0006730382    1.361    0.265
        64 -10.7003    120.3641    122.7445   8.7924613459e+01   3.3838832142e+01    0.5653166    0.3404669 -19.24  0.001905895    3.231    0.691
        65  -9.7995    134.7603    119.8363   8.3365925284e+01   3.1519122300e+01    0.3726428    0.1314927 -48.02  0.001165501    2.842    0.648
        66  99.0000     56.4950    218.1678   1.1847837680e+02   2.2181128247e+01    0.4681477    0.1782153  56.29  0.002122713    2.521    0.603
        67  -9.4532    109.8947    118.1440   8.9692198866e+01   3.6967349494e+01    0.2228512    0.2146539 -60.68 0.0003211276    1.008    0.008
        68 -10.1074    231.2262    113.8104   6.1514281657e+01   1.1226422377e+01    0.2976158     0.272539 -51.30 0.0007961291    1.120    0.107
        69  -9.1447    167.5370    112.3780   7.3433848209e+01   2.5767554170e+01    0.3495867    0.2469621 -72.78  0.001436558    2.011    0.503
        70  -9.8644    134.5252    106.4632   7.9894342932e+01   3.4539646689e+01    0.5421748    0.1530879 -43.97  0.001531555    3.486    0.713
        71 -11.3066    118.5437    110.5680   8.5328394428e+01   3.7013492180e+01    0.6553183    0.4603133  66.87  0.002763192    1.861    0.463
        72  -9.5230    205.4826    110.1831   6.5089628486e+01   1.7450191914e+01    0.3116412    0.2163898  41.69 0.0008255866    1.553    0.356
        73 -10.6048     72.0271    244.8071   1.1774826743e+02   1.5047916477e+01     0.237542    0.1571312  78.91 0.0008763481    1.449    0.310
        74  -8.8182     67.2338     71.1486   9.0261042137e+01   5.4898152245e+01    0.1811545    0.1656231  70.60   0.00103676    1.388    0.280
        75 -11.3030     62.5966    250.4794   1.1988960891e+02   1.5276448367e+01    0.2250628    0.1105664  50.68 0.0005854891    1.559    0.359
        76 -19.5410     16.2446    144.6288   1.2061149391e+02   4.2963675322e+01     19.27237     4.497357 -76.04   0.06497156    4.022    0.751
        77  -9.4839    167.9208    232.1263   9.7675498120e+01   2.5071678665e+00    0.2177981    0.1632868  30.41 0.0008015576    1.153    0.133
        78  -9.5500     80.8897     15.3615   6.3692446485e+01   6.1784530913e+01     0.248453    0.1224289  58.89  0.001093066    2.512    0.602
        79  -9.8302     58.8201    229.4708   1.1896914263e+02   1.9646169663e+01    0.1637562    0.1274285  81.16 0.0002771686    1.134    0.118
