#   1 NUMBER                 Running object number                                     
#   2 MAG_AUTO               Kron-like elliptical aperture magnitude                    [mag]
#   3 X_IMAGE                Object position along x                                    [pixel]
#   4 Y_IMAGE                Object position along y                                    [pixel]
#   5 X_WORLD                Barycenter position along world x axis                     [deg]
#   6 Y_WORLD                Barycenter position along world y axis                     [deg]
#   7 A_WORLD                Profile RMS along major axis (world units)                 [deg]
#   8 B_WORLD                Profile RMS along minor axis (world units)                 [deg]
#   9 THETA_WORLD            Position angle (CCW/world-x)                               [deg]
#  10 FWHM_WORLD             FWHM assuming a gaussian core                              [deg]
#  11 ELONGATION             A_IMAGE/B_IMAGE                                           
#  12 ELLIPTICITY            1 - B_IMAGE/A_IMAGE                                       
         1 -13.4356    222.0169      7.4183   3.5906540108e+01   2.8633146344e+01     1.387708     1.199725  41.24  0.006050709    1.482    0.325
         2 -14.2678    195.5375     37.5794   4.6378742096e+01   3.1495716535e+01     2.813028     1.703717  23.40   0.01157412    2.841    0.648
         3 -10.7251     78.3685     14.4920   6.3007364725e+01   6.2144973810e+01    0.4724449    0.2426076  64.27  0.001941576    3.231    0.690
         4  -9.9737    189.7874     14.8146   4.0932347913e+01   3.5596707464e+01    0.2304783    0.2119821  78.41 0.0007128311    1.080    0.074
         5  -9.0506    168.2636    233.4605   9.7012169314e+01   2.3251641608e+00    0.2697538    0.1607561  58.27  0.001300871    2.389    0.581
         6 -11.3895    248.3222    248.1765   8.4493507292e+01  -1.1540921614e+01    0.4655843    0.2864068  18.20   0.00306739    1.290    0.225
         7  -8.9675     50.4153    224.5401   1.1958762486e+02   2.1675324200e+01    0.1662912   0.09210597  84.91 0.0005858361    1.813    0.449
         8 -10.3560     40.1410    223.9675   1.2150490922e+02   2.3007155524e+01    0.2070929    0.1357419  76.87 0.0005484718    1.290    0.225
         9 -10.4919     72.1622    250.2808   1.1757267909e+02   1.4094322370e+01    0.1850492    0.1202068  52.49  0.000348789    1.195    0.163
        10 -10.5078     54.6175    222.0575   1.1857040327e+02   2.1648952005e+01    0.2661209    0.1317414  50.86 0.0005108913    1.692    0.409
        11  99.0000     57.1238    219.0031   1.1781533590e+02   2.1946053681e+01    0.4376907        0.205  64.81  0.002138215    2.259    0.557
        12  -8.8855     80.7978    220.2987   1.1315842178e+02   1.8508388532e+01     0.197366    0.1268073  55.04 0.0005842207    1.347    0.258
        13  -8.2686     77.2625    220.3297   1.1388336152e+02   1.8999451880e+01    0.1079056   0.09624638 -36.22 0.0005677397    1.570    0.363
        14  -8.8168     85.3100    218.4114   1.1202866115e+02   1.8237331811e+01    0.2366517    0.1151897  33.53  0.001123647    2.134    0.531
        15  -9.3836     48.5066    217.5252   1.1939703515e+02   2.3309447305e+01    0.2050188     0.154571  19.32 0.0009914035    1.930    0.482
        16 -10.1135     27.2778    214.8130   1.2331336658e+02   2.6262275170e+01     0.223196    0.1628593  72.98  0.001092255    1.057    0.054
        17  -9.9780    183.6143    210.8336   9.0283329371e+01   3.3901173169e+00    0.3828553     0.215689 -57.95  0.001667967    2.929    0.659
        18  -9.8027    177.0170    210.8274   9.1630065763e+01   4.5337078009e+00    0.2329722    0.1449293  15.54  0.001094132    2.011    0.503
        19  -7.3036     56.6109    209.1469   1.1703209623e+02   2.4034876705e+01    0.3535069    0.1989848 -79.84  0.001727056    1.746    0.427
        20  -8.3436     59.0015    206.2382   1.1625843917e+02   2.4342645704e+01    0.1577663    0.1180914  70.43            0    1.149    0.129
        21  -9.8270     28.8706    209.7498   1.2265943364e+02   2.7129882588e+01    0.1626912    0.1172566  67.00 0.0004277513    1.114    0.102
        22  -9.2927     42.5883    208.9395   1.1987607179e+02   2.5775744203e+01     0.214239    0.1248153  67.73 0.0003338369    1.552    0.356
        23 -10.8996     65.4108    205.0304   1.1478396271e+02   2.3762974143e+01    0.3762121    0.1946303 -78.70 0.0009427933    2.047    0.511
        24 -10.9268    193.4290    195.7444   8.5551730722e+01   4.1987874510e+00     1.034853    0.5386621 -61.63  0.003123891    5.946    0.832
        25  -9.5866    191.3458    207.3261   8.8102134887e+01   2.6319035127e+00     0.142361   0.09630647   6.41 0.0007050249    1.746    0.427
        26  -8.1340    224.2610    206.6877   8.1601845088e+01  -2.7628591741e+00    0.1076358    0.1048482 -55.06 0.0002409929    1.534    0.348
        27  -9.9303     28.6223    204.5692   1.2233744211e+02   2.8235286953e+01    0.3024202   0.08170575  47.86  0.001008216    2.995    0.666
        28  -9.3972     96.4547    201.7457   1.0764290158e+02   1.9983787760e+01    0.2950012    0.1247412 -58.51  0.001236693    2.463    0.594
        29 -12.7252     53.6032    198.5544   1.1665493491e+02   2.6667561264e+01    0.4810362    0.2892586 -52.74  0.002627118    1.966    0.491
        30 -10.2391    203.4974    199.5062   8.4242891901e+01   1.8033224522e+00    0.2889724      0.12231  39.57  0.001221057    2.200    0.545
        31 -11.6626    133.9398    196.4522   9.8477333021e+01   1.4829901062e+01    0.4660659    0.2720152 -57.75  0.001398123    1.953    0.488
        32  -8.6873     69.3562    199.2309   1.1331250389e+02   2.4475274648e+01    0.1622203    0.1418173  61.39 0.0001752144    1.100    0.091
        33  -9.3897     38.6791    199.2371   1.1987080278e+02   2.8277838421e+01    0.1625451    0.1186804  70.98  0.000553904    1.143    0.125
        34  -9.2871     82.1214    194.4802   1.0991314778e+02   2.3707230556e+01    0.2643496    0.1812501  71.46  0.001159944    1.503    0.334
        35 -10.9240    127.3772    192.3948   9.9297421401e+01   1.6816212220e+01    0.3362603    0.2233534  55.13  0.001337998    1.550    0.355
        36  -8.3712     96.4999    190.5104   1.0609971757e+02   2.2389735111e+01    0.1385883    0.1212139  67.87 0.0008102008    1.045    0.043
        37 -10.6269    149.0929    187.8195   9.3589828798e+01   1.3822429378e+01    0.3604473    0.2440622  52.87   0.00174952    1.549    0.354
        38 -10.2702     53.3195    230.5213   1.1950230676e+02   2.0152640474e+01     0.312991     0.162991 -88.87   0.00173237    2.018    0.505
        39  -9.2800     94.0553    186.5905   1.0610754832e+02   2.3638935678e+01    0.2223987    0.1773836 -86.70 0.0004940896    1.274    0.215
        40 -19.4739     12.3381    145.2809   1.2099367228e+02   4.3062149225e+01     18.98081     4.400178 -76.64   0.06433226    4.062    0.754
        41 -11.5415    115.1562    182.8573   1.0056805988e+02   2.0981818383e+01    0.4552353    0.2782096 -51.35  0.002164377    1.723    0.420
        42 -10.7072     98.7802    181.1559   1.0418460095e+02   2.4101234458e+01    0.3990327    0.2991727  -6.83  0.001494578    2.127    0.530
        43  -9.6490    189.5019    178.9828   8.3080386033e+01   7.8779369962e+00    0.3591394    0.2925844  68.67   0.00135086    1.694    0.410
        44  -9.5881    188.7027    175.3145   8.2498556779e+01   8.7038453368e+00    0.3580822    0.2664762  81.79  0.001601057    2.415    0.586
        45 -10.9940    143.8977    178.2493   9.3014119633e+01   1.6754056634e+01    0.4291487    0.3026929 -49.67  0.001511477    1.502    0.334
        46  -9.7990    149.8371    177.5413   9.1509811447e+01   1.5773164789e+01    0.2955902    0.2294597 -77.84 0.0008826691    1.704    0.413
        47  -9.7805     55.4163    174.1535   1.1360268743e+02   3.1934786718e+01    0.2849073    0.1892205  69.78  0.001184746    1.506    0.336
        48 -10.1066     45.9236    172.9259   1.1571182465e+02   3.3352003161e+01    0.3481858    0.2882888  41.49  0.001425991    1.326    0.246
        49 -10.4341    138.7683    170.9080   9.2818370396e+01   1.9286714333e+01     0.360258    0.2623414  30.38 0.0008963165    1.427    0.299
        50  -9.5187    240.4460    169.4624   7.1300720620e+01   2.4276364888e-01    0.1348306    0.1152438 -10.48 7.522962e-05    1.031    0.030
        51  -9.9013     58.2229    165.6986   1.1186073673e+02   3.3570641446e+01    0.2687542    0.1968921 -59.83 0.0009590724    1.335    0.251
        52 -11.5777     93.7703    151.7803   1.0049519786e+02   3.1767128291e+01    0.7203152     0.503372 -35.60  0.003417775    1.741    0.425
        53 -10.7785    133.9150    145.8548   8.8819561083e+01   2.5794239894e+01     1.271112     0.338043 -54.87  0.002939378    5.926    0.831
        54  -9.7960    187.4722    151.6562   7.7642345857e+01   1.3448830609e+01    0.2923703    0.2376063  76.52  0.001206066    1.691    0.409
        55  -8.7694    112.9559    151.2139   9.5343604052e+01   2.8576052758e+01    0.3114116    0.1940724 -83.76  0.001180528    2.636    0.621
        56  -9.5555    174.6104    148.9589   7.9826141933e+01   1.6672074375e+01    0.2790416    0.2444355 -73.10 0.0007894607    1.387    0.279
        57  -9.0422    143.0000    144.9725   8.6349151146e+01   2.4145689279e+01    0.2566915   0.08815455 -47.04 0.0007988623    2.935    0.659
        58 -10.6412    105.9057    137.8670   9.4440568892e+01   3.3014566231e+01    0.5725954    0.3614974 -32.92  0.002411522    1.999    0.500
        59 -10.4931    105.9484    130.6696   9.2837894142e+01   3.4722737762e+01    0.3965536    0.3335857 -62.26  0.001135605    1.186    0.157
        60 -11.6402     93.8758    137.8351   9.7748930860e+01   3.5112361200e+01    0.2882208    0.2584887 -41.86 0.0004013661    1.156    0.135
        61 -10.2990    135.1167    121.1536   8.2619837020e+01   3.1127163031e+01    0.6519836    0.1469368 -45.34   0.00165078    4.383    0.772
        62 -10.3915    113.9139    129.2243   9.0300096363e+01   3.3574799972e+01    0.3474041    0.3058159  19.83  0.000969426    1.246    0.198
        63  -8.6041     98.6231    130.4641   9.4847220152e+01   3.6080031059e+01    0.1494433    0.1391121 -65.00 0.0001371527    1.037    0.036
        64  -9.1015    160.8912    127.6057   7.7856752680e+01   2.4084771073e+01    0.3415159    0.2142456 -59.65  0.001351366    2.039    0.510
        65 -10.3768    101.3247    124.9552   9.2830622476e+01   3.6921720247e+01    0.3180383    0.2390222 -29.55  0.000693462    1.534    0.348
        66 -11.0137    120.3002    122.9244   8.7029424924e+01   3.3792397482e+01    0.5549207    0.3939759  -8.00  0.002292571    2.127    0.530
        67  -9.2308    109.2585    118.4018   8.8988672005e+01   3.7002789310e+01    0.2556526    0.2029829 -49.25 0.0004046218    1.220    0.180
        68 -10.0457    231.3660    113.6504   6.0379334813e+01   1.1244904507e+01    0.2816048     0.254845 -24.45 0.0007954878    1.036    0.035
        69  -9.1942    167.9406    112.7754   7.2400846243e+01   2.5563012335e+01    0.3850328    0.2670885 -72.00  0.001544819    2.154    0.536
        70 -11.4647    118.4429    110.1535   8.4260077424e+01   3.7088103487e+01    0.6208606    0.4819454  65.73  0.002422847    1.561    0.360
        71  -9.4964    205.0662    110.3438   6.4136306327e+01   1.7502436330e+01    0.3550091     0.220283  42.35  0.001112796    1.732    0.422
        72  -9.8615    134.6620    105.1119   7.8463265956e+01   3.4752023251e+01    0.7181073    0.1740914 -44.06  0.001883835    4.070    0.754
        73  -9.2447     64.0220     99.6642   9.8292082938e+01   4.8858457217e+01    0.1909361    0.1820594 -18.52 0.0005288832    1.107    0.096
        74  -9.1361     44.5581    230.4572   1.2114169466e+02   2.1225670648e+01    0.1187883    0.0854136  67.37 0.0008047852    1.086    0.079
        75 -11.5782     51.3474     90.1153   1.0027662656e+02   5.2686408979e+01    0.3920377     0.346592 -51.29  0.001599276    1.045    0.043
        76  -8.9065    184.2618     77.5342   5.9315298631e+01   2.8279265423e+01    0.2148552     0.140145  44.45 0.0009430623    1.622    0.383
        77  -9.3086     65.5247     70.3831   8.9636773615e+01   5.5216043349e+01    0.2333643    0.2089216  28.22  0.000891349    1.231    0.188
        78  -9.6581     72.2930    245.3577   1.1714716228e+02   1.4948189962e+01    0.2318169    0.1155439  58.30 0.0003287194    1.786    0.440
        79 -12.6028    179.9882     51.4132   5.2630154742e+01   3.3497008113e+01    0.7529926    0.6735244  38.34 0.0008380715    1.200    0.167
        80 -10.2292     58.9004    229.6923   1.1837341811e+02   1.9611867098e+01    0.1823027    0.1376095  83.06 0.0003629728    1.189    0.159
        81  -9.8824    158.0670    235.3417   9.9308697254e+01   3.6885722563e+00    0.2386063    0.2026613  13.01  0.001266621    1.222    0.182
