#   1 NUMBER                 Running object number                                     
#   2 MAG_AUTO               Kron-like elliptical aperture magnitude                    [mag]
#   3 X_IMAGE                Object position along x                                    [pixel]
#   4 Y_IMAGE                Object position along y                                    [pixel]
#   5 X_WORLD                Barycenter position along world x axis                     [deg]
#   6 Y_WORLD                Barycenter position along world y axis                     [deg]
#   7 A_WORLD                Profile RMS along major axis (world units)                 [deg]
#   8 B_WORLD                Profile RMS along minor axis (world units)                 [deg]
#   9 THETA_WORLD            Position angle (CCW/world-x)                               [deg]
#  10 FWHM_WORLD             FWHM assuming a gaussian core                              [deg]
#  11 ELONGATION             A_IMAGE/B_IMAGE                                           
#  12 ELLIPTICITY            1 - B_IMAGE/A_IMAGE                                       
         1 -12.6180      1.8596     23.7234   9.2427141260e+01   7.4694193861e+01    0.6596853     0.186038 -73.96  0.002351468    3.574    0.720
         2 -13.7416      6.4248      8.5230   8.2009322495e+01   7.7885468860e+01     1.212777    0.5789692 -45.39  0.006011091    1.819    0.450
         3 -12.3013     13.8888     11.2225   7.5933104477e+01   7.6679190422e+01    0.3605881    0.1814806 -38.39  0.001614761    1.913    0.477
         4 -12.5353     16.2727      5.4587   6.9943197091e+01   7.7562768100e+01     0.504101    0.3162693 -19.03  0.002626685    1.773    0.436
         5 -14.9765    248.4773      6.5000   1.4932756170e+01   2.3936137970e+01     1.986099    0.7385101 -24.69  0.009920011    2.473    0.596
         6 -13.9406     12.4459     22.0726   8.2594780572e+01   7.4456752888e+01    0.8220681    0.3323459 -43.65  0.003547142    2.249    0.555
         7 -11.6291     26.7124     14.4341   6.6601745529e+01   7.4496838756e+01    0.2493153    0.1480013 -29.08  0.001204593    1.845    0.458
         8 -12.7148     20.4685     12.3262   7.0531183630e+01   7.5727595451e+01    0.4468509    0.2159312 -37.99  0.002040963    2.089    0.521
         9 -12.5947     25.3251      3.1237   5.9888460496e+01   7.6723978296e+01    0.4687842    0.3083526  17.13  0.002490852    1.629    0.386
        10 -12.0084     30.1958    239.4275   1.0148342040e+02   2.1455827465e+01    0.4112333    0.1967123  52.50  0.002239663    1.691    0.409
        11 -11.7637    233.6734    249.6707   6.2639422589e+01  -2.1119770567e+00    0.2944916    0.1327152  21.79  0.001759247    1.729    0.422
        12 -12.9857    234.8700    242.7620   6.1531392922e+01  -1.5604697445e+00     0.424107    0.2036703  -1.06  0.002636142    2.139    0.533
        13 -12.8349    242.1799    236.1499   5.9511138486e+01  -1.6168093016e+00    0.5344358    0.2269058  -3.33  0.002679879    3.428    0.708
        14 -11.9557    250.0103    231.6766   5.7722499571e+01  -1.9275954184e+00    0.3044344    0.1380334 -21.62  0.002026543    1.899    0.473
        15 -11.3246    249.1582    243.8804   5.9540523751e+01  -2.9996242256e+00    0.2196929    0.1605373  -7.30    0.0012546    1.325    0.245
        16 -12.3703    243.4010    244.4363   6.0466313261e+01  -2.5243573809e+00     0.390197     0.191514  -8.44  0.002130105    1.866    0.464
        17 -12.0623    247.6588    237.9789   5.8950965236e+01  -2.3098935206e+00    0.3340301    0.1648379 -10.51  0.002196699    1.804    0.446
        18 -11.5846    249.0297    249.2481   6.0280800912e+01  -3.4778471344e+00    0.3445792    0.1665889  19.05  0.002037171    1.597    0.374
        19 -11.6376    241.3532    249.9291   6.1507508143e+01  -2.8479639382e+00    0.3444581    0.1359242  25.40  0.001932989    2.034    0.508
        20 -11.4653    104.5175    250.4833   8.6402597891e+01   1.1862702544e+01    0.2521341   0.08378006  29.61  0.001214131    2.179    0.541
        21 -12.0334     87.3858    250.1327   8.9931853926e+01   1.3835912624e+01    0.3858579    0.1214134  29.33  0.001826126    2.293    0.564
        22 -12.4083     75.6212    249.3090   9.2339417274e+01   1.5247648726e+01    0.5377635    0.1444633  36.89   0.00251828    2.389    0.581
        23 -11.8393     51.6041    249.2064   9.7385436870e+01   1.7759363311e+01    0.4700576    0.1536335  36.84  0.002453812    1.970    0.492
        24 -11.4304     45.6368    243.6077   9.8366126854e+01   1.9274782927e+01     0.367343       0.1631  40.50  0.002054721    1.582    0.368
        25 -12.0418     37.9002    247.9437   1.0019662028e+02   1.9296966055e+01    0.5497786    0.1743484  46.49    0.0028492    2.244    0.554
        26 -11.8773     20.8351    248.0137   1.0373498297e+02   2.0832561215e+01     0.377352    0.1771555  50.63  0.001964671    1.600    0.375
        27 -11.7146     12.6785    247.8833   1.0539696850e+02   2.1547737759e+01    0.3786722    0.1630454  46.69  0.001820175    1.593    0.372
        28 -11.9193      4.1981    249.6651   1.0713883893e+02   2.1940017096e+01    0.3466817    0.2028034  26.80  0.002127171    1.437    0.304
        29 -12.4042      3.5505    241.6701   1.0713086464e+02   2.3338701222e+01    0.4615986    0.2071933  54.31  0.002092096    1.664    0.399
        30 -12.2012     16.4148    239.1284   1.0440074132e+02   2.2725520931e+01    0.6319829    0.1687594  40.60  0.003222306    2.189    0.543
        31 -11.9816    226.5983    239.1772   6.2333356363e+01  -3.9216466993e-01    0.2167605    0.1163594  -2.05  0.001447426    1.696    0.410
        32 -11.8695    108.1691    239.5057   8.4636741001e+01   1.3084927739e+01    0.2996561     0.135145  43.33  0.001581199    2.025    0.506
        33 -12.0988     73.1740    239.1309   9.2148553373e+01   1.7154681216e+01    0.3304345    0.1472972  44.23   0.00180159    1.821    0.451
        34 -10.7603     38.7236    239.2664   9.9644520583e+01   2.0684274791e+01    0.2607136    0.1213932  49.91  0.001520913    1.718    0.418
        35 -10.7166     65.0261    238.0479   9.3852855577e+01   1.8219822283e+01     0.198575    0.1001893  48.68  0.001135624    1.722    0.419
        36 -11.6726      6.9182    234.8616   1.0629935146e+02   2.4258143767e+01    0.3388969    0.1778604  61.49  0.001503617    1.603    0.376
        37 -11.1712     82.7015    235.4900   8.9786310948e+01   1.6692277521e+01    0.2388453    0.1461217  55.63  0.001444193    1.747    0.428
        38 -11.3347     45.4892    235.6486   9.7996915646e+01   2.0652031466e+01     0.269414    0.1180695  51.91  0.001469787    1.971    0.493
        39 -11.5096     95.7165    234.8610   8.6882919246e+01   1.5286873853e+01    0.2477067     0.107828  45.34  0.001251418    2.137    0.532
        40 -12.3228    231.9387    232.6263   6.0584081003e+01  -2.5872857091e-01      0.28546    0.1428735   1.45  0.001765664    2.007    0.502
        41 -10.2024      1.3270    233.4913   1.0745065683e+02   2.4940337528e+01    0.1609463   0.08997073  86.12  0.001054804    1.880    0.468
        42 -11.3959     14.7615    230.7485   1.0452011564e+02   2.4350195987e+01     0.380898    0.1612054  52.45  0.002056516    1.805    0.446
        43 -11.3599     11.5439    224.5099   1.0505354988e+02   2.5759561336e+01     0.341752    0.1518577  46.25  0.001646433    1.608    0.378
        44 -11.8286     61.0223    230.4926   9.4239392867e+01   1.9951385738e+01    0.3318838     0.131384  46.04  0.001672004    2.067    0.516
        45 -11.4003     40.0298    229.8390   9.8912202510e+01   2.2219755789e+01    0.2874249    0.1512527  54.14  0.001702623    1.650    0.394
        46 -12.3676     26.1759    226.9419   1.0188086702e+02   2.4048575649e+01    0.4544191     0.236985  71.45  0.002685985    1.959    0.490
        47 -12.3526    248.8713    223.4481   5.6704918110e+01  -1.0110864768e+00    0.3767772    0.1616132 -20.81  0.002328095    2.103    0.525
        48 -10.8863     48.9154    228.7604   9.6858931487e+01   2.1527594392e+01    0.2324291     0.109243  57.95   0.00123629    2.119    0.528
        49 -11.8620      5.1589    226.7360   1.0650488284e+02   2.5861786137e+01     0.416562    0.1802988  56.47  0.002024027    1.806    0.446
        50 -11.8908      2.7541    219.1392   1.0687723797e+02   2.7463306878e+01     0.359444    0.2269708  71.09  0.001772113    1.445    0.308
        51 -10.8415     32.9508    227.9818   1.0040913834e+02   2.3234016618e+01    0.2013659   0.09407646  51.08   0.00113313    1.731    0.422
        52 -11.7834    236.8551    226.4336   5.8940082345e+01  -1.1817721852e-01    0.2138745    0.1041135 -14.57  0.001339792    1.949    0.487
        53 -10.6095     73.6605    226.3238   9.1076014193e+01   1.9289682497e+01    0.1295313   0.06999673  50.03 0.0004174284    1.723    0.420
        54 -11.4760     19.0923    220.4630   1.0323931665e+02   2.5882276411e+01    0.3293481     0.145992  54.11  0.001749017    1.823    0.451
        55 -10.7500     44.7416    219.8742   9.7305046018e+01   2.3586768866e+01    0.2569169   0.09507777  45.93   0.00124526    2.101    0.524
        56 -11.2878     35.5255    216.2208   9.9262867755e+01   2.5192083254e+01    0.2869688    0.1657222  67.23  0.001687308    1.727    0.421
        57 -11.9966     12.9936    215.5417   1.0447335895e+02   2.7337401551e+01      0.42954    0.2047863  50.46  0.002139193    1.601    0.375
        58 -11.2265    239.3990    216.3868   5.7072591765e+01   6.7152595774e-01    0.2026495   0.07135405 -21.77 0.0009589237    3.329    0.700
        59 -12.2314    248.4933    213.7077   5.5313458472e+01   1.6412147157e-02    0.3264709    0.1541087 -21.22   0.00209809    1.818    0.450
        60 -11.1521      1.7425    204.5079   1.0680439028e+02   3.0391871400e+01    0.2373307    0.1411067  84.03  0.001189272    1.652    0.395
        61 -11.0801     28.9795    210.6724   1.0054335306e+02   2.6891221908e+01    0.2557711    0.0974295  61.91  0.001171259    2.664    0.625
        62 -11.2848     21.6837    210.1902   1.0225939058e+02   2.7643998365e+01    0.2471578    0.1326585  55.99   0.00143315    1.565    0.361
        63  -9.9558     36.6430    206.3276   9.8469081737e+01   2.7027935466e+01    0.1385205   0.06584918  51.15  0.000546165    1.781    0.438
        64 -12.6609     13.0615    203.2523   1.0407062208e+02   2.9765797742e+01    0.4567241    0.2244578  52.02  0.002376158    1.611    0.379
        65 -11.7787      2.7371    210.9261   1.0671081630e+02   2.9045216093e+01    0.3844487    0.2071288  65.16  0.002170391    1.594    0.373
        66 -12.4548      4.1663    195.5405   1.0600967875e+02   3.2046277814e+01    0.4217523    0.2112893  66.67  0.002355776    1.756    0.430
        67 -11.8575     17.4423    194.7627   1.0267975527e+02   3.1159718941e+01    0.3257663   0.08311031  39.90  0.001393055    2.529    0.605
        68 -10.8251     17.7976    188.7963   1.0234127089e+02   3.2401436208e+01    0.1869077    0.1136364  54.53  0.001010848    1.372    0.271
        69 -12.5729      3.9325    186.7478   1.0583415103e+02   3.3925538503e+01    0.5591841    0.1611575  54.98  0.002401193    2.732    0.634
        70 -10.0584     24.6561    185.3371   1.0038138022e+02   3.2560942354e+01    0.1431844   0.06924192  52.74 0.0007049409    1.770    0.435
        71 -12.3264     11.9496    182.1055   1.0359888031e+02   3.4333629878e+01    0.3043375    0.1450535  75.83  0.001528306    2.049    0.512
        72 -12.1974      2.2822    176.8378   1.0598919486e+02   3.6211763995e+01    0.3844522    0.1923853  80.81  0.002028364    1.881    0.468
        73 -10.0113     17.6671    179.3410   1.0195439332e+02   3.4487561170e+01    0.1427789   0.06921411  53.24 0.0006755753    1.751    0.429
        74 -12.2102      6.6388    170.5935   1.0460949646e+02   3.7313965028e+01    0.3279194    0.1326678  85.97  0.001488497    2.449    0.592
        75 -11.3359      1.6672    169.0242   1.0593208288e+02   3.8014522094e+01    0.3510928    0.1183585 -75.95  0.001511233    2.885    0.653
        76 -12.2183      2.7201    163.5853   1.0546987361e+02   3.9197452047e+01    0.3787505    0.2258075  23.62  0.002116498    1.625    0.385
        77 -11.8536     11.1457    165.8564   1.0315735484e+02   3.8077487752e+01    0.2151065    0.1410808  54.88  0.001112965    1.297    0.229
        78 -12.2709     10.1844    154.8478   1.0294268604e+02   4.0752471244e+01    0.3424688    0.1481166  79.83  0.001516392    2.314    0.568
        79 -12.1248      3.9044    152.3854   1.0473029581e+02   4.1768563808e+01    0.2515794    0.1755289 -81.40   0.00146773    1.397    0.284
        80 -11.2172      2.5135    141.5015   1.0473590900e+02   4.4505006336e+01    0.2389247    0.1001665  77.73  0.001004232    2.296    0.565
        81 -11.4926      4.5213    135.0121   1.0380017267e+02   4.6000650443e+01    0.2038872    0.1177013 -87.57  0.001037575    1.608    0.378
        82 -11.2340      3.4025     65.2087   9.9031741164e+01   6.4242211421e+01    0.1945973    0.1170089  86.06 0.0009535657    1.675    0.403
        83 -12.6998      3.6614     48.4836   9.6490077949e+01   6.8540510214e+01    0.5468857    0.2909547 -71.83  0.002663538    1.683    0.406
        84 -11.8809      8.7240     42.2733   9.1848148582e+01   6.9876893117e+01    0.3038482    0.1812958 -77.10  0.001514824    1.677    0.404
        85 -12.3729      2.8613     38.5432   9.5196173024e+01   7.1064032803e+01     0.423169    0.1867588 -69.17  0.001919664    1.978    0.494
        86 -12.2222    226.1552    246.9787   6.3454586350e+01  -1.1313679200e+00    0.2805622    0.1512834  -6.62  0.001950648    1.658    0.397
        87 -12.1922     66.1492    247.9005   9.4245322708e+01   1.6479641600e+01    0.4218937    0.1667639  40.76  0.002305712    1.823    0.451
        88 -10.8474     27.4529    248.1462   1.0237595277e+02   2.0225767758e+01    0.3263068    0.0792339  43.38  0.001603179    2.427    0.588
        89 -12.5532    212.6279    245.3552   6.5423049672e+01   3.8547231588e-01     0.395653    0.1786299   8.06  0.002164742    2.548    0.608
        90 -12.5796     13.6149     35.7130   8.6571286708e+01   7.1183844097e+01    0.4328549    0.2325688 -78.93  0.001957293    2.188    0.543
        91 -10.8026    128.5087    246.5211   8.1120465243e+01   9.6613498932e+00    0.1160557   0.08509926  25.03 0.0003439762    1.023    0.023
        92 -11.7565     19.3870     29.0017   7.9812844875e+01   7.2280065725e+01    0.3852056    0.1711633 -38.70   0.00161305    2.321    0.569
        93 -12.4038     98.7750    243.6676   8.7007863806e+01   1.3541935336e+01    0.3878086    0.1604087  44.61  0.001986682    2.225    0.551
        94 -12.4410     85.2146    242.9469   8.9834947987e+01   1.5197185819e+01    0.3237521    0.1587264  46.48  0.001831788    1.835    0.455
        95 -12.2143     57.9880    240.9048   9.5564301601e+01   1.8481136015e+01    0.4682888    0.1712372  45.94   0.00239103    2.164    0.538
