#   1 NUMBER                 Running object number                                     
#   2 MAG_AUTO               Kron-like elliptical aperture magnitude                    [mag]
#   3 X_IMAGE                Object position along x                                    [pixel]
#   4 Y_IMAGE                Object position along y                                    [pixel]
#   5 X_WORLD                Barycenter position along world x axis                     [deg]
#   6 Y_WORLD                Barycenter position along world y axis                     [deg]
#   7 A_WORLD                Profile RMS along major axis (world units)                 [deg]
#   8 B_WORLD                Profile RMS along minor axis (world units)                 [deg]
#   9 THETA_WORLD            Position angle (CCW/world-x)                               [deg]
#  10 FWHM_WORLD             FWHM assuming a gaussian core                              [deg]
#  11 ELONGATION             A_IMAGE/B_IMAGE                                           
#  12 ELLIPTICITY            1 - B_IMAGE/A_IMAGE                                       
         1 -16.4596    199.4436    125.5324   9.3052476155e+01   1.5716812793e+01     6.534249     3.175131 -60.10   0.02023312    3.585    0.721
         2 -13.0299    189.0488     18.4749   6.7092243045e+01   3.5755385400e+01    0.4865961    0.4399923  34.73  0.001368752    1.318    0.241
         3 -11.7372     89.7642    244.4449   1.3748346157e+02   1.2757617579e+01    0.2193404    0.1712652  71.50 0.0002621909    1.051    0.049
         4 -12.1657    141.3686    250.2079   1.2865627235e+02   3.3482774403e+00    0.5019265    0.0915846  40.15  0.001395927    5.691    0.824
         5 -19.3632     23.8595    137.4710   1.3897693710e+02   4.4308288851e+01     19.03965     1.621182 -68.04   0.03749887   11.774    0.915
         6 -10.3950    104.2308    237.9902   1.3412870277e+02   1.1684840427e+01    0.1709097    0.1420358  72.96 0.0003925743    1.071    0.066
         7 -11.8927     72.3094    230.5975   1.3928394954e+02   1.7989655510e+01    0.2799658    0.1524786  70.72  0.001309381    1.833    0.454
         8 -15.6184     80.5720    200.0818   1.3426178977e+02   2.3105654548e+01     1.693104      1.08067  65.07  0.006460702    1.503    0.335
         9 -13.3166    237.0244    216.8812   1.0524531005e+02  -8.0218843452e+00    0.9095458    0.5384994  40.01  0.004916896    1.613    0.380
        10 -14.3250    246.4992    204.8956   1.0128445520e+02  -7.8221547766e+00      1.77791    0.7349501 -31.20  0.007747296    2.508    0.601
        11 -10.5334     99.8818    250.5375   1.3628766609e+02   1.0093532720e+01    0.1882286   0.09839971  46.43   0.00102842    1.585    0.369
        12 -11.5654    132.9700    247.4687   1.2987673856e+02   5.2293613475e+00    0.2036792    0.1036187  44.80   0.00104065    1.620    0.383
        13 -12.8214    192.1666    196.0721   1.0995879098e+02   3.4958906567e+00    0.7843745    0.5626772 -50.05  0.004035021    1.562    0.360
        14 -12.5690    173.5019    187.5251   1.1218968962e+02   8.8293505606e+00    0.5141635    0.3848387 -58.40  0.002587273    1.513    0.339
        15 -12.1420     40.1131    187.0025   1.4112921592e+02   3.1407088388e+01    0.2651137    0.1520762  50.33 0.0007380485    1.693    0.409
        16 -11.7613     94.0893    167.3075   1.2644926515e+02   2.8391931802e+01    0.3085226    0.2153306 -65.71 0.0004089439    1.362    0.266
        17 -14.0846     98.1629    176.1740   1.2696678215e+02   2.5662264359e+01     1.345982    0.5675737  39.87  0.005407932    2.418    0.586
        18 -12.5084     97.1136    171.1394   1.2638108360e+02   2.6998730401e+01    0.4841112    0.2999423  44.11  0.002058904    1.618    0.382
        19 -12.5432     84.0081    183.0354   1.3122291261e+02   2.6376751215e+01    0.3779623    0.2646391  37.46  0.001571939    1.591    0.372
        20 -13.7113     87.4611    177.1759   1.2957561425e+02   2.7176364311e+01    0.8099156    0.3946486 -52.41  0.001617536    2.098    0.523
        21 -13.7590     73.2694    170.3663   1.3180868490e+02   3.0899612115e+01    0.6853292    0.4753397 -80.51  0.002661439    1.370    0.270
        22 -12.7130    131.9408    171.1687   1.1826113071e+02   2.0643824211e+01    0.5936087    0.4026796  65.12  0.002717646    1.674    0.403
        23 -12.7101    180.0385    169.5151   1.0715581076e+02   1.1093354980e+01     0.722183     0.517012  47.22  0.002750319    1.365    0.267
        24 -13.5596    193.2433    164.7926   1.0336026063e+02   9.2456656780e+00     1.150356    0.8131427  56.55  0.005417327    1.544    0.352
        25 -14.9996    188.2970    145.8482   1.0016195824e+02   1.4143377825e+01     2.488692     1.240227 -51.63  0.009331604    2.246    0.555
        26 -12.9591     83.2402    162.7186   1.2826726787e+02   3.1199372257e+01    0.3921736    0.3562631 -22.62  0.001658002    1.440    0.306
        27 -12.0291    128.7459    157.3526   1.1628492956e+02   2.4402915718e+01    0.4722951     0.321079 -27.12  0.002011229    2.134    0.531
        28 -11.4987     98.1175    160.8625   1.2436275804e+02   2.9225779066e+01    0.2530505    0.2061839 -51.45 0.0005265669    1.275    0.216
        29 -14.1790    207.2306    107.3047   8.7082112124e+01   1.7435730447e+01     1.834084    0.9028733 -60.68  0.005899655    3.375    0.704
        30 -10.8501    120.7297    249.2361   1.3235801237e+02   6.9704012587e+00    0.1572105    0.1367195  37.65  0.001050854    1.334    0.250
        31 -12.4735    233.9797    147.6243   9.1670471650e+01   4.0025643656e+00    0.5495829    0.3249485 -55.14  0.002374319    2.098    0.523
        32 -13.8379    160.5052    133.9950   1.0351027382e+02   2.2904809367e+01    0.9912482    0.6155528 -50.71  0.004177198    1.644    0.392
        33 -13.7951    155.4370    138.0208   1.0564827235e+02   2.3155305473e+01     1.473708    0.8728887 -70.16  0.005220959    2.753    0.637
        34 -12.8218     68.8237    143.9667   1.2865240673e+02   3.7741788719e+01    0.6127989    0.3550903  71.42  0.002652156    2.470    0.595
        35 -11.1628     98.2529    143.6310   1.2105353475e+02   3.3264519201e+01    0.2446382    0.2279021 -48.76 0.0004335687    1.142    0.124
        36 -13.3549    173.3852    136.4354   1.0117838777e+02   1.9466580116e+01    0.5201597    0.4610348  74.31  0.002623787    1.205    0.170
        37 -12.8852    249.5595    127.9127   8.4644549843e+01   4.3790796560e+00     1.202753    0.2373321 -41.69  0.003374221    4.415    0.774
        38 -15.9702     72.3194    213.5227   1.3751039024e+02   2.1455088111e+01     2.386997     1.235439  64.08   0.01030747    1.954    0.488
        39 -13.8346    161.9362    114.3057   9.8266094335e+01   2.6787379522e+01     1.692595     1.164106 -81.38  0.006720092    2.220    0.549
        40 -13.2980    157.2844    105.5067   9.7031648714e+01   2.9700299002e+01     1.313024     1.005852  57.01  0.006170447    1.337    0.252
        41 -12.8470    238.8184    103.1544   8.0719554623e+01   1.0995372190e+01     1.008514    0.6397665 -52.71  0.004180955    1.563    0.360
        42 -13.3446    248.9038    105.6673   7.9759876971e+01   8.3964642331e+00     1.236466    0.4206962 -41.61   0.00452497    2.578    0.612
        43 -15.3586    240.9418     88.6375   7.7045722811e+01   1.3037789043e+01     2.270798     1.446019 -64.22   0.01063596    1.787    0.440
        44 -13.1404    223.1627    107.2078   8.4225939347e+01   1.3762434602e+01    0.7995139     0.517902 -55.73  0.003628477    1.642    0.391
        45 -14.2245    148.5263     85.7273   9.3626689301e+01   3.5678942730e+01     1.650434     1.013044 -71.65  0.005919058    2.927    0.658
        46 -13.3312    205.8166     74.6375   7.9100621921e+01   2.3648545262e+01     1.908618    0.9936841 -70.78  0.006096083    3.787    0.736
        47 -14.9820    170.7343     88.7937   8.9500182374e+01   2.9770602746e+01      1.36362     1.003047  88.09  0.006057851    1.755    0.430
        48 -13.5807    238.9234     64.8348   7.1844528832e+01   1.7382502863e+01    0.6242189    0.3796539  79.59  0.002970445    1.856    0.461
        49 -13.5182    218.2196     61.7173   7.3943680970e+01   2.2730304112e+01    0.6790929    0.5226552 -67.27  0.003595044    1.280    0.219
        50 -12.4725    208.8273     55.6321   7.3810328185e+01   2.5951568983e+01    0.3348854    0.2384198 -44.27  0.001706026    1.381    0.276
        51 -12.7652    238.4308     53.3480   6.9286326586e+01   1.9247359966e+01    0.6403895     0.363443 -65.96  0.002952741    1.964    0.491
        52 -12.7873    247.5846     50.9920   6.7686899230e+01   1.7525202169e+01    0.5239803    0.3746595 -35.16  0.002909977    1.477    0.323
        53 -12.3427    248.9042     37.0634   6.4530143299e+01   1.9202442888e+01    0.5293874    0.3173474 -42.29  0.002843238    1.553    0.356
        54 -11.5253    171.5470     39.3717   7.5432785048e+01   3.7556860899e+01    0.2669719    0.2145403  71.45 0.0008635955    1.171    0.146
        55 -13.0775    181.9314     29.8911   7.1122955305e+01   3.6181412977e+01    0.4772637    0.3857764  51.93  0.002701866    1.237    0.192
