#   1 NUMBER                 Running object number                                     
#   2 MAG_AUTO               Kron-like elliptical aperture magnitude                    [mag]
#   3 X_IMAGE                Object position along x                                    [pixel]
#   4 Y_IMAGE                Object position along y                                    [pixel]
#   5 X_WORLD                Barycenter position along world x axis                     [deg]
#   6 Y_WORLD                Barycenter position along world y axis                     [deg]
#   7 A_WORLD                Profile RMS along major axis (world units)                 [deg]
#   8 B_WORLD                Profile RMS along minor axis (world units)                 [deg]
#   9 THETA_WORLD            Position angle (CCW/world-x)                               [deg]
#  10 FWHM_WORLD             FWHM assuming a gaussian core                              [deg]
#  11 ELONGATION             A_IMAGE/B_IMAGE                                           
#  12 ELLIPTICITY            1 - B_IMAGE/A_IMAGE                                       
         1 -11.5007     80.4475     23.3797   9.6074784940e+01   6.1623236235e+01    0.6404738    0.3147629  34.36  0.000543987    2.350    0.574
         2  -8.9591     26.8517     23.5170   1.2129556733e+02   6.9995338397e+01    0.7106048    0.1930895 -39.96  0.002367294    3.928    0.745
         3  -9.7583    145.2983     22.4844   7.8973799681e+01   4.6313773344e+01     0.395924    0.2553802   0.02 0.0002071558    1.800    0.444
         4  -8.3005    102.3122     18.6612   8.6913471320e+01   5.7457276448e+01    0.3067288    0.1701333   2.19  0.001178886    2.577    0.612
         5  -9.1384    127.8000     16.8967   8.0087257927e+01   5.1411284038e+01    0.5182694    0.2851036   7.79  0.001663061    2.494    0.599
         6 -10.1634    134.2529     13.3858   7.7385954758e+01   5.0135661606e+01    0.5178434    0.4561112  46.51  0.002870915    1.095    0.087
         7  -9.3968     74.4753     13.5255   9.3186949978e+01   6.4288701304e+01    0.5258754     0.296854   6.16  0.001730127    2.688    0.628
         8  -8.9509     96.8573     12.7153   8.5567951496e+01   5.9465983347e+01    0.3995743    0.2418002   7.06 0.0009950066    2.028    0.507
         9  -9.3117     64.3796     14.2977   9.7570915696e+01   6.6163998682e+01    0.3914535     0.208022  27.02  0.001255105    2.339    0.572
        10  -8.7208    125.1129     10.1648   7.7764120827e+01   5.2802163582e+01    0.2228111    0.1770875  31.02 0.0004078384    1.233    0.189
        11  -9.1313     70.4445      9.4803   9.2464610668e+01   6.5658716238e+01    0.5410404    0.2476351  47.96  0.002266724    2.175    0.540
        12  -9.4527     76.5145      5.8278   8.8214662792e+01   6.4848295621e+01    0.4115472    0.3579721 -11.00  0.001792025    1.097    0.089
        13  -8.2082     34.2806      9.4552   1.0977005472e+02   7.1837044831e+01    0.2431445    0.1770112  -7.24  0.001138687    1.381    0.276
        14  -9.2173     32.2800      5.8579   1.0879553570e+02   7.2726192858e+01    0.2613273    0.1891779 -20.78 0.0003398506    1.215    0.177
        15  -8.3559    155.6928      7.7591   7.1793684396e+01   4.5105917987e+01    0.3923514    0.1867918 -12.88  0.001359978    2.272    0.560
        16  -9.1606     40.5445      6.6573   1.0451861039e+02   7.1413041626e+01    0.3800992    0.2376248  -7.67  0.001814465    1.888    0.470
        17  -9.6983     46.7480      6.3628   1.0105313829e+02   7.0477429899e+01    0.2693882    0.2317346 -17.37 0.0004165565    1.096    0.088
        18  -8.6563     51.4344      4.0000   9.7264512382e+01   7.0021331292e+01    0.3813356   0.07587856  45.22  0.001164959    4.936    0.797
        19  -8.1310      2.9956      1.4851   1.2695993382e+02   7.6463663008e+01    0.1952594     0.141918  27.10 0.0005603464    1.695    0.410
        20 -10.4926      6.9787      5.5967   1.2596323744e+02   7.5370487298e+01    0.4023421     0.231117 -11.34 0.0007470077    1.976    0.494
        21  -8.8012     14.4115      2.6109   1.1879069747e+02   7.5349523831e+01    0.3341624    0.2628177 -12.04   0.00222095    1.199    0.166
        22  -8.4363    100.6099      6.4831   8.1489761126e+01   5.9265681795e+01     0.274458     0.223451  21.44 0.0007943851    1.169    0.144
        23  -9.3952     79.3243     12.9538   9.1148755666e+01   6.3353880238e+01    0.4151841    0.2806396  55.05  0.001234873    1.624    0.384
        24  -8.3834     90.9580      5.2226   8.3408404931e+01   6.1681156218e+01    0.2665782    0.1681989  38.34 0.0006976273    1.517    0.341
        25  -8.7801    119.2178      6.9515   7.7523417105e+01   5.4613766811e+01    0.2534214     0.194767  48.34 0.0003310163    1.228    0.186
        26  -8.5181    143.0087      2.3338   7.1506996927e+01   4.8879358475e+01    0.2425352    0.1988053   7.07 0.0003087154    1.259    0.206
        27  -9.5459    110.7729      3.3998   7.7641989080e+01   5.7070530059e+01    0.4071965    0.2191486 -23.58   0.00182661    1.829    0.453
        28  -8.1641     84.8320      2.9969   8.3984212786e+01   6.3323441156e+01    0.2446609    0.1404239  15.84 0.0006244096    2.061    0.515
        29  -7.9174     56.7406      3.0883   9.4260337952e+01   6.9177971918e+01    0.1939806    0.1605588  -8.61  0.001161788    1.058    0.055
        30  -8.2318    105.4694      1.8208   7.8041901867e+01   5.8531028976e+01    0.3024659    0.1518426  45.09  0.001264129    1.852    0.460
        31  -8.0859    158.8926      1.6635   6.9150970660e+01   4.4787803236e+01     0.289905    0.1012527  61.60  0.001081799    2.502    0.600
        32  -6.9708     76.0000    107.0157   1.2549978776e+02   4.4998505327e+01    0.2199101   0.07482737 -57.85 0.0004389336    2.802    0.643
        33 -10.4631    193.7249    246.8244   1.2160470250e+02   4.1018997057e+00     0.338602    0.1288056  35.86   0.00195159    1.969    0.492
        34  -9.4067    167.2871    249.5322   1.2631076037e+02   7.1191283782e+00    0.2033975    0.1450229  51.71  0.001501216    1.792    0.442
        35  -8.9663     15.0180    104.9199   1.4448412710e+02   5.1835351755e+01    0.3954111    0.1771836 -37.37  0.001760105    3.117    0.679
        36  -8.1242     65.5282    105.4695   1.2843988242e+02   4.6782081635e+01     0.134389    0.1251208 -65.32 0.0001277425    1.024    0.023
        37  -7.4925     70.0333    103.7917   1.2668781291e+02   4.6574514272e+01    0.1738196    0.1096639  34.05 0.0004106672    1.672    0.402
        38  -9.6852    244.4073     98.1165   8.6007345183e+01   1.4004591150e+01    0.2204396    0.1914985 -45.58  0.001387709    1.416    0.294
        39  -7.5772    129.8240     97.3713   1.0774768174e+02   3.7689256767e+01    0.2142894    0.1351044  32.27 0.0009405671    1.733    0.423
        40  -7.0001    151.2988     95.3604   1.0194214279e+02   3.3593222480e+01    0.1566495    0.1138149   2.76 0.0007034921    1.713    0.416
        41  -9.4560     19.5941     92.1430   1.4149177312e+02   5.4567936812e+01    0.3964757     0.319153   0.96  0.002535366    1.556    0.357
        42  -8.9024     16.0144     94.9959   1.4306941486e+02   5.4127328667e+01    0.2248897    0.1872795  72.56 0.0004266857    1.185    0.156
        43  -9.1503     12.3475     93.7536   1.4416670536e+02   5.4656621600e+01    0.2952405     0.209202 -48.78  0.001139766    1.441    0.306
        44  -8.5114     43.3062     92.5604   1.3332901555e+02   5.2430361261e+01    0.3399037    0.2136389  11.86   0.00172419    2.074    0.518
        45  -7.8090    109.5840     91.1521   1.1156805577e+02   4.2930497779e+01     0.304066    0.1988985  21.99  0.001331089    1.955    0.489
        46  -8.2445     96.2716     90.4827   1.1533543537e+02   4.5505501390e+01    0.3294277    0.2136787  11.78  0.001380719    2.360    0.576
        47 -10.2410     37.4495     81.2377   1.3328146531e+02   5.5730904531e+01     0.690107    0.3591328 -25.07  0.002868762    3.083    0.676
        48  -8.0014     65.7928     85.1799   1.2392300056e+02   5.1494267935e+01    0.2014872    0.1550095 -33.16  0.001072864    1.391    0.281
        49  -9.7636      7.7012     77.8746   1.4394858340e+02   5.8724632962e+01    0.6081534    0.2396835 -37.99  0.002321784    3.096    0.677
        50  -7.4906    127.4962     83.0146   1.0427061049e+02   4.0981285719e+01    0.2135264    0.1299716 -15.75 0.0008092686    2.443    0.591
        51  -8.5435     88.6694     78.6721   1.1442958716e+02   4.9412614441e+01    0.3863487    0.2596392   6.19  0.001114923    2.260    0.558
        52  -7.7577    184.4006     78.1629   9.0224847232e+01   2.9107720027e+01    0.2036115    0.1278145 -39.05 0.0007722848    1.574    0.365
        53  -8.6457     49.8035     77.0861   1.2774471016e+02   5.5422138839e+01    0.4688789    0.2558539   6.73  0.001939224    3.020    0.669
        54  -7.0210     69.0000     76.9888   1.2067479990e+02   5.2933688338e+01    0.2330695   0.07496081 -54.25 0.0007247152    2.866    0.651
        55  -7.5933    106.9880     76.0000   1.0788611468e+02   4.6575464034e+01    0.2404929   0.08518941  43.74 0.0005882633    2.926    0.658
        56  -9.5351     23.9564     72.3175   1.3677320392e+02   5.9033893947e+01    0.6481015    0.2119318 -65.08  0.002664874    2.404    0.584
        57 -10.2454     28.7168     69.2719   1.3425655253e+02   5.9389263420e+01    0.7632043    0.2875466 -39.93  0.002941043    3.185    0.686
        58  -8.3615     75.0851     74.0715   1.1769303658e+02   5.2674041402e+01     0.226277    0.2026092  23.87 0.0003895204    1.199    0.166
        59  -7.3488    116.5553     68.4663   1.0267756963e+02   4.6101353145e+01    0.1520311    0.1404693  -8.49 0.0001526036    1.053    0.051
        60  -8.1672    106.1347     67.0777   1.0525993489e+02   4.8538569595e+01    0.2748672    0.1898969  25.62  0.001254407    1.692    0.409
        61  -8.4598     83.5453     64.2835   1.1166550088e+02   5.3403009132e+01    0.3785082     0.256421  -9.64  0.001662084    2.125    0.529
        62  -8.7243     16.0256     64.0492   1.3850432500e+02   6.1574291674e+01    0.3772993    0.1615877 -70.26  0.001755038    1.951    0.488
        63  -8.0654     19.3490     61.3071   1.3654948585e+02   6.2012445968e+01    0.2031024    0.1283211  -7.10  0.001016148    2.039    0.510
        64  -9.7210     37.0425     59.3731   1.2841855536e+02   6.0980640585e+01    0.4698075    0.1665807 -47.43  0.001874903    2.472    0.595
        65  -9.8415     61.9201     61.3610   1.1872286316e+02   5.7494975764e+01    0.8152639    0.2969528  27.51  0.002359987    3.793    0.736
        66  -7.9333    111.3255     58.1056   1.0060567280e+02   4.9166169127e+01    0.2468639    0.1983928  29.67 0.0005645882    1.294    0.227
        67  -7.7144     49.4998     58.4794   1.2286382041e+02   5.9798700150e+01    0.1386776    0.1201314 -42.59  0.000810091    1.035    0.033
        68  -7.0341    165.6889     57.6283   8.7496842570e+01   3.6563057201e+01    0.1616949    0.1114853  15.91 0.0007033896    1.775    0.437
        69  -7.4732    196.4581     56.3972   8.1886848277e+01   2.9394072682e+01    0.1428939    0.1307322   3.70  0.000132213    1.069    0.064
        70  -9.8451     75.1678     50.0615   1.0965475780e+02   5.7813727247e+01    0.3370698    0.2962772 -13.64 0.0003026612    1.117    0.104
        71  -8.4539     97.7699     57.8722   1.0466822940e+02   5.2029488178e+01    0.4542767    0.2631812 -13.82  0.001621364    3.034    0.670
        72  -9.4685     45.3780     49.1022   1.2165773338e+02   6.2417291574e+01    0.4459966    0.2733091 -29.07  0.001346554    1.832    0.454
        73  -8.2707    118.6467     51.1252   9.5991790378e+01   4.8782196532e+01    0.2764543    0.2048308  38.06 0.0006173811    1.377    0.274
        74  -7.8467     40.4252     50.4205   1.2431881252e+02   6.2692677511e+01     0.134638    0.1143816 -43.47 0.0001263834    1.026    0.026
        75  -7.8057    106.5579     48.6804   9.8508959346e+01   5.1896709813e+01    0.3066978    0.1675189  34.49  0.001181842    2.119    0.528
        76  -9.2932     57.3001     41.7672   1.1368302034e+02   6.2391477220e+01    0.5187086     0.275249 -22.87  0.001770267    2.925    0.658
        77  -8.4777      6.7922     47.6161   1.3952721987e+02   6.6008647297e+01    0.2314477    0.1803536  27.76 0.0004033311    1.558    0.358
        78  -8.7142     10.5043     47.0511   1.3760112036e+02   6.5949343377e+01    0.2944139    0.1790242 -65.32 0.0008137638    1.326    0.246
        79  -9.2905     13.5491     45.5210   1.3575144012e+02   6.6131929659e+01    0.5938138    0.1983258 -44.92  0.002055522    2.617    0.618
        80  -7.8369    114.4779     41.5057   9.3429903637e+01   5.1324637986e+01    0.2411169    0.1765573  13.97 0.0007214469    1.589    0.371
        81  -9.3000      6.4058     33.9013   1.3659243842e+02   6.9228116916e+01    0.3939331     0.236807 -39.95  0.001751161    1.498    0.333
        82  -9.2882      3.6124     39.7920   1.3949279497e+02   6.7993106607e+01    0.3911273   0.08604812 -67.55  0.001455127    3.166    0.684
        83  -7.2412    142.5180     44.4444   8.7716010908e+01   4.4161491964e+01    0.1526266    0.1402826  12.43 0.0002341193    1.064    0.060
        84  -8.8741    250.4699     41.6781   7.1498309298e+01   1.9307369429e+01    0.2275828    0.1360017 -25.72 0.0002374063    1.402    0.287
        85  -7.7904    123.7885     39.8447   9.0339899306e+01   4.9394135949e+01    0.2358411    0.1960366  11.87 0.0008661271    1.248    0.199
        86  -8.9475     72.7051     34.2009   1.0407150878e+02   6.1305943661e+01    0.4191357    0.2853034   0.33  0.001961493    1.911    0.477
        87  -9.0126     66.9513     38.0598   1.0806869670e+02   6.1596769736e+01    0.4541932    0.3084742  -4.69  0.002141346    1.934    0.483
        88  -9.7891     58.2976     35.3822   1.1059946363e+02   6.3526251729e+01    0.6417177    0.4496373  48.05  0.002360258    1.750    0.429
        89 -10.1371     90.8737     38.2571   9.9247389405e+01   5.7043916954e+01    0.6124251    0.3198359  49.18  0.002601303    2.039    0.510
        90  -8.1066    106.0807     36.6993   9.3837395371e+01   5.4005669907e+01    0.3682419    0.1939308  27.41  0.001344155    2.740    0.635
        91  -9.2009     38.8725     35.3327   1.1973762282e+02   6.6195855766e+01    0.3446435    0.2138642  13.21  0.001016001    1.978    0.495
        92  -9.4625     22.3130     33.2835   1.2763854717e+02   6.8307139633e+01    0.4580155    0.2355663 -68.66  0.002163597    2.120    0.528
        93  -8.3313     18.8246     36.1375   1.3045775578e+02   6.7942013643e+01    0.1810763    0.1187189 -42.44 0.0004361278    1.314    0.239
        94  -7.4431    109.3100     31.6327   9.0783562870e+01   5.4037408204e+01    0.1524057    0.1134905 -60.04 5.456703e-05    1.760    0.432
        95  -9.0979      1.7641     28.8420   1.3791792693e+02   7.0601480178e+01    0.5288681     0.117254 -65.80  0.002020089    3.096    0.677
        96  -7.7336    192.0027     29.7510   7.4446237876e+01   3.3672949859e+01     0.186469    0.1796826  63.67 0.0002977632    1.092    0.084
        97  -9.4326    204.5199    249.6812   1.2021198333e+02   2.4936048980e+00    0.2735159   0.06871273  40.27  0.001227115    3.551    0.718
        98  -9.7929     69.9537     25.6128   1.0115361292e+02   6.3316453344e+01    0.3280042    0.3216291   5.66  0.001736405    1.202    0.168
        99  -9.1493     61.9691     27.0147   1.0516770408e+02   6.4498878641e+01    0.4283782     0.233769  29.37 0.0009645171    2.129    0.530
       100  -7.7593    109.0361    106.4890   1.1568898881e+02   3.9781205466e+01    0.2165529    0.1414443  35.59  0.001017316    1.577    0.366
       101  -8.4712     32.7381     20.4243   1.1651009223e+02   6.9980171761e+01    0.3775243    0.1231219  32.00  0.001203684    3.381    0.704
       102  -8.1323    153.6588    249.6862   1.2863469618e+02   8.8025511742e+00    0.1042881   0.06657879  13.59  0.000353252    1.703    0.413
       103  -8.3260     46.0916     21.1531   1.0970937184e+02   6.8080767281e+01    0.2903702    0.1627674 -39.19 0.0009207164    1.574    0.365
       104  -9.3619     41.9949     27.4510   1.1482114019e+02   6.7436610189e+01    0.3307772    0.2004998 -50.24  0.001013463    1.560    0.359
       105  -8.8288     92.9041     20.1710   9.0367055977e+01   5.9417028211e+01    0.3101665    0.2161736   4.02  0.001494146    1.608    0.378
       106  -8.3520    140.2945     20.0165   7.8929801007e+01   4.7875172562e+01    0.2396379    0.2035005  55.35 0.0003610236    1.165    0.142
       107  -8.2191    112.0654     19.3231   8.4675914603e+01   5.5042931402e+01    0.2352502    0.1883512   0.02 0.0002637098    1.256    0.204
       108  -8.5724      9.5636     19.7225   1.3027623164e+02   7.2229324558e+01    0.2845766    0.1761174 -20.72 0.0009277563    1.715    0.417
       109  -8.2828      5.1658     18.8300   1.3279035462e+02   7.2682822809e+01    0.1954303    0.1458701 -45.83 0.0003117066    1.066    0.062
       110  -9.2758     69.2702    245.1792   1.4293590404e+02   1.9324998024e+01    0.1707059    0.1293265  43.53 0.0002637746    1.077    0.071
       111  -7.7575    128.9886     22.4921   8.2160281549e+01   5.0466299429e+01    0.2671937    0.1534877 -13.40  0.001129116    1.900    0.474
       112  -8.8563    178.0435    240.7167   1.2347201659e+02   6.7269282249e+00    0.1509086   0.09949793   3.07   0.00104502    1.667    0.400
       113  -7.6109     94.3895    240.4863   1.3817244409e+02   1.7197617697e+01    0.1014235   0.07856508  43.02 0.0007998415    1.028    0.027
       114  -9.5523    187.9515    234.0634   1.2095990501e+02   6.1766436077e+00    0.1914016    0.1692505   7.54  0.001065352    1.314    0.239
       115  -7.9140      4.0065    234.4805   1.5366103170e+02   2.7012816341e+01    0.1296887   0.09418038  63.47 0.0004504217    1.089    0.082
       116  -7.0969    135.5823    230.5375   1.2977899269e+02   1.3483180512e+01    0.1085663   0.08436996  35.07 7.930107e-05    1.032    0.031
       117  -7.0592    141.0000    225.9362   1.2827449587e+02   1.3388777587e+01     0.147741   0.06418759 -49.71 0.0008018895    2.939    0.660
       118  -7.5720      9.3205     12.3182   1.2743078870e+02   7.3825100711e+01    0.1327142   0.07155924 -34.44 0.0003168465    1.664    0.399
       119  -8.4545     46.9980    224.0130   1.4568768703e+02   2.4844718098e+01    0.1471957    0.1182165  54.41 0.0004395153    1.070    0.065
       120  -7.0313     44.2746    211.2886   1.4547504613e+02   2.7225486950e+01   0.08543856   0.08014095 -24.76 0.0006925095    1.513    0.339
       121  -7.4363    142.0288     10.1965   7.4761638367e+01   4.8438856616e+01    0.1976714    0.1099875  65.79 0.0008586137    1.767    0.434
       122  -7.0243    155.7615    201.9914   1.2243937665e+02   1.4662123712e+01    0.1286157    0.0993775 -37.35 0.0003218022    1.518    0.341
       123  -7.5290     65.5201    200.5338   1.4049323134e+02   2.6854940632e+01     0.108161   0.09319724  50.45 0.0008080158    1.083    0.077
       124  -7.5752    189.8241    176.1485   1.1180015489e+02   1.3098857280e+01    0.1711067    0.1256682   7.41 0.0002507099    1.289    0.224
       125  -8.4235    205.4127    152.7681   1.0446855480e+02   1.3768916752e+01    0.1879548    0.1117455 -17.86 0.0009579152    1.743    0.426
       126  -7.3620    189.3041    149.6267   1.0682217598e+02   1.7017567120e+01    0.1225828    0.1084697 -74.81 0.0007030885    1.760    0.432
       127  -9.1039     67.3584    144.8256   1.3425716955e+02   3.7631708394e+01    0.4389701    0.2652526  63.05    0.0022628    1.862    0.463
       128  -7.6360    203.1761    139.4051   1.0207261944e+02   1.6046782311e+01    0.1677449    0.1244934  49.44 0.0004014506    1.594    0.373
       129  -8.7061    133.9196    138.0871   1.1630074989e+02   2.8917028684e+01    0.2099224    0.1933613 -28.70 0.0003803291    1.115    0.103
       130  -7.0859    139.6627    138.6940   1.1507729174e+02   2.7783025017e+01    0.1421061    0.1053338   2.49 0.0007040882    1.674    0.403
       131  -8.1526     11.6934    121.6593   1.4697817997e+02   4.8166143645e+01    0.1198109   0.07704889 -51.18 0.0007042229    1.684    0.406
       132  -9.9124    244.3833    118.0170   9.0594158159e+01   1.1571878093e+01    0.3465106    0.2380285  -4.09  0.001233104    1.333    0.250
       133  -7.6267     99.3720    119.2941   1.2125803841e+02   3.8671829821e+01    0.1425491    0.1090627  -9.20 0.0005761976    1.731    0.422
       134  -7.6348    119.0840    119.0000   1.1590489094e+02   3.5355972311e+01    0.2321601   0.07941712  40.18 0.0007954481    2.894    0.654
       135  -7.4730    142.6774    111.6265   1.0824153054e+02   3.2345067265e+01    0.1557072    0.1119629  -0.72 0.0007030616    1.814    0.449
       136  -7.5896     55.0000    109.9844   1.3255543529e+02   4.7012599944e+01    0.2256619   0.06966318 -64.30 0.0008094744    2.991    0.666
       137  -8.4399      2.4827    109.4085   1.4873544180e+02   5.1538623020e+01    0.2868058    0.1244039 -45.57  0.001389709    2.714    0.632
       138  -8.0552    123.6363    107.3114   1.1194431191e+02   3.6908477109e+01    0.3172417    0.2091651   6.32  0.001273327    2.429    0.588
       139  -7.9959    133.7260    106.5121   1.0915255869e+02   3.5108075414e+01    0.2992964    0.2174291 -11.20  0.001240532    1.733    0.423
