#   1 NUMBER                 Running object number                                     
#   2 MAG_AUTO               Kron-like elliptical aperture magnitude                    [mag]
#   3 X_IMAGE                Object position along x                                    [pixel]
#   4 Y_IMAGE                Object position along y                                    [pixel]
#   5 X_WORLD                Barycenter position along world x axis                     [deg]
#   6 Y_WORLD                Barycenter position along world y axis                     [deg]
#   7 A_WORLD                Profile RMS along major axis (world units)                 [deg]
#   8 B_WORLD                Profile RMS along minor axis (world units)                 [deg]
#   9 THETA_WORLD            Position angle (CCW/world-x)                               [deg]
#  10 FWHM_WORLD             FWHM assuming a gaussian core                              [deg]
#  11 ELONGATION             A_IMAGE/B_IMAGE                                           
#  12 ELLIPTICITY            1 - B_IMAGE/A_IMAGE                                       
         1 -14.2873    228.4850    159.4544   8.2820931268e+01   7.0236728716e+00     4.561966     2.779222 -10.78   0.02493284    1.872    0.466
         2  -8.4246    145.7916    178.8523   1.0251166145e+02   1.7009868115e+01    0.2162576     0.177034   2.69 0.0007207354    1.267    0.211
         3  -9.8139     33.7328    246.9075   1.3639616969e+02   1.9038110620e+01    0.2767752    0.1334933  21.59  0.001466712    2.133    0.531
         4 -10.9217     18.0097    248.9451   1.3978165397e+02   2.0219170633e+01    0.5188703    0.2700123  23.97  0.003070357    1.836    0.455
         5 -10.5431     17.7937    242.8289   1.3962559924e+02   2.1355873918e+01    0.3140546    0.2090486 -36.07  0.001902211    2.548    0.608
         6  -7.5919     57.3188    240.3024   1.3088687315e+02   1.7684387623e+01    0.1089351   0.08889856  -2.56 0.0006536295    1.625    0.385
         7 -10.9860      3.7592    246.5700   1.4264698034e+02   2.1943530628e+01    0.5488939    0.2937031 -71.31  0.003457801    2.268    0.559
         8  -9.9647      2.3827    231.3279   1.4258407456e+02   2.4918301654e+01    0.3207632    0.0958272 -82.39  0.001471007    3.462    0.711
         9  -7.3394     99.3239    218.3240   1.1924628611e+02   1.6505115146e+01    0.1277401   0.09608139  -4.43 0.0003962199    1.685    0.407
        10  -9.8963      8.7608    247.5562   1.4164811050e+02   2.1322443745e+01    0.2836991    0.1531116  21.57  0.001222486    1.902    0.474
        11  -7.9146    131.4879    215.0001   1.1138629657e+02   1.2551770323e+01    0.2594325    0.1456501  -0.28  0.001028087    3.356    0.702
        12  -7.7043     98.2418    212.9749   1.1889717504e+02   1.7683798263e+01    0.1491574    0.1149743 -65.08 0.0008386534    1.562    0.360
        13  -8.2490    124.5057    212.4927   1.1264094096e+02   1.4014081069e+01    0.1334847    0.1110924  27.53 0.0008106201    1.005    0.005
        14 -10.7465    245.9395    180.4885   8.3982993423e+01   1.8174130784e+00    0.7644823    0.3867917  20.37  0.004196914    2.353    0.575
        15 -13.2776    175.3184    194.0376   9.8707384159e+01   9.6110813885e+00      2.45252     1.496136 -12.31   0.01219743    2.084    0.520
        16  -9.1778    171.0693    175.9323   9.6405313974e+01   1.3349426551e+01    0.3111899    0.1855764  -9.91  0.001341713    2.545    0.607
        17  -8.0865    134.9816    176.5265   1.0466869644e+02   1.9283176667e+01    0.2016212    0.1191801  12.34  0.000809024    2.461    0.594
        18  -8.2462    159.3885    174.3356   9.8624797813e+01   1.5578359362e+01    0.3171125    0.1884136  -3.20  0.001250256    2.962    0.662
        19  -8.8834    111.9521    181.1459   1.1119327433e+02   2.2135370220e+01    0.5483176     0.192891  27.62  0.001765148    3.395    0.705
        20  -8.0439    164.9800    172.0592   9.6984743551e+01   1.5053616165e+01    0.2213155    0.1569277  -1.01 0.0006275135    1.674    0.403
        21 -10.0895    152.8426    199.4796   1.0434973734e+02   1.2102109073e+01    0.3017463    0.1732426 -39.33  0.001530883    1.909    0.476
        22 -11.3104    149.3533    204.8788   1.0595144215e+02   1.1690609240e+01     0.536266    0.3337925 -43.07   0.00289542    1.795    0.443
        23  -8.3096    153.5113    173.1211   9.9716400758e+01   1.6800635939e+01    0.2342304    0.1758681  11.44  0.001230183    1.418    0.295
        24  -8.1941    159.4596    169.0254   9.7623855999e+01   1.6553400368e+01    0.3049023    0.1635037  21.21  0.001239456    2.444    0.591
        25  -7.9048    119.2021    168.9727   1.0731675736e+02   2.3543889532e+01    0.2330057    0.1611434 -22.88   0.00086632    1.922    0.480
        26 -10.2373    178.8696    166.9579   9.3115595075e+01   1.3626270819e+01    0.4643333    0.2689146  -2.95  0.001836511    3.102    0.678
        27  -9.2545    139.2054    206.7555   1.0848821586e+02   1.2878312534e+01     0.283141    0.1735839  -4.09  0.001289329    2.465    0.594
        28  -7.6579    160.7896    163.3883   9.6252825606e+01   1.7380650891e+01    0.2015081    0.1249762  27.40 0.0009442616    1.666    0.400
        29  -7.6983    101.6506    169.6577   1.1211319215e+02   2.6331420971e+01    0.1511382    0.1128717 -11.82 0.0007043752    1.801    0.445
        30  -9.2568    145.8143    195.4642   1.0527660997e+02   1.3901019409e+01    0.3214531    0.1845358 -12.34  0.001290468    3.099    0.677
        31 -10.1186    162.3016    193.8942   1.0139793311e+02   1.1618808208e+01    0.3207369    0.1890244  -4.37  0.001080195    2.646    0.622
        32  -7.7212    100.9990    162.4729   1.1111073776e+02   2.8082648715e+01    0.2096242    0.1302228   7.68 0.0008091252    2.537    0.606
        33  -7.9194    105.7979    200.1763   1.1547326612e+02   1.9135581030e+01    0.1865972    0.1540995   3.04 0.0007930316    1.358    0.264
        34  -7.9757    115.5648    192.2921   1.1195857993e+02   1.9247191413e+01    0.2396788    0.1592185  13.19  0.001156836    1.765    0.434
        35 -10.1361    186.3947    203.8275   9.8128712308e+01   6.4615151589e+00    0.2568948    0.1489811 -39.53  0.001420808    1.831    0.454
        36  -8.1043    121.6482    203.0636   1.1202240221e+02   1.6195774218e+01    0.2822644    0.1597295   8.89  0.001160056    2.739    0.635
        37  -8.0198     97.9789    203.5046   1.1783455361e+02   1.9604787260e+01    0.2236788    0.1161162  32.75  0.001045845    1.629    0.386
        38 -13.4039    196.8717    171.5147   9.0486693190e+01   9.9546137445e+00      1.76553    0.9968684 -27.46  0.008977624    1.802    0.445
        39  -7.7165    138.3470    152.3124   9.9308604868e+01   2.3666349253e+01     0.153008    0.1143295  -0.66 0.0004576819    1.713    0.416
        40  -9.0273    138.9274    196.9745   1.0708247222e+02   1.4695879626e+01    0.3501529    0.1546996 -37.32  0.001428526    2.876    0.652
        41  -8.5622    103.5203    190.1851   1.1469135181e+02   2.1541337569e+01    0.2948858    0.2057308  -5.24  0.001406459    2.025    0.506
        42  -7.7913    171.0202    150.0023   9.1358424221e+01   1.8046219495e+01    0.2273533    0.1644855  -3.12  0.001116934    1.704    0.413
        43 -13.1995    193.1368    192.7316   9.4987239180e+01   7.1903740515e+00     1.642401     1.010487  37.87  0.009250865    1.641    0.391
        44  -9.4315    157.9305    185.5323   1.0093275510e+02   1.3777389806e+01    0.2945268    0.1908812  13.56  0.001208075    1.746    0.427
        45  -8.3011    137.8314    190.2176   1.0627252746e+02   1.6136646917e+01    0.1927425    0.1525329   4.49 0.0007466559    1.336    0.251
        46  -8.4324    134.6269    201.9450   1.0882429492e+02   1.4439442697e+01    0.2423522    0.1697468  21.41  0.001015959    1.333    0.250
        47  -7.1790    183.6237    141.7002   8.7063636631e+01   1.7239908257e+01    0.1448564    0.1035092   5.13 0.0007026733    1.757    0.431
        48  -7.5292    149.4616    141.4742   9.4349689432e+01   2.3783192602e+01    0.1466353    0.1395542  11.04 0.0002651674    1.019    0.018
        49  -8.1255    130.4454    189.8803   1.0796626946e+02   1.7380695843e+01    0.2609554    0.1683254  -1.91  0.000956321    2.291    0.564
        50  -8.1492    124.8380    197.8648   1.1051910644e+02   1.6708584754e+01    0.2158449     0.173968   3.86  0.001225939    1.333    0.250
        51 -10.2750     12.3088    243.0791   1.4078924494e+02   2.1819417159e+01    0.2228926    0.1658691  19.46  0.001018737    1.524    0.344
        52  -7.3535    102.3391    197.3107   1.1595752598e+02   2.0233606974e+01    0.1371013    0.1035384  -5.30 0.0007045073    1.690    0.408
        53  -8.3390    121.1679    186.9353   1.0976457051e+02   1.9450639142e+01    0.2573811    0.1889891  30.45   0.00122143    1.217    0.178
        54 -10.0048    150.3163    186.1524   1.0273278653e+02   1.4892006517e+01    0.5082061    0.1737304  31.61  0.001812457    2.991    0.666
        55  -9.2786    142.8960    184.3442   1.0412625754e+02   1.6437603106e+01    0.2610029    0.1985877 -27.69    0.0008585    1.441    0.306
        56  -9.4853    164.0451    183.3388   9.9224293961e+01   1.3184962470e+01    0.4536575    0.1975501  20.71  0.001481015    4.130    0.758
        57  -8.2100    134.4730    182.5223   1.0580965826e+02   1.8173606870e+01    0.2413394    0.1787879  -8.28 0.0008675635    1.650    0.394
        58  -8.9788    123.0463    179.6250   1.0813202578e+02   2.0644847469e+01     0.371314     0.256189   4.64  0.001746321    1.898    0.473
        59  -8.3371    164.0039    103.8265   8.2200866531e+01   2.8167807474e+01    0.2139524    0.2101157 -41.06 0.0008181441    1.016    0.016
        60  -9.1671    220.2282     97.4701   7.1265361539e+01   1.7686649906e+01    0.2291638     0.195689 -34.50 0.0003249393    1.044    0.042
        61 -10.1600    163.2736    177.8339   9.8411326814e+01   1.4293042295e+01    0.5705042    0.3201599   4.27  0.002118942    3.449    0.710
        62  -8.1376    107.8928     82.8915   9.0416242625e+01   4.5240736137e+01    0.2250303    0.2068223   9.86 0.0002642174    1.227    0.185
        63  -7.6652    164.8125     76.8356   7.4866154559e+01   3.2823653788e+01    0.1968184    0.1634641 -74.40  0.000333869    1.264    0.209
        64  -9.5968    121.7044     61.5318   7.9566824207e+01   4.6108400063e+01    0.2610134    0.2520901 -74.25  0.000314521    1.052    0.050
