#   1 NUMBER                 Running object number                                     
#   2 MAG_AUTO               Kron-like elliptical aperture magnitude                    [mag]
#   3 X_IMAGE                Object position along x                                    [pixel]
#   4 Y_IMAGE                Object position along y                                    [pixel]
#   5 X_WORLD                Barycenter position along world x axis                     [deg]
#   6 Y_WORLD                Barycenter position along world y axis                     [deg]
#   7 A_WORLD                Profile RMS along major axis (world units)                 [deg]
#   8 B_WORLD                Profile RMS along minor axis (world units)                 [deg]
#   9 THETA_WORLD            Position angle (CCW/world-x)                               [deg]
#  10 FWHM_WORLD             FWHM assuming a gaussian core                              [deg]
#  11 ELONGATION             A_IMAGE/B_IMAGE                                           
#  12 ELLIPTICITY            1 - B_IMAGE/A_IMAGE                                       
         1 -14.1210      7.5187    209.4358   1.5315585402e+02   3.0000158799e+01     2.251929    0.6132757 -70.12   0.01176421    3.629    0.724
         2 -14.3176      4.4513    176.8282   1.5265309958e+02   3.6182795802e+01     2.997107    0.6964994 -78.92  0.008789089    3.708    0.730
         3 -15.0800     17.7405    166.7709   1.4933761936e+02   3.7178017451e+01     6.371998     1.768366  85.45   0.02229276    5.284    0.811
         4 -13.7607    190.4442     26.1064   7.3819825411e+01   3.4310585958e+01     1.444135     1.322065  44.74  0.006309081    1.131    0.116
         5 -13.8594    204.3206      7.6594   6.6624062302e+01   3.2711027504e+01     1.558374     1.067672  43.25  0.008202619    1.591    0.371
         6 -13.5529      6.6490     10.9134   1.3045192845e+02   7.4004389970e+01     1.858686     0.704728 -50.88  0.009019259    1.873    0.466
         7  -9.6748    198.3221    246.3162   1.2165677192e+02   2.9533221278e+00    0.1078186   0.06179465  12.59 0.0002843693    1.663    0.399
         8 -10.8756    173.2975    248.4056   1.2607130510e+02   5.8428310126e+00      0.29894    0.1985637  54.95  0.001998607    2.336    0.572
         9 -11.2989    139.6700    249.9808   1.3197646949e+02   9.8254253526e+00     0.316502     0.127157  36.36  0.001868155    1.805    0.446
        10 -11.3741    128.0703    248.2621   1.3381996142e+02   1.1447966511e+01    0.3920435    0.2274145 -20.46  0.002229523    3.484    0.713
        11  -9.8786    123.0007    250.2240   1.3487615882e+02   1.1812343406e+01    0.1627969   0.06910146  41.68 0.0009806139    1.779    0.438
        12 -10.5877     66.5691    250.3989   1.4458890960e+02   1.8123172314e+01    0.3136484    0.1005696  33.05  0.001629251    2.482    0.597
        13 -10.0700     30.6854    250.2933   1.5054458014e+02   2.1605132734e+01    0.2517096   0.09744297  48.07  0.001725594    1.734    0.423
        14 -11.1809     34.8284    245.1480   1.4967024164e+02   2.1976148057e+01    0.3874665    0.3143369 -46.74  0.003397741    1.912    0.477
        15 -10.9825      2.5892    249.4187   1.5499037203e+02   2.4091848525e+01     0.240199     0.162999 -87.14  0.002194336    1.584    0.369
        16 -10.4604      7.4894    249.2616   1.5422112959e+02   2.3725559163e+01    0.2041957     0.113012  41.30 0.0007491081    1.347    0.258
        17  -9.3842     76.6999    245.5287   1.4255841943e+02   1.7736473938e+01    0.1617491   0.09717482  65.55 0.0008387293    1.742    0.426
        18  -9.6283     83.9726    244.5951   1.4122945048e+02   1.7073220180e+01    0.2276893   0.09133824  61.91  0.001079742    3.965    0.748
        19 -10.2562     66.6051    243.0557   1.4415781378e+02   1.9162486793e+01    0.1814602    0.1181841  47.21  0.000574162    1.136    0.120
        20 -10.7683     12.8510    240.9994   1.5315421868e+02   2.4505373290e+01    0.2147045    0.0875979  55.92  0.001500732    1.750    0.428
        21  -9.7939     95.1457    241.0758   1.3900125148e+02   1.6304908331e+01     0.143044    0.1188906  31.28 0.0003815684    1.198    0.166
        22 -11.0925    185.2067    237.8787   1.2279248018e+02   5.4796122867e+00    0.2192756    0.1942562 -54.49  0.001680259    1.913    0.477
        23 -10.0746    249.7236    248.4482   1.1388325477e+02  -3.3000786341e+00    0.2334932   0.07303087 -22.28  0.001230544    3.669    0.727
        24 -10.0779     99.3142    248.9005   1.3887108009e+02   1.4757583858e+01    0.1830396    0.1418743   2.05  0.001422798    1.781    0.439
        25  -9.7177     81.8348    249.0470   1.4190083711e+02   1.6689783789e+01    0.1601535    0.1001955  52.38  0.000892833    1.327    0.247
        26 -12.8812     41.8367    235.8706   1.4808134109e+02   2.2710254783e+01     0.242413    0.2283796 -63.44 0.0007936224    1.495    0.331
        27  -9.0092    152.6427    212.9960   1.2545386631e+02   1.2907460743e+01    0.1441018    0.1272192  17.36 0.0003815463    1.133    0.117
        28 -10.0424     32.3892    207.0721   1.4841510289e+02   2.8300072547e+01    0.3377737    0.1005334  50.80  0.001732038    2.599    0.615
        29 -12.3379     24.4465    202.0495   1.4970196593e+02   2.9893203805e+01    0.4542572     0.140738  47.65   0.00215661    2.341    0.573
        30 -11.6363     66.5642    200.7826   1.4124302314e+02   2.5942071075e+01    0.2552707     0.201725 -43.44 0.0006450329    1.676    0.403
        31 -10.0054    192.0431    193.0737   1.1512657118e+02   9.8891943787e+00    0.4236958    0.2344353 -54.88  0.001850522    4.247    0.765
        32 -11.9587     72.1199    192.5282   1.3938582684e+02   2.6791618771e+01    0.2211611    0.2110206 -65.38 0.0004341588    1.255    0.203
        33 -14.3245     56.1948    215.2715   1.4433336205e+02   2.4570689347e+01     7.292163          nan  38.43   0.02127818    7.526    0.867
        34  -8.4386    105.6420    181.3196   1.3092306183e+02   2.4575307038e+01     0.129189   0.08457784  60.82 0.0007044622    1.761    0.432
        35 -13.4233     68.7670    177.4854   1.3868836974e+02   3.0017344604e+01    0.4458576     0.261467 -42.63  0.001836887    2.321    0.569
        36 -11.0811     81.4677    179.4698   1.3605468629e+02   2.8103333084e+01    0.2109131    0.1937515  52.21 0.0003546773    1.065    0.061
        37 -12.0502     88.3349    169.6432   1.3334309711e+02   2.9125497059e+01    0.5757881    0.5372083  52.45  0.003982866    1.044    0.042
        38  -9.1987    195.4831    159.1739   1.0836414680e+02   1.4009479289e+01    0.2026383    0.1725327  84.60 0.0008169884    2.168    0.539
        39 -11.8309     32.9217    155.5087   1.4507199938e+02   3.8244770173e+01    0.5186738    0.1207687 -70.03  0.002053529    3.591    0.722
        40 -11.6038     33.0000    148.0021   1.4444321900e+02   3.9857466670e+01     0.397712    0.1251982 -77.18  0.001646017    3.101    0.677
        41  -9.3171    102.9729    149.0227   1.2686515523e+02   3.1221044749e+01    0.1953452    0.1855213  -4.77 0.0004453947    1.136    0.120
        42 -12.1720     89.0236    152.9129   1.3092430109e+02   3.2419503367e+01    0.2554264    0.2314273 -18.18 0.0005090705    1.291    0.225
        43 -12.7238     66.9120    143.6574   1.3526726213e+02   3.7266395386e+01    0.7809352    0.4510598  60.23  0.003106961    1.946    0.486
        44 -11.9448     57.0550    131.0509   1.3623623761e+02   4.1249430656e+01     0.563977    0.3504084 -89.84  0.002907604    1.790    0.441
        45 -10.2905    177.8749    227.7361   1.2276560447e+02   7.5848609477e+00    0.1702973    0.1468818  81.23  0.001033435    2.162    0.537
        46  -8.6050    192.2212    144.0559   1.0588312697e+02   1.6820488145e+01    0.1670962      0.10431 -29.13 0.0003996671    1.568    0.362
        47 -10.2866    100.3031    153.3687   1.2821509569e+02   3.0726276268e+01     0.271915    0.2527366 -47.95 0.0007934017    1.148    0.129
        48  -9.8456    111.0220    137.7368   1.2286590756e+02   3.2305459812e+01    0.3586894    0.2334452 -19.56  0.001179849    2.339    0.572
        49 -10.7997     98.4540    135.4266   1.2569017858e+02   3.4763669431e+01     0.249331    0.2224126 -17.21 0.0006871771    1.260    0.206
        50 -11.0278     33.6049    132.8001   1.4289600564e+02   4.3200117681e+01    0.2631711    0.1566371  68.61  0.001439402    1.706    0.414
        51  -9.3482    107.9117    124.6374   1.2110355141e+02   3.5585108600e+01    0.1865134    0.1663656  37.34 0.0004260818    1.115    0.103
        52 -11.3996    114.7557    226.5873   1.3415454961e+02   1.6006660625e+01    0.5340012    0.1236135  39.40  0.002290965    3.118    0.679
        53 -14.0223     47.5264    227.9527   1.4668230148e+02   2.3389236451e+01    0.8210133     0.483306  52.33  0.003654366    1.309    0.236
        54 -10.6864     33.0000    119.9798   1.4171031413e+02   4.6224969646e+01    0.3084573    0.1123608 -58.33  0.001352518    2.411    0.585
        55  -9.4007    174.6374    137.8221   1.0807201550e+02   2.1019267464e+01       0.2359    0.1845519  71.31 0.0007956966    2.045    0.511
        56 -10.4249    168.1627    113.2254   1.0368638420e+02   2.6490657877e+01    0.3173504    0.2791035 -78.43 0.0009349817    1.580    0.367
        57  -9.7565    203.2163    111.7713   9.6355258448e+01   1.9652712134e+01     0.202038    0.1504066   4.07 0.0005553209    1.341    0.254
        58 -11.0011    172.9769    222.2225   1.2291405216e+02   8.9062001025e+00    0.3199881    0.1768744  28.04  0.001965558    1.468    0.319
        59 -10.3059     34.6871     93.0227   1.3755559862e+02   5.2565015391e+01    0.4406182     0.201779  42.69  0.002024764    2.379    0.580
        60  -9.4333    155.5370     75.5039   9.5955863811e+01   3.5865094759e+01    0.1543301    0.1435357  -9.47 8.990488e-05    1.012    0.012
        61 -10.3874     16.3264     66.1557   1.4000079693e+02   6.0519886448e+01    0.2880144    0.1677079  31.97 0.0008586956    1.991    0.498
        62 -10.8776      6.0534     62.9563   1.4375620674e+02   6.1838243739e+01    0.1871215    0.1799523 -68.39 0.0005194112    1.201    0.167
        63 -10.7493      2.1650     61.2176   1.4513973553e+02   6.2422164904e+01    0.2488774    0.1717231  80.70 0.0009273511    1.456    0.313
        64  -8.8013     32.6111     61.8540   1.3226830599e+02   6.0372383416e+01    0.1827558    0.1151266 -75.21 0.0004836428    1.605    0.377
        65 -11.8308      1.9940     51.5378   1.4379001382e+02   6.4775558247e+01    0.6396302    0.2686408  42.34  0.002985009    2.992    0.666
        66 -11.3639      2.8451     46.7234   1.4257958178e+02   6.5904910683e+01    0.2864702    0.2128052 -71.05  0.001590286    1.097    0.089
        67  -9.4309     47.0236    249.0894   1.4780669882e+02   2.0259632937e+01    0.1495115     0.102983  51.49 0.0005533035    1.048    0.046
        68 -10.3990    237.8170    247.1954   1.1550804340e+02  -1.8499108944e+00    0.1463835   0.08406081  12.73 0.0005783665    1.322    0.244
