#   1 NUMBER                 Running object number                                     
#   2 MAG_AUTO               Kron-like elliptical aperture magnitude                    [mag]
#   3 X_IMAGE                Object position along x                                    [pixel]
#   4 Y_IMAGE                Object position along y                                    [pixel]
#   5 X_WORLD                Barycenter position along world x axis                     [deg]
#   6 Y_WORLD                Barycenter position along world y axis                     [deg]
#   7 A_WORLD                Profile RMS along major axis (world units)                 [deg]
#   8 B_WORLD                Profile RMS along minor axis (world units)                 [deg]
#   9 THETA_WORLD            Position angle (CCW/world-x)                               [deg]
#  10 FWHM_WORLD             FWHM assuming a gaussian core                              [deg]
#  11 ELONGATION             A_IMAGE/B_IMAGE                                           
#  12 ELLIPTICITY            1 - B_IMAGE/A_IMAGE                                       
         1 -15.0177    224.9946     67.0363   2.5331875458e+01   2.0354023175e+01     1.906955     1.208287  44.01  0.009695725    1.955    0.488
         2 -13.7803    229.3670     56.9449   2.2384911059e+01   2.0818391432e+01     1.410308     0.488396 -35.31  0.005739035    2.349    0.574
         3 -14.5354    239.0247     55.7859   2.1128342336e+01   1.8958472218e+01     1.220262    0.9870131 -63.09  0.007635719    1.182    0.154
         4 -14.5788     54.0269     53.4327   6.2173093465e+01   6.1721783212e+01     1.588324    0.5775586 -53.24   0.00575146    2.863    0.651
         5 -15.0263     64.8767     41.8579   5.2819191363e+01   6.2168273219e+01     1.011257     0.816578   6.56  0.005512685    1.368    0.269
         6 -14.3302     75.8357     29.5388   4.2959686921e+01   6.2062014167e+01    0.8034924    0.6621767  44.99  0.004513639    1.192    0.161
         7 -13.8364     61.4802     17.5348   4.2407919822e+01   6.6743500126e+01    0.5375314    0.3521588  27.72  0.002778354    1.617    0.382
         8 -13.8085     69.8291     16.9825   3.8896650403e+01   6.5099020341e+01    0.4942094    0.3337416  -3.60  0.002507246    1.741    0.426
         9 -14.2419     92.9599      3.5153   2.5253071197e+01   6.1215805222e+01     1.203616    0.5813517  60.03  0.005484171    1.813    0.449
        10 -13.9829     75.5087     13.3219   3.5021959219e+01   6.4312583407e+01    0.5812769    0.5072088 -64.06  0.003434181    1.407    0.290
        11 -13.9349     82.1303     13.3627   3.2967430609e+01   6.2808369727e+01     0.556069    0.4039538 -15.89  0.001967909    1.457    0.314
        12 -13.7716     88.4816     11.7295   3.0352147279e+01   6.1500154839e+01     1.116145    0.6683252 -84.92  0.004615246    2.843    0.648
        13 -12.2247    124.0064     10.0317   2.1967489419e+01   5.2745210551e+01    0.3640839    0.1968096  68.81  0.001062846    1.702    0.413
        14 -13.5323    115.6742     12.4556   2.4454815388e+01   5.4664794968e+01    0.7841713    0.4080912 -22.12  0.003481383    2.091    0.522
        15 -13.4038    119.7952      8.1243   2.1926534106e+01   5.4019776669e+01    0.5778911    0.3459651 -36.32   0.00280452    1.737    0.424
        16 -12.9913    148.3831      9.4408   1.8156342362e+01   4.6403129001e+01    0.5831105    0.2884664  63.09  0.002596833    1.820    0.451
        17 -12.8717    104.3292      6.4311   2.4128890612e+01   5.8132348430e+01    0.4829175    0.2235399 -37.31  0.001180839    2.270    0.560
        18 -13.0212    138.2271      5.0956   1.7947862721e+01   4.9473921379e+01    0.4525043    0.2179115  79.22  0.001229839    2.050    0.512
        19 -13.3674    111.5225      3.8594   2.1618613908e+01   5.6532238186e+01    0.4784374    0.4034522  43.32  0.002115767    1.165    0.142
        20 -11.6000      2.7905    115.6209   9.5973041204e+01   5.1704353661e+01    0.1726345     0.104806  38.77 0.0009587344    1.720    0.419
        21 -12.9327    185.5990    114.7482   4.3271475915e+01   2.1216734586e+01    0.3328029    0.3117854 -32.23  0.001887315    1.019    0.019
        22 -13.1603    118.8795    103.0617   5.5515171973e+01   3.8356847668e+01    0.3731087    0.3024941 -56.57  0.001817857    1.249    0.199
        23 -12.5394    133.9173     98.1834   5.0199106377e+01   3.6063333241e+01    0.4914538    0.3309213  15.93   0.00190651    2.443    0.591
        24 -14.0491    238.7679    119.6532   3.5750869113e+01   9.9356136869e+00    0.6508418    0.4574313 -41.29  0.003273097    1.332    0.249
        25 -12.1121     43.0329     99.2056   7.9472494172e+01   5.2349665442e+01    0.2626503    0.1936696 -65.85  0.001033028    1.227    0.185
        26 -12.8612    205.6780     96.8240   3.5364532627e+01   1.9962428324e+01    0.3808264    0.2932262  14.40  0.001956119    1.653    0.395
        27 -11.4819    202.5651     91.1146   3.4425471135e+01   2.1565323176e+01    0.3266676    0.2369702  30.99  0.001303781    1.700    0.412
        28 -12.5693    114.2159     96.9138   5.5117194537e+01   4.0720208891e+01    0.3366224    0.2169245 -58.76  0.001303006    1.716    0.417
        29 -14.6606    215.6405     67.9654   2.6702590654e+01   2.2248720975e+01     1.514792     0.738606 -34.43  0.006772279    1.819    0.450
        30 -10.5810    246.3277    183.3400   4.7356643483e+01  -7.6568214363e-02     0.124636   0.07632373   0.93 0.0007051594    1.735    0.424
        31 -10.8180    212.5071    148.5116   4.6065066342e+01   1.0206850237e+01     0.134243    0.1176925  -7.70 0.0002228182    1.027    0.027
        32 -13.6831     31.1646     88.7830   8.1954891281e+01   5.6255852380e+01    0.5292648    0.3490199  31.24   0.00278908    1.659    0.397
        33 -10.7763    111.8387     89.3715   5.3614511531e+01   4.2885006918e+01    0.2241979    0.1450418  36.50 0.0009461209    1.708    0.414
        34 -12.4738    218.7396     94.2549   3.2774103327e+01   1.7622698170e+01    0.4879012    0.4075554  76.87  0.002509307    1.409    0.290
        35 -11.9856     40.3066     81.2224   7.6590389921e+01   5.7156118828e+01    0.2290611    0.2103703  35.51  0.001096548    1.195    0.163
        36 -13.4425     27.7302     80.3763   8.1640343594e+01   5.8679280319e+01    0.4679807    0.2099071  47.87  0.001942503    2.745    0.636
        37 -11.0146    176.3655     79.5792   3.5759502920e+01   2.9518305175e+01    0.3166016    0.2110352 -59.77  0.001336726    1.708    0.415
        38 -12.7741    247.7254    144.8244   3.9763432246e+01   4.8396702063e+00    0.3489924    0.3037816  81.08  0.002270278    1.799    0.444
        39 -14.8943    240.3941     71.4730   2.4647562741e+01   1.6565665593e+01     1.326551     1.004041  21.00   0.00753006    1.821    0.451
        40 -11.2261    202.2643     72.2892   2.9615780610e+01   2.4609375430e+01    0.2445767    0.1776532  59.31  0.001100203    1.473    0.321
        41 -12.5714     47.5099    141.5239   8.4876144033e+01   4.1106056591e+01    0.3968945    0.1400014  27.21  0.001455601    3.213    0.689
        42 -11.0199     43.5225     62.4880   7.0010170650e+01   6.1220274683e+01    0.1378843    0.1254631 -44.49 6.239003e-05    1.001    0.001
        43 -11.4241     29.6778     61.3319   7.6087337066e+01   6.3084474162e+01    0.1330969    0.1004841  72.44 0.0006486973    1.700    0.412
        44 -10.5528    168.9868     60.5043   3.1536356479e+01   3.4463283956e+01    0.2207223    0.1448473  60.39 0.0006054266    1.535    0.348
        45 -13.6456     38.9734     49.0063   6.7558719251e+01   6.4797691735e+01    0.8706151    0.3746047 -61.60  0.003374517    2.854    0.650
        46 -13.5397     41.5243     44.8470   6.4712412762e+01   6.5340758786e+01    0.4293554    0.3814632 -71.66  0.002592468    1.329    0.247
        47 -13.1322    208.0809     37.7407   1.9768514359e+01   2.8108504472e+01    0.7189589    0.2334333 -54.72  0.002268129    4.081    0.755
        48 -12.5491    209.7496     44.5672   2.1381388582e+01   2.6837449039e+01    0.6872026    0.2371373  63.77  0.002662958    2.903    0.656
        49 -12.8185    214.9272     42.3639   2.0259126013e+01   2.5933818382e+01    0.4594463    0.3606973 -39.26  0.002368361    1.164    0.141
        50 -11.3124    217.5883     38.1698   1.8922817310e+01   2.5862581021e+01    0.2687739    0.2311735  77.67 0.0008591558    1.235    0.190
        51 -14.0264    239.5969     91.2427   2.9293734009e+01   1.3929487392e+01    0.7143486    0.5602952 -31.20  0.002919758    1.109    0.098
        52 -13.1133    200.9492     32.8107   1.9197459139e+01   3.0417045646e+01    0.4638225    0.4150205  66.32  0.002804119    1.224    0.183
        53 -11.4854    204.5983     27.1748   1.7317617189e+01   3.0224603653e+01    0.2847253    0.2385588  18.16  0.001640559    1.589    0.371
        54 -12.0149      3.3175    139.5651   9.7623343571e+01   4.5786143549e+01    0.3627035    0.2119083 -80.75  0.002032908    1.439    0.305
        55 -14.6515    236.0865     81.6098   2.7498121204e+01   1.5995142972e+01     1.071067     0.840085  41.57  0.006355881    1.525    0.344
        56 -12.1119    183.7473     30.6351   2.0504466760e+01   3.4915585401e+01    0.3316558    0.2563185   3.33  0.001721287    1.724    0.420
        57 -12.8246    187.9824     28.7915   1.9483848344e+01   3.4080281452e+01    0.3584623    0.2676649 -61.43   0.00193791    1.255    0.203
        58 -13.9656    248.9731    101.7902   3.0499711206e+01   1.0695291656e+01    0.9358993      0.60967 -27.91  0.005315724    1.339    0.253
        59 -11.9660    130.9673     24.0181   2.6121859517e+01   4.9425528282e+01       0.2415     0.166478  32.15  0.001140863    1.721    0.419
        60 -14.2886    223.5342    130.6297   4.0413535606e+01   1.1019433558e+01    0.6851535    0.4602384  65.37  0.003489972    2.162    0.537
        61 -12.8927    249.7987    113.0459   3.2841217488e+01   8.9606759687e+00    0.7021968    0.3618764 -19.47  0.002883941    2.248    0.555
        62 -13.6688    243.7066    113.4799   3.3730848974e+01   9.9604846153e+00    0.5526311    0.4061701 -26.59  0.003118297    1.179    0.151
        63 -15.2696    235.8195    128.8729   3.8167371805e+01   9.0957604122e+00     1.354712    0.9348591  20.55  0.007492349    1.729    0.422
        64 -11.4728    122.2864    126.9773   6.0597958216e+01   3.2299062973e+01    0.2194642     0.207841 -59.39  0.001175395    1.064    0.060
        65 -11.3000     28.1663    126.1685   8.8858026904e+01   4.7065603610e+01    0.1953476    0.1409658  71.77 0.0008879518    1.328    0.247
        66 -12.8233    205.5298    123.3146   4.1726617564e+01   1.5618433352e+01    0.5238262    0.2138036 -40.49   0.00208637    2.286    0.562
        67 -13.7736    220.6392    119.2308   3.8330014689e+01   1.3336644110e+01    0.4468539     0.359947 -34.79  0.001684407    1.125    0.111
        68 -13.4842    217.2799    112.3449   3.7272037601e+01   1.5076042110e+01    0.4882297    0.3472253 -51.95  0.002576116    1.520    0.342
        69 -12.3066    209.5053    117.5828   3.9732535974e+01   1.5773843474e+01    0.3980111    0.1172208 -39.34  0.001359799    3.046    0.672
        70 -13.9312    195.3936    112.2657   4.0877887439e+01   1.9566416708e+01    0.5525473    0.4254113   9.33  0.002795262    1.611    0.379
        71 -14.4768    199.9155    108.1841   3.9101239527e+01   1.9306612158e+01     1.458601     0.506265  61.14  0.004231064    5.021    0.801
