#   1 NUMBER                 Running object number                                     
#   2 MAG_AUTO               Kron-like elliptical aperture magnitude                    [mag]
#   3 X_IMAGE                Object position along x                                    [pixel]
#   4 Y_IMAGE                Object position along y                                    [pixel]
#   5 X_WORLD                Barycenter position along world x axis                     [deg]
#   6 Y_WORLD                Barycenter position along world y axis                     [deg]
#   7 A_WORLD                Profile RMS along major axis (world units)                 [deg]
#   8 B_WORLD                Profile RMS along minor axis (world units)                 [deg]
#   9 THETA_WORLD            Position angle (CCW/world-x)                               [deg]
#  10 FWHM_WORLD             FWHM assuming a gaussian core                              [deg]
#  11 ELONGATION             A_IMAGE/B_IMAGE                                           
#  12 ELLIPTICITY            1 - B_IMAGE/A_IMAGE                                       
         1 -11.8557    178.2456     29.4457   7.3199980558e+01   3.7189814475e+01     1.258015    0.8971953  20.18  0.005500724    1.823    0.452
         2 -10.4660    181.5936     22.5783   7.0598354803e+01   3.7122461733e+01    0.5226873    0.4137954  59.52  0.001031064    1.203    0.168
         3  -9.2203    236.2087      2.6989   5.9463003466e+01   2.5394074028e+01    0.3044763    0.2308379 -44.04  0.001046653    1.247    0.198
         4  -8.8829    118.6409    235.7951   1.3219780660e+02   1.1963920558e+01    0.2735872    0.1700456 -76.58  0.001083212    2.052    0.513
         5 -10.3073    157.8588    242.5515   1.2589253875e+02   4.6189793065e+00     0.726418    0.1816784  36.62  0.002275495    5.148    0.806
         6 -11.1684    126.5199    249.1437   1.3219924764e+02   8.6621084787e+00     1.734719    0.2728614  40.93  0.005309714    5.543    0.820
         7 -10.1446    146.0505    245.6669   1.2837109701e+02   6.0868754363e+00    0.5066655    0.1552278  40.12  0.002164161    2.711    0.631
         8  -8.8607    107.0280    250.4704   1.3571853697e+02   1.1420803027e+01    0.3970746    0.0986269  42.60  0.001392527    3.042    0.671
         9 -12.2042     81.5073    196.9140   1.3510459938e+02   2.4735662408e+01     2.823564     1.525421  82.32   0.01373143    2.301    0.565
        10 -13.7967     73.9407    215.0256   1.3842793700e+02   2.2295250508e+01     4.845096     2.264446 -89.24   0.02292581    2.838    0.648
        11  -8.8832    103.9238    238.4560   1.3512905629e+02   1.3796045805e+01    0.1947724    0.1616659  71.68 0.0003803111    1.151    0.131
        12  -8.3352    158.4747    233.4834   1.2462487281e+02   5.8224613411e+00    0.1236362   0.09781564  45.21 0.0001210129    1.015    0.014
        13  -8.9624    131.9167    231.5558   1.2928032497e+02   1.0518847546e+01    0.1912282    0.1689945 -35.96 0.0006052923    1.549    0.354
        14  -8.3733    104.3865    230.8121   1.3428312236e+02   1.5002220052e+01    0.3030757    0.1155257  42.73  0.001456207    2.137    0.532
        15 -10.3418    109.2471    229.5706   1.3325720034e+02   1.4463626280e+01    0.5423064    0.1840364  48.72  0.002442806    2.375    0.579
        16  -9.4356    110.3234    224.6005   1.3251857643e+02   1.5146223882e+01    0.3253894    0.2693274  85.61 0.0008715646    1.235    0.190
        17  -8.7133    126.4484    227.7445   1.2984850891e+02   1.2029735271e+01    0.3822734    0.2665784   2.60  0.001862021    3.300    0.697
        18  -8.0036    177.6282    219.8026   1.1915096364e+02   4.5644077236e+00    0.1539976    0.1205263 -60.59  0.000465369    1.711    0.415
        19  -8.4819      8.2873    219.0574   1.5042679062e+02   2.9228482133e+01    0.2225721    0.1461759 -75.58  0.001223201    1.558    0.358
        20  -7.5730    172.2822    219.6628   1.2013141923e+02   5.5180108188e+00    0.1200027   0.09271763  69.61 0.0005020691    1.622    0.384
        21  -8.9682      3.5481    204.5329   1.5055811660e+02   3.2377383331e+01     0.194454     0.130975  79.14 0.0005422541    1.054    0.052
        22 -11.7874     11.1236    207.2980   1.4937424267e+02   3.1146644273e+01    0.4986721    0.3629963  35.78  0.002128653    1.752    0.429
        23  -8.3563    167.2747    210.7195   1.1973486464e+02   7.7887856772e+00    0.3688134    0.2253122 -76.24  0.001562946    3.591    0.722
        24  -7.1953    107.4313    207.4679   1.3109660075e+02   1.8692178338e+01    0.1270119    0.1046164  62.53 0.0001668684    1.009    0.009
        25 -12.7087     66.7256    243.7153   1.4205951726e+02   1.8172780860e+01    0.6568581    0.5884636 -83.01 0.0005957048    1.487    0.328
        26  -9.1639     30.4924    205.4919   1.4579543881e+02   2.9515527929e+01    0.2111172    0.1500971 -46.19   0.00137323    2.338    0.572
        27  -9.3220      5.5281    207.5261   1.5035723297e+02   3.1629569989e+01    0.1748423    0.1114616  80.38 0.0006277202    1.133    0.117
        28  -9.5814    199.2942    200.8044   1.1199836656e+02   3.5205206182e+00    0.4009894    0.2405441  39.07  0.002061558    1.443    0.307
        29  -9.1703     30.8870    199.8694   1.4534226041e+02   3.0574531862e+01    0.3439932    0.1491406  37.26  0.001761571    2.327    0.570
        30  -9.9824    181.2924    197.9889   1.1495098703e+02   7.2671972791e+00    0.2265324     0.207537  40.58 0.0002126974    1.084    0.078
        31 -13.2858     22.7942    237.6380   1.4893594034e+02   2.4451537346e+01    0.9087494    0.8000544  51.17  0.007837201    1.599    0.375
        32  -8.7106    191.2439    191.6593   1.1191110226e+02   6.4160302819e+00    0.5367814    0.2278578 -54.22  0.001879115    4.328    0.769
        33  -8.4454     39.7235    187.5922   1.4269035413e+02   3.2078306735e+01    0.3553844    0.2715592  21.72  0.002326314    1.970    0.492
        34 -11.0896     30.3634    180.6585   1.4401920855e+02   3.4540570820e+01    0.9696624    0.3856184 -87.55  0.004589463    2.571    0.611
        35  -8.8469     26.4679    189.9227   1.4549021707e+02   3.3036337115e+01    0.2260011    0.1753661 -89.78  0.000874388    1.156    0.135
        36  -7.1920      6.2637    193.6903   1.4953107470e+02   3.4229942824e+01    0.1109966   0.05704176  70.07 0.0002315368    1.533    0.348
        37 -12.5426     36.9304    242.2675   1.4690034583e+02   2.2089749409e+01    0.5775001    0.3465617  27.10  0.003548275    2.816    0.645
        38  -8.1511     50.5045    189.9227   1.4071646588e+02   3.0327947544e+01    0.1793226    0.1352715  65.93 0.0007986744    1.101    0.092
        39  -8.2817    209.0051    188.9964   1.0805179707e+02   3.5047580261e+00    0.2494499    0.1240118  26.49  0.001021731    2.585    0.613
        40 -12.6754     54.6058    220.8467   1.4249193200e+02   2.3765966535e+01     1.090622     0.436143  51.25  0.001850039    1.960    0.490
        41  -7.3188    181.9528    183.0671   1.1216813169e+02   9.6088715631e+00    0.1645377    0.1415324  38.98 0.0002957224    1.042    0.041
        42  -7.5932    201.1893    182.3942   1.0828134899e+02   5.9987316690e+00    0.1989531    0.1205132  51.32 0.0009587728    1.717    0.417
        43  -9.2610     90.4169    181.3106   1.3133332531e+02   2.6596343510e+01    0.3071123    0.2456596 -36.49  0.001561652    1.797    0.443
        44  -9.4523     93.0237    175.9775   1.3003594507e+02   2.7314841287e+01    0.3453885    0.2538941 -41.37  0.001598715    1.835    0.455
        45  -9.9873     31.6376    191.0015   1.4456194546e+02   3.2272081782e+01    0.5141199    0.2278871  46.25  0.002907895    1.957    0.489
        46 -12.3890     24.7789    249.6100   1.4918800796e+02   2.2217555296e+01    0.5334861    0.3228943  52.70   0.00214059    1.297    0.229
        47 -10.8320     87.7241    161.7690   1.2919079412e+02   3.1237203718e+01    0.4464928    0.3345908 -52.05  0.001317055    1.484    0.326
        48  -8.8614     98.5475    166.3980   1.2737738681e+02   2.8483361394e+01    0.2324552    0.2195398 -68.13 0.0001677653    1.209    0.173
        49  -8.7546     16.8525    166.1122   1.4568526635e+02   3.8937018514e+01    0.1907539    0.1213211  75.36  0.001241306    1.296    0.228
        50  -7.4250     56.6244    163.2330   1.3662110642e+02   3.5289219655e+01    0.1703708    0.1027109 -63.18 0.0003324822    1.575    0.365
        51  -8.3458      4.6432    162.9219   1.4801812958e+02   4.0653780586e+01    0.1653928      0.15447 -52.27  0.001020857    1.537    0.350
        52  -8.8743    102.4894    159.4547   1.2534469674e+02   2.9341973666e+01    0.4641081    0.2522622 -39.50  0.001481623    2.706    0.630
        53  -8.0486     26.8289    158.9267   1.4291693059e+02   3.9556229742e+01    0.1908845    0.1072318 -53.07  0.001068775    2.063    0.515
        54  -8.6099     21.8608    157.3803   1.4388509987e+02   4.0365365950e+01    0.1762577     0.152321  34.26  0.001281266    1.507    0.336
        55  -9.1966      9.6928    154.2540   1.4631813958e+02   4.2100188285e+01    0.1988234    0.1727972 -86.10 0.0004566592    1.235    0.190
        56 -10.1144     67.5923    134.5113   1.2989422076e+02   4.0406079456e+01    0.2730538    0.2190181 -56.04 0.0009552453    1.262    0.207
        57  -7.1007    196.2216    147.0353   1.0195261499e+02   1.2996403591e+01      0.17755    0.1197972 -36.24 0.0002487939    1.525    0.344
        58  -8.7963      6.4254    146.7283   1.4646101361e+02   4.3990107723e+01    0.1632008    0.1298608 -40.30 0.0004085298    1.746    0.427
        59  -8.0180    134.0000    145.9909   1.1534122236e+02   2.6427342058e+01    0.2433249   0.08415187 -49.69 0.0008085865    2.985    0.665
        60  -8.8279    101.5444    143.4247   1.2275254690e+02   3.3086247982e+01    0.2490816    0.2382938 -41.90 0.0005689042    1.221    0.181
        61 -13.7915     11.8890    246.7636   1.5103448528e+02   2.4042434985e+01     1.592961    0.6479717  79.47  0.008544578    2.082    0.520
        62 -14.9049     43.7851    246.1090   1.4600801687e+02   2.0640354630e+01     2.173871     1.372106 -85.38   0.01618526    1.498    0.333
        63  -8.4519     11.7209    148.0444   1.4536697314e+02   4.3287408825e+01    0.1610308    0.1166936 -85.56 0.0002989089    1.066    0.062
        64  -8.2264    191.6327    134.4389   9.9992126485e+01   1.6287421528e+01    0.2448203     0.232636  28.90 0.0003416086    1.024    0.023
        65  -8.1619     79.4485    135.6960   1.2699453356e+02   3.8434892774e+01    0.3190641    0.1269493  38.24  0.001277669    2.612    0.617
        66  -8.1706     76.3090    133.6537   1.2745734178e+02   3.9374093237e+01    0.2200142    0.1482575  77.35 0.0007561576    1.719    0.418
        67  -8.1601     35.4657    135.1890   1.3831757068e+02   4.4034287228e+01    0.2131407     0.175349  45.80   0.00141627    1.364    0.267
        68  -7.9609    117.2509    133.4137   1.1679580173e+02   3.2477858903e+01    0.2730619     0.142564  39.46  0.001118243    2.003    0.501
        69  -8.3862    180.4918    234.5210   1.2076451851e+02   1.9919370125e+00    0.1228914   0.09683678  37.51  0.000134222    1.003    0.003
        70 -10.0648     70.4875    151.9713   1.3186326372e+02   3.5987100972e+01    0.4209779    0.2514714 -70.77  0.001873031    1.569    0.363
        71  -7.8506      2.3240    130.0027   1.4604452761e+02   4.7951733021e+01    0.1944062   0.03320793 -58.58 0.0007049009    4.290    0.767
        72 -10.0565    237.6073    126.5105   8.9708536018e+01   7.6475846046e+00      0.26019    0.2519841   9.91  0.001567527    1.089    0.082
        73  -7.2599    106.5170    128.4592   1.1849346825e+02   3.5604222901e+01    0.1439268     0.137989 -79.90 8.441582e-06    1.052    0.050
        74  -7.5551    160.0401    126.7084   1.0492724041e+02   2.4917280986e+01    0.2037107    0.1987304  41.91 0.0005251092    1.028    0.028
        75 -11.2015     68.4052    144.5249   1.3127157090e+02   3.7978146453e+01    0.7681877    0.4391024  67.86  0.003619741    2.083    0.520
        76  -7.6324    183.9921    112.0088   9.6036306082e+01   2.2243295965e+01    0.2363004    0.1868216 -77.68 0.0004428093    1.602    0.376
        77  -8.3783    241.1982    108.0119   8.4786939320e+01   9.8105229377e+00    0.2692785    0.1822011 -49.27  0.001320272    1.566    0.361
        78  -7.9597    196.7878    107.6338   9.2358134869e+01   2.0002067705e+01    0.2320129    0.1813435  38.74 0.0005366225    1.332    0.249
        79  -7.3630    188.1508    107.1926   9.3942279844e+01   2.2148805764e+01    0.2052897     0.178252 -72.66 0.0002393319    1.298    0.230
        80  -7.3697    134.6904    106.3146   1.0586020659e+02   3.4839095557e+01    0.1569701     0.122201 -87.06 0.0002929279    1.631    0.387
        81  -8.3977     68.4370    103.3068   1.2370766886e+02   4.7560725443e+01    0.2782066    0.1148446 -53.73  0.001144261    2.124    0.529
        82  -7.4350    208.3840     86.0967   8.4585079585e+01   2.0940963850e+01    0.2143072    0.1315241 -45.53 0.0004682828    1.626    0.385
        83  -7.6917    191.7656     64.0825   8.1347428985e+01   2.8725610834e+01    0.2024551    0.1905275 -34.11            0    1.086    0.080
        84  -7.5286    164.3753     64.2867   8.6596966890e+01   3.5770650989e+01    0.1637226    0.1169474  27.73 0.0007017835    1.721    0.419
        85  -9.8647    246.9284     50.9362   7.0119223830e+01   1.7036525573e+01     0.256435     0.247934  69.72 0.0003582273    1.163    0.140
        86  -8.4038    250.5585     47.0014   6.8774803394e+01   1.6739815429e+01    0.2427221    0.1294345 -27.10 0.0003903975    1.920    0.479
        87 -11.0997    164.9535     43.8678   8.0025168549e+01   3.8781674963e+01     1.031913    0.5408294  40.50  0.004036951    2.199    0.545
        88  -7.7430    169.3242    247.3231   1.2445728629e+02   2.1073688563e+00    0.1156384   0.08015014  20.43 0.0002270015    1.684    0.406
        89  -9.3815    168.6524    240.1825   1.2365884428e+02   3.1797819106e+00    0.3386726    0.1432073  34.22  0.001578894    2.344    0.573
        90  -7.9083    247.7142     39.9924   6.7386093442e+01   1.8314373551e+01    0.2784224    0.1452127  42.80  0.001187628    2.685    0.628
        91  -6.9172    240.6895     40.7230   6.8299376474e+01   1.9856127638e+01    0.1288484    0.1051086  32.69            0    1.558    0.358
        92  -7.8096    188.0769     37.7343   7.4213245265e+01   3.3531342401e+01    0.2010641    0.1778303  65.39  0.001083033    1.095    0.087
        93  -7.3741    231.6763     33.6835   6.7508496438e+01   2.2924158705e+01    0.1358073    0.1052827  32.75 0.0004312261    1.667    0.400
        94  -7.6411    143.2238     29.7282   7.9506956047e+01   4.6300497398e+01    0.2193085    0.1223195 -11.09 0.0008753922    2.373    0.579
