#   1 NUMBER                 Running object number                                     
#   2 MAG_AUTO               Kron-like elliptical aperture magnitude                    [mag]
#   3 X_IMAGE                Object position along x                                    [pixel]
#   4 Y_IMAGE                Object position along y                                    [pixel]
#   5 X_WORLD                Barycenter position along world x axis                     [deg]
#   6 Y_WORLD                Barycenter position along world y axis                     [deg]
#   7 A_WORLD                Profile RMS along major axis (world units)                 [deg]
#   8 B_WORLD                Profile RMS along minor axis (world units)                 [deg]
#   9 THETA_WORLD            Position angle (CCW/world-x)                               [deg]
#  10 FWHM_WORLD             FWHM assuming a gaussian core                              [deg]
#  11 ELONGATION             A_IMAGE/B_IMAGE                                           
#  12 ELLIPTICITY            1 - B_IMAGE/A_IMAGE                                       
         1 -14.8593      9.5335    147.5052   1.4318566832e+02   4.3755910797e+01     11.34985     4.322392  78.05   0.04590413    3.570    0.720
         2 -13.1124    196.5746     30.0186   6.7288098685e+01   3.1738923447e+01     1.392649     1.307763  31.50  0.006847379    1.251    0.200
         3 -13.2259    212.6997      9.8437   6.0281534485e+01   2.9959624457e+01     1.154426    0.9025921  39.30  0.004017738    1.613    0.380
         4 -11.9885      2.2535     14.0538   1.2036868982e+02   7.2325803703e+01    0.9979904    0.1722509 -55.36  0.003193339    6.459    0.845
         5 -10.3726     15.8345      1.8370   1.0704692820e+02   7.3108458881e+01    0.2485353   0.06959408  32.99   0.00112086    3.729    0.732
         6  -9.9245     46.7926    248.8975   1.4313786081e+02   1.9381821005e+01    0.2243804     0.124923  65.12  0.001211142    1.424    0.298
         7  -9.9816    156.8029    249.8088   1.2324364964e+02   3.0588830897e+00    0.1673251    0.1215616  53.78  0.001074603    1.328    0.247
         8 -11.3038    140.0755    249.6035   1.2632174133e+02   5.7810226948e+00    0.5134774     0.195911  34.53  0.002239047    2.654    0.623
         9 -10.4258    123.7479    250.1228   1.2940964734e+02   8.2905254486e+00    0.4747986   0.06991678  39.35  0.001290667    6.407    0.844
        10 -11.1117    100.2893    248.2016   1.3354591507e+02   1.2193527226e+01    0.3065386    0.2614628  62.78  0.002254928    1.152    0.132
        11  -9.0914     66.6436    250.1227   1.3977338994e+02   1.6635449060e+01    0.1899922    0.1113474  53.51 0.0004980753    1.267    0.211
        12 -10.2877     29.1611    249.0504   1.4611592604e+02   2.1426060611e+01    0.3480814    0.2139525 -62.03   0.00215546    2.142    0.533
        13 -10.6682     35.2367    244.4255   1.4484297958e+02   2.1533688405e+01    0.3255705    0.2732154 -65.59  0.002581242    1.689    0.408
        14  -9.0591      2.0001    249.7030   1.5050523946e+02   2.4163387326e+01    0.1596735   0.09865245  80.49  0.001032879    1.243    0.195
        15  -9.5913      2.6530    246.0110   1.5026463185e+02   2.4728181729e+01    0.1513745    0.1007582  59.77 0.0006626908    1.141    0.124
        16  -9.2193    209.6585    246.3173   1.1314005371e+02  -4.9022149531e+00    0.1090296   0.08596916  54.73 0.0007048911    1.712    0.416
        17 -10.4219    198.2876    245.9695   1.1512192236e+02  -3.0881495966e+00    0.1687309     0.135253  24.37  0.001169001    1.063    0.059
        18 -10.0968    124.2085    243.3800   1.2858051561e+02   9.2793555289e+00    0.1896252   0.08685609  48.38 0.0009593593    1.755    0.430
        19  -9.0843     18.7363    241.9773   1.4748816707e+02   2.3793536626e+01    0.1478784   0.09843668  70.82 0.0004251539    1.076    0.070
        20  -9.5870      5.8232    240.9522   1.4955807537e+02   2.5293463662e+01    0.1385178    0.1112991  79.93 0.0005008313    1.295    0.228
        21 -10.6764    183.6187    239.0488   1.1680546414e+02   1.7995958353e-01    0.2829996    0.1466645  49.50 0.0005890419    1.932    0.482
        22 -10.3352    229.6422    230.4785   1.0714720885e+02  -6.0705745802e+00    0.3239232    0.2033636 -54.60  0.001639529    3.375    0.704
        23 -10.3731     50.4856    235.1733   1.4157369049e+02   2.1346344320e+01     0.233299    0.1927241 -78.11  0.001169914    1.417    0.294
        24 -11.6789     22.1749    126.5034   1.3771452742e+02   4.7484110315e+01    0.4856547    0.2241902  49.32  0.001228291    2.379    0.580
        25 -11.7226    239.4407    247.9508   1.0824121776e+02  -9.4832689948e+00    0.5281457    0.2735016  49.01  0.002797429    2.711    0.631
        26  -8.3920    152.4558    212.9103   1.1900236679e+02   9.5604997004e+00    0.1618911    0.1338557 -53.51 0.0004001143    1.441    0.306
        27 -12.3129      9.9724    206.7298   1.4720973652e+02   3.1239134004e+01    0.6201103    0.3825625  35.07  0.002850227    1.819    0.450
        28 -11.3065     59.6513    198.1342   1.3666570260e+02   2.7368293756e+01    0.2618271    0.2212662 -62.49 0.0005526691    1.417    0.295
        29  -9.6883    192.5727    194.3624   1.0778968420e+02   5.2872764381e+00    0.6934714    0.3567102 -63.49  0.001788419    8.595    0.884
        30 -11.9413    127.3571    231.6817   1.2660066015e+02   1.0686313100e+01    0.7759992    0.1770659  39.13   0.00259176    3.922    0.745
        31 -12.0186     12.8343    195.6236   1.4601652795e+02   3.3182684876e+01    0.2567832    0.1650849  62.54 0.0005298303    1.261    0.207
        32 -11.6867     66.0408    189.8472   1.3441800123e+02   2.8247265929e+01    0.2647584    0.2291465 -68.02 0.0004555532    1.300    0.231
        33 -13.5649     37.9256    224.6852   1.4314099424e+02   2.4806464774e+01    0.7119687    0.5334492  62.12  0.002479876    1.089    0.082
        34 -10.6087     76.4233    177.1520   1.3052774099e+02   2.9515089483e+01    0.2306743    0.2117909  85.20 0.0004086939    1.121    0.108
        35 -13.0221     63.1252    174.9654   1.3334842558e+02   3.1872462490e+01    0.4914412    0.2844375 -45.53  0.002052708    2.312    0.567
        36  -9.8028     96.5201    173.2685   1.2524243001e+02   2.7222485669e+01    0.2462052    0.2154787  68.54 0.0004276213    1.023    0.022
        37 -11.4357     84.2613    168.0203   1.2738709087e+02   3.0352860772e+01    0.6202338    0.5569488  25.68  0.003734592    1.351    0.260
        38  -9.0212     55.1578    229.9162   1.4032969745e+02   2.1717643915e+01    0.1879397    0.1161316  63.94 0.0007918523    1.306    0.234
        39  -9.7012     96.9986    152.0373   1.2160102611e+02   3.1885433964e+01    0.2903283    0.2734528  -9.48 0.0007790159    1.301    0.231
        40 -11.7589     85.4996    151.1772   1.2440048174e+02   3.3979657037e+01    0.2895797    0.2461726 -47.28 0.0008967937    1.313    0.238
        41 -12.4832     32.5078    231.9433   1.4458190033e+02   2.4081874113e+01    0.2599702    0.2198955  76.94 0.0007534815    1.266    0.210
        42  -8.5974    100.1451    147.8569   1.2002678967e+02   3.2292595594e+01      0.18487    0.1698689 -24.34  0.001030792    1.310    0.237
        43 -12.0515     67.3887    143.5225   1.2787512550e+02   3.8458137734e+01    0.6816631    0.4259827  64.72  0.002465132    1.814    0.449
        44 -10.2129     96.1052    134.3412   1.1845403725e+02   3.6097310658e+01    0.2529535    0.2235804 -40.27 0.0004315385    1.243    0.196
        45 -10.6623     30.6943    131.2647   1.3598887431e+02   4.5619935490e+01    0.2741975    0.1972138  51.31 0.0005316046    1.455    0.313
        46  -9.4106    108.9551    137.1805   1.1560941176e+02   3.3125309084e+01    0.3739005    0.2630193 -13.32  0.001573976    2.427    0.588
        47  -8.7965     77.8898    130.5909   1.2272872845e+02   3.9949038221e+01    0.2069231    0.1189533  51.36 0.0009347517    1.865    0.464
        48  -9.3098     84.7891    126.8541   1.2005119158e+02   3.9734480024e+01    0.2443376    0.1644056  65.20 0.0002418347    1.784    0.439
        49  -8.8028    106.2873    123.8855   1.1342056420e+02   3.6643637823e+01    0.1938017    0.1798552 -53.82 0.0002999385    1.086    0.079
        50 -10.1412    167.8756    112.9823   9.5277486810e+01   2.5566488292e+01    0.3170864    0.2732783 -86.96 0.0005926451    1.341    0.254
        51  -9.1042    203.2300    111.5961   8.7747616956e+01   1.7496501899e+01    0.2080017    0.1368982  41.44 0.0004917781    1.592    0.372
        52  -8.7488     43.0913     97.3846   1.2666930134e+02   5.2212554296e+01    0.3249432    0.1167759  49.27  0.001113822    4.427    0.774
        53  -9.0172    172.3385    222.3251   1.1646938812e+02   4.5187181768e+00    0.1315154   0.09217519  14.16 0.0007051355    1.724    0.420
        54 -10.0375    243.4983     91.4984   7.6411220263e+01   1.1783251407e+01    0.1365607    0.1261243 -38.15 3.861777e-05    1.026    0.026
        55  -8.7727    184.3322     77.3290   8.2309850741e+01   2.8026276884e+01    0.1581722    0.1186261  22.50 0.0007051817    1.718    0.418
        56  -9.2606    158.4791     76.5160   8.7302214999e+01   3.4691124362e+01    0.1540526    0.1491989  57.70  2.72022e-05    1.008    0.008
        57  -8.6120     45.9847     68.9889   1.1883164045e+02   5.8136316235e+01    0.1773916    0.1508792  79.92 0.0003510611    1.544    0.352
        58  -8.6170     31.6649     62.0134   1.2242351196e+02   6.1077535482e+01    0.1699343    0.1405578 -47.20 0.0008276209    1.057    0.054
        59 -11.6201     10.4055     53.4289   1.2886324208e+02   6.4481660442e+01     0.411429    0.2026134  34.85  0.002269213    2.516    0.603
        60 -11.1973    248.1230    245.6830   1.0644087469e+02  -1.0453291560e+01    0.4774577    0.2580637  15.85  0.002833037    1.796    0.443
        61 -10.5040    185.5552    248.2531   1.1775290992e+02  -1.3587869630e+00    0.2481838    0.1176367 -37.93   0.00131242    2.678    0.627
        62  -9.3108     81.5038    248.9714   1.3703576333e+02   1.4793631416e+01    0.1530716    0.1052194 -80.56  0.001031782    1.593    0.372
