#   1 NUMBER                 Running object number                                     
#   2 MAG_AUTO               Kron-like elliptical aperture magnitude                    [mag]
#   3 X_IMAGE                Object position along x                                    [pixel]
#   4 Y_IMAGE                Object position along y                                    [pixel]
#   5 X_WORLD                Barycenter position along world x axis                     [deg]
#   6 Y_WORLD                Barycenter position along world y axis                     [deg]
#   7 A_WORLD                Profile RMS along major axis (world units)                 [deg]
#   8 B_WORLD                Profile RMS along minor axis (world units)                 [deg]
#   9 THETA_WORLD            Position angle (CCW/world-x)                               [deg]
#  10 FWHM_WORLD             FWHM assuming a gaussian core                              [deg]
#  11 ELONGATION             A_IMAGE/B_IMAGE                                           
#  12 ELLIPTICITY            1 - B_IMAGE/A_IMAGE                                       
         1  -7.9968     17.2051     14.1789   8.3117951458e+01   7.0558765651e+01    0.1431428    0.1236716 -16.24 0.0004648398    1.346    0.257
         2  -7.8876     47.4479     10.1951   6.6776681090e+01   6.7172178443e+01    0.1578942    0.1052981 -34.04  0.000945029    1.720    0.418
         3  -8.0571     90.6403      8.8152   5.1781096226e+01   5.9288892798e+01    0.1659174    0.1107896 -32.42   0.00063324    1.713    0.416
         4  -8.4665     55.7182     10.1316   6.3455838217e+01   6.5832229005e+01    0.1877882    0.1556338  38.26 0.0007205705    1.336    0.252
         5  -7.4692    101.3337      7.7509   4.8735717160e+01   5.7090542042e+01     0.116847   0.09670039 -87.80  0.000292466    1.555    0.357
         6  -8.5021     33.2559      4.8450   7.0386910360e+01   6.9876477819e+01    0.2525314    0.1369911 -41.15  0.001366973    2.500    0.600
         7  -8.3590     79.1508      3.9718   5.2896830039e+01   6.2070425184e+01    0.1713219    0.1621045 -37.83 0.0009739664    1.378    0.274
         8  -7.7135     44.7123      3.3446   6.4540620406e+01   6.8345334206e+01    0.1011644   0.09328462 -35.15 0.0003540369    1.650    0.394
         9  -7.6053     15.6722      2.7013   7.8257157403e+01   7.2303047138e+01    0.1187667   0.06840954  -4.42 0.0003338987    1.637    0.389
        10  -8.1863     62.2695      1.3914   5.6977753651e+01   6.5533286632e+01     0.153413    0.1067577  53.57 0.0004414477    1.562    0.360
        11  -7.5559     39.4329      1.4851   6.5846116476e+01   6.9351832520e+01    0.1168372   0.09244304   8.73 0.0001370237    1.076    0.070
        12  -8.9797    147.1981    246.1569   9.7399800011e+01   3.0471985101e+00    0.2827306    0.1878938  69.52  0.001414937    2.624    0.619
        13 -10.2798    248.6853    242.5638   7.7498488206e+01  -1.0415840773e+01    0.7352408    0.1985001 -37.25  0.003132522    3.631    0.725
        14  -9.1163    247.5995    234.7924   7.6377372559e+01  -9.2926032659e+00    0.2348482    0.1511459 -11.28  0.001009176    1.314    0.239
        15  -9.1626    210.8969    246.6558   8.4973285110e+01  -6.1535466053e+00    0.2200405    0.1726752 -41.16 0.0007994205    1.677    0.404
        16  -8.0254    191.5571    249.8140   8.9138880527e+01  -3.9439229353e+00    0.1397239    0.1174041 -48.66 0.0007148651    1.663    0.399
        17  -7.9412    184.5185    250.4686   9.0597944982e+01  -3.0497284256e+00     0.123958   0.09875941  15.25 6.386686e-05    1.021    0.021
        18  -8.6606     93.8936    249.6695   1.0856058312e+02   1.0092393754e+01    0.2906789    0.1451505  62.05   0.00127872    2.612    0.617
        19  -9.0958    119.8900    245.2747   1.0284082524e+02   7.2112831683e+00     0.290214    0.1931672  75.78  0.001349611    2.215    0.549
        20  -8.6230     67.5969    244.6032   1.1325944655e+02   1.4488669292e+01     0.294879    0.1383242 -79.66   0.00145113    2.642    0.621
        21  -8.0576     58.7452    244.9919   1.1500833901e+02   1.5511052488e+01    0.2280892   0.07885261  57.90 0.0008968887    3.581    0.721
        22  -8.6303    201.9862    243.4733   8.6153848146e+01  -4.4886331038e+00    0.1994162    0.1680357 -47.43 0.0008179877    1.684    0.406
        23  -8.4649    168.8869    243.3541   9.2628014550e+01   2.9089471269e-01    0.1825134     0.172101 -45.16 0.0005071809    1.354    0.261
        24  -8.5311    139.3677    244.2213   9.8732041635e+01   4.5316123854e+00    0.1592785    0.1208118 -70.22 0.0006097227    1.777    0.437
        25  -8.2871     34.4592    244.4901   1.1954663238e+02   1.8404332041e+01    0.1127743    0.0883079  67.01 0.0001836269    1.007    0.007
        26  -8.6237      9.5042    243.5110   1.2396358670e+02   2.1131009940e+01    0.2406948   0.06920706  83.27 0.0008104615    5.963    0.832
        27  -8.7177    214.5484    242.9344   8.3693712174e+01  -6.1313625630e+00    0.2083193    0.1910978  38.22  0.001458674    1.599    0.375
        28  -8.4653     88.2588    242.2706   1.0893110149e+02   1.2221173162e+01    0.1906397    0.1399833 -66.83 0.0005501813    1.507    0.337
        29  -9.1812     77.5669    242.9970   1.1114679510e+02   1.3511144331e+01    0.2349199    0.1381392  80.64  0.001249949    2.131    0.531
        30  -8.8386    194.4304    240.5244   8.7142727247e+01  -2.9929583012e+00    0.2829877    0.2110919 -63.83  0.001173145    2.434    0.589
        31  -9.2309    183.2246    240.3083   8.9308373967e+01  -1.3405998986e+00    0.3897769    0.2547172  58.77  0.001923275    2.749    0.636
        32  -9.3482    160.1219    240.4114   9.3966168364e+01   2.0691345517e+00    0.3090952    0.2329614 -78.77  0.001520384    2.246    0.555
        33  -8.2415    146.2999    239.9046   9.6722921567e+01   4.2313215200e+00    0.2479169    0.1729577  63.94 0.0009682882    2.029    0.507
        34  -8.3001    240.5761    240.2340   7.8522594923e+01  -9.1351092227e+00    0.1706483   0.09995858 -27.79  0.001034492    1.570    0.363
        35  -9.0970    135.3770    238.9993   9.8854777156e+01   6.0301990396e+00    0.2241781    0.1566013  53.81 0.0009460576    1.552    0.355
        36  -8.8005    128.9928    238.7869   1.0015088326e+02   7.0232014781e+00    0.2084085    0.1234888  54.10 0.0007019453    1.906    0.475
        37  -9.3726    230.7369    236.6552   7.9678673985e+01  -7.4125335718e+00     0.316076    0.2201922 -40.34  0.001395449    1.787    0.440
        38  -8.0441    209.1588    238.2637   8.3947276129e+01  -4.7366700972e+00    0.1502178    0.1383694   8.48 0.0006260854    1.342    0.255
        39  -7.8439    105.6604    238.6618   1.0497641014e+02   1.0466424563e+01    0.1223335   0.09603471  -6.86 0.0007050652    1.761    0.432
        40  -7.9058     69.6492    238.6951   1.1232446497e+02   1.5360407973e+01    0.1102754   0.09394972 -14.07 0.0007041409    1.704    0.413
        41  -8.5499     25.7741    237.2772   1.2069274508e+02   2.0719679288e+01    0.2775429    0.1182661  74.69  0.001363368    2.600    0.615
        42  -7.7808    189.6768    237.3365   8.7566147152e+01  -1.8258271214e+00    0.1151541   0.09857721  58.06 0.0007050841    1.714    0.417
        43  -9.9177    214.8271    233.2278   8.2039352402e+01  -4.7960964306e+00    0.4620108    0.3657123 -85.10  0.002339661    3.489    0.713
        44  -8.7705    203.0480    234.6780   8.4526995991e+01  -3.3527601156e+00    0.2383267    0.1757341 -51.84 0.0009055823    1.974    0.493
        45  -9.7965    175.8490    233.4343   8.9710209817e+01   8.4226835551e-01    0.4600371    0.2507199 -56.01  0.002141391    2.783    0.641
        46  -8.0980    170.2189    235.9643   9.1246337258e+01   1.2794222725e+00    0.1782713    0.1478364  85.91 0.0006435623    1.973    0.493
        47  -7.7180     58.0569    237.0000   1.1448036130e+02   1.7138288782e+01    0.1916777   0.06007846  33.99 0.0008027802    2.945    0.660
        48  -9.3073    108.5423    234.2961   1.0385556027e+02   1.0870914621e+01    0.3459637    0.2218898  65.45  0.001078823    1.914    0.478
        49  -8.4043     99.8571    234.7206   1.0572488329e+02   1.2040697123e+01    0.2425143    0.1519563  76.22  0.001035541    2.186    0.542
        50  -8.8899     78.7898    234.4751   1.1006458122e+02   1.4992419246e+01    0.2368909    0.1474219  85.46  0.001160613    1.933    0.483
        51  -8.7631      8.3800    234.8402   1.2372620910e+02   2.2904962746e+01    0.1481691   0.08363206 -71.25 0.0009475102    1.717    0.418
        52  -8.2677    122.8468    234.1782   1.0083223286e+02   8.7792554538e+00    0.2012932    0.1554134  57.28 0.0006847989    1.355    0.262
        53  -9.3927     68.1324    232.2901   1.1203280941e+02   1.6814542540e+01    0.4826924    0.2166667  67.47  0.001973351    3.360    0.702
        54  -8.5367    194.2897    232.7846   8.5921769837e+01  -1.7999314467e+00    0.1999407    0.1928551  60.58 0.0008521851    1.517    0.341
        55  -9.2578    141.6992    231.2893   9.6459852023e+01   6.4407480318e+00    0.6336089    0.2535535  52.95  0.002078174    4.557    0.781
        56  -8.2870    132.8137    232.7667   9.8542092223e+01   7.5333918334e+00    0.2251391    0.1636387  79.14  0.001202135    2.030    0.507
        57  -8.6045     92.5871    232.1221   1.0694976602e+02   1.3570165326e+01    0.3003784     0.180406  82.12  0.001474209    2.361    0.577
        58  -9.2274    186.3306    230.7962   8.7175690269e+01  -3.0921041875e-01    0.2762335    0.2198741 -76.30  0.001086295    2.304    0.566
        59  -8.0011    153.2160    242.2009   9.5629541199e+01   2.8074710755e+00    0.1674405    0.1411828  56.18 0.0008579693    1.402    0.287
        60  -8.9302    235.9018    230.7156   7.7738199313e+01  -7.2730135358e+00    0.2129383    0.1525152 -26.75 0.0005718475    1.345    0.256
        61  -8.7758      1.8211    231.1102   1.2471368589e+02   2.4232552320e+01    0.1760999    0.1084489  67.31 0.0007253386    1.279    0.218
        62  -9.8598    246.7165    228.3784   7.5426705279e+01  -8.3356069036e+00    0.5002474    0.1969789 -27.86  0.002201731    2.477    0.596
        63  -9.5631    148.6728    224.6624   9.3998063586e+01   6.5545799471e+00      0.42679    0.3033899 -87.94  0.001342965    2.517    0.603
        64  -8.1626    229.8134    229.0152   7.8544030044e+01  -6.2349285000e+00    0.1686852    0.1414861 -53.23  0.001064784    1.988    0.497
        65  -8.7391    201.6104    227.4820   8.3602901970e+01  -2.0532683182e+00     0.435451    0.2867153  65.01   0.00174946    4.492    0.777
        66  -8.8143    162.1073    227.6670   9.1629394035e+01   3.9179429689e+00    0.2461762    0.2043607  74.59  0.001084979    1.754    0.430
        67  -8.6729    127.9598    227.4131   9.8832656430e+01   9.2672209062e+00    0.2953799    0.2077295  65.60  0.001276461    1.820    0.450
        68  -7.9560    120.1916    228.1309   1.0059571425e+02   1.0314377592e+01     0.180278    0.1438148  65.35 0.0008021055    1.392    0.281
        69  -7.8350    223.2978    227.6249   7.9500476441e+01  -5.1544546376e+00     0.183384    0.1097474 -37.39 0.0007559521    1.739    0.425
        70 -10.1255    223.2047    221.4238   7.8433894711e+01  -4.2336524433e+00      0.39291     0.279601  35.77 0.0007960404    1.539    0.350
        71  -8.8131    205.9828    226.2306   8.2540200509e+01  -2.4985927277e+00    0.2442625    0.1668588 -42.22 0.0007422317    1.692    0.409
        72  -8.0382     49.3775    226.6981   1.1534595572e+02   2.0244313220e+01    0.2606611    0.1225564  69.04  0.001211133    2.550    0.608
        73  -8.7183      8.2333    226.8027   1.2332933080e+02   2.4511508835e+01    0.1725356   0.06404179 -66.30 0.0008854799    2.525    0.604
        74  -9.0755    216.3158    224.1071   8.0196589966e+01  -3.6619132072e+00    0.3297071    0.1947479 -28.92  0.001396898    1.624    0.384
        75  -8.7349    180.4851    224.1795   8.7267950272e+01   1.6598753499e+00    0.2446821    0.2097716 -80.97 0.0007230543    1.855    0.461
        76  -9.0194    104.7887    223.8371   1.0335538092e+02   1.3454716321e+01     0.333397    0.2214469  83.02  0.001571637    2.067    0.516
        77  -9.0322     94.0184    224.2132   1.0572969827e+02   1.4940318024e+01    0.3841941    0.2086716  65.23  0.001726626    2.511    0.602
        78  -8.1916     38.4376    224.9448   1.1740285764e+02   2.1847285541e+01    0.1720927   0.08065479  76.57 0.0008068486    2.505    0.601
        79  -8.1238    113.7107    224.1277   1.0145863085e+02   1.2067739526e+01    0.1993281    0.1590294  79.86  0.001159469    1.472    0.321
        80  -8.1093     59.9576    223.9959   1.1293484154e+02   1.9528697983e+01    0.2117303    0.1210188  63.63   0.00101962    1.777    0.437
        81  -9.8931    191.7052    221.2871   8.4506351378e+01   4.1399419642e-01    0.3605725    0.3361659 -11.01  0.001734775    1.228    0.185
        82  -8.3875    172.9437    223.1337   8.8646814148e+01   3.0090185891e+00    0.1853162    0.1712982  45.41 0.0005164075    1.298    0.229
        83  -9.1976    160.2689    221.2265   9.0993293279e+01   5.3421432731e+00    0.5167632     0.254465  54.34  0.001966196    3.413    0.707
        84  -9.2010    239.0516    221.4315   7.5553491778e+01  -6.3925145450e+00    0.2747881    0.1811765 -32.82 0.0009245759    1.484    0.326
        85  -9.1837    120.6886    219.6247   9.9318580314e+01   1.1890896671e+01    0.4973758    0.2756645  65.28  0.001863521    3.123    0.680
        86  -8.1311     27.4410    221.2682   1.1931541867e+02   2.3779047266e+01    0.2164017   0.09480263 -69.63  0.001133789    2.107    0.525
        87  -8.9808     82.3743    220.4661   1.0780806057e+02   1.7336859648e+01    0.2906361    0.1934084  78.04 0.0009903435    1.735    0.424
        88  -8.2166     73.1964    220.9671   1.0983823424e+02   1.8467332878e+01    0.2107954    0.1243933  74.38 0.0007538898    2.040    0.510
        89  -8.3348    202.6308    220.2606   8.2160464604e+01  -1.0726545708e+00    0.1686035    0.1105087 -25.92  0.000519316    1.497    0.332
        90  -8.9622    151.3174    228.9918   9.4094803107e+01   5.3635686495e+00    0.2593316    0.1872082 -89.64 0.0009640573    2.490    0.598
        91  -8.2124    210.0428    219.2599   8.0543557946e+01  -2.0143738278e+00    0.1773277    0.1480359   6.51 0.0004917622    1.055    0.052
        92  -9.4420    132.8946    216.0757   9.6111683155e+01   1.0675210998e+01    0.5054849    0.3214642  80.19  0.002094593    3.168    0.684
        93  -8.3245     61.9598    217.3199   1.1186663190e+02   2.0679276798e+01    0.2766234    0.1460494  64.80  0.001266024    2.135    0.532
        94  -8.7804     51.4486    217.3184   1.1409604077e+02   2.1959062764e+01    0.2918257    0.1562364  72.97 0.0009148595    2.120    0.528
        95  -8.5209    169.3774    216.2388   8.8244099600e+01   4.7802547564e+00    0.2694516     0.212721 -85.68 0.0007663387    2.138    0.532
        96  -8.6096    142.9730    216.5748   9.3976409327e+01   8.9679940981e+00    0.2341931    0.1919362 -82.11 0.0007640941    1.630    0.386
        97  -8.4078    111.8103    217.2338   1.0094377085e+02   1.3731407779e+01    0.2228695    0.1275287  66.55 0.0007240221    2.705    0.630
        98  -8.0877     18.6004    216.2631   1.2071958132e+02   2.5705187016e+01    0.1587187   0.09196744 -69.81 0.0009524326    1.621    0.383
        99  -8.7352    232.0796    214.5884   7.5578909612e+01  -4.4571555214e+00    0.2208389    0.1624449 -42.45  0.000714853    1.676    0.403
       100  -8.3189    185.6681    214.3107   8.4521098985e+01   2.5208024992e+00    0.2210391    0.1612519 -50.16 0.0007311727    1.682    0.405
       101  -8.0680    154.3673    215.2114   9.1281023458e+01   7.3883160972e+00    0.1770638    0.1299484 -60.77 0.0004908499    1.725    0.420
       102  -8.9739     93.5191    214.3187   1.0462295867e+02   1.7051652952e+01    0.4255004    0.1894467  53.81  0.001738094    2.644    0.622
       103  -8.2441     76.6584    214.3275   1.0835799965e+02   1.9406000602e+01    0.1988174    0.1093527  50.48 0.0009898319    1.725    0.420
       104  -9.3519     72.1210    211.1897   1.0900484353e+02   2.0685920778e+01     0.465595    0.2309953  69.21  0.001693034    2.994    0.666
       105  -8.1450    224.8371    212.5831   7.6544093593e+01  -3.1332108204e+00    0.1927947    0.1378206 -33.00 0.0004203474    1.387    0.279
       106  -9.4428    213.8634    212.1532   7.8535630571e+01  -1.4623455610e+00    0.3075467    0.2845184  42.45  0.001722231    1.496    0.332
       107  -9.1632    204.0064    211.1506   8.0268427157e+01   1.8998108922e-01    0.3276044    0.2186653 -19.88  0.001416182    1.491    0.329
       108  -8.6688    161.5641    212.3504   8.9252708316e+01   6.7509257465e+00    0.2141214    0.1938343 -79.06  0.000687304    1.449    0.310
       109  -8.0138    106.4911    213.0051   1.0154891242e+02   1.5406891262e+01    0.1861497    0.1324198 -65.53 0.0009121491    1.538    0.350
       110  -7.8035    242.6792    212.2698   7.3264385392e+01  -5.5640630108e+00    0.1017945   0.09849383   1.03   0.00033952    1.565    0.361
       111  -8.8091    192.4526    211.2921   8.2602569650e+01   1.9648393408e+00    0.2881024    0.1769009 -48.29  0.001449476    1.939    0.484
       112  -9.4795    175.3736    209.9940   8.5903590799e+01   4.9300652823e+00    0.3890538     0.291588  74.34  0.001299785    2.419    0.587
       113  -9.3357      6.6571    209.4707   1.2264445198e+02   2.8234998264e+01    0.4765686    0.1574286  73.17  0.001807401    4.152    0.759
       114  -8.7991    148.0867    210.6253   9.1899713267e+01   9.2814398918e+00    0.2736995    0.2131553  78.91  0.001305129    1.882    0.469
       115  -8.9802    116.2360    210.3566   9.8978908811e+01   1.4457201806e+01    0.3370087    0.2328843  73.39  0.001009028    1.959    0.490
       116  -8.2101     32.8540    210.9244   1.1744052988e+02   2.5409176689e+01     0.226727   0.08366609  52.27  0.001013376    2.584    0.613
       117  -7.5167    179.2842    217.6523   8.6414527927e+01   2.9551642120e+00    0.1212209     0.107368  74.15 0.0007018169    1.650    0.394
       118  -9.0470    236.2900    208.2541   7.3660529233e+01  -4.0980166704e+00    0.2646854    0.1983265 -45.13 0.0008517106    1.735    0.424
       119  -8.6194    139.0204    208.3705   9.3543815483e+01   1.1208007748e+01    0.2409081    0.1947661 -78.56  0.000601734    1.599    0.375
       120  -9.3575    246.4108    207.2719   7.1696825742e+01  -5.3381904320e+00    0.2486513    0.1850895 -29.22 0.0005966885    1.291    0.225
       121  -7.8623    156.4365    208.1646   8.9655082702e+01   8.3795940750e+00    0.1753641    0.1348812 -62.46 0.0005883318    1.649    0.393
       122  -8.3693    126.4027    208.2716   9.6366618770e+01   1.3274795651e+01    0.1789738    0.1328731 -71.20 0.0006230028    1.644    0.392
       123  -9.1466     99.3030    206.0853   1.0222654774e+02   1.7953481112e+01    0.3728167    0.2429728  82.31  0.001390998    2.116    0.527
       124  -8.5542     56.3173    205.3356   1.1187769127e+02   2.3976402496e+01    0.3311864    0.1858885  68.15  0.001441599    1.992    0.498
       125  -8.6416    131.3049    204.1934   9.4610024592e+01   1.3315975968e+01    0.3171062    0.2119917  76.76 0.0008730976    2.504    0.601
       126  -8.2654    108.9554    205.1699   9.9880231489e+01   1.6679467327e+01    0.2105545    0.1718267  69.03 0.0006203624    1.326    0.246
       127  -8.3374     85.7962    209.7049   1.0577297893e+02   1.9137358328e+01    0.2602608     0.159583  77.99  0.001228682    2.161    0.537
       128  -9.3903    194.8474    203.4604   8.0688941289e+01   2.9286785155e+00    0.3308221    0.2453431 -34.13 0.0009840577    1.339    0.253
       129  -9.2492    192.3840    197.2583   8.0028216975e+01   4.4226680284e+00    0.3154663    0.2378827 -50.24 0.0008548186    1.594    0.373
       130  -8.9071    183.6773    203.7881   8.3047985781e+01   4.6874962754e+00    0.2635925    0.2319895  60.46 0.0008683892    1.523    0.343
       131  -9.5519    163.7312    203.1012   8.7180708388e+01   8.1302207005e+00     0.388472    0.2690287  57.61 0.0008558485    1.944    0.486
       132  -9.4692    250.0650    202.0052   7.0091114690e+01  -5.0581333788e+00    0.3773713    0.1602211 -36.19  0.001175626    2.087    0.521
       133  -9.8812    245.8634    193.8435   6.9267745702e+01  -3.2569388270e+00     0.415854     0.275828 -53.97  0.002148935    2.455    0.593
       134  -9.1090    243.0441    200.8722   7.1089416705e+01  -3.9289777744e+00    0.2853495      0.16265 -36.83  0.000837721    1.644    0.392
       135  -9.0712    140.3324    200.8579   9.2004285291e+01   1.2504025190e+01     0.348334    0.2433244 -79.19  0.001219441    2.217    0.549
       136  -8.3652     79.8820    201.2316   1.0605739835e+02   2.1823180272e+01    0.2840057    0.1720872  69.26  0.001343375    2.025    0.506
       137  -8.0694     48.6211    202.3648   1.1328479575e+02   2.5551277177e+01    0.2053443    0.1249236  66.85 0.0008701395    1.668    0.401
       138  -7.9202    221.9685    201.2025   7.4966991502e+01  -9.2694941142e-01    0.1740666    0.1379067 -45.78 0.0006007264    1.581    0.368
       139  -9.4476    237.0399    198.7930   7.1755144815e+01  -2.7632687535e+00    0.3204778    0.1621752 -40.90  0.001193242    1.980    0.495
       140  -9.5041    149.5428    198.5453   8.9519916550e+01   1.1418922293e+01    0.4399279    0.3120427 -81.17  0.001454822    2.349    0.574
       141  -8.8158    124.1266    199.4202   9.5489408324e+01   1.5486711713e+01    0.3121367    0.2277505  81.51  0.001279934    1.922    0.480
       142  -9.4287    112.7196    198.5472   9.8011098912e+01   1.7513229139e+01    0.4873325    0.3024502  67.26  0.001719165    2.316    0.568
       143  -9.4645     88.5744    198.4954   1.0367205177e+02   2.1201425531e+01    0.4008789    0.2489595 -89.00  0.001309857    2.139    0.532
       144  -8.3850    176.9715    199.1107   8.3600863692e+01   6.6563644958e+00    0.1982389    0.1885067  56.62 0.0005524109    1.307    0.235
       145  -8.3946    202.1195    197.6386   7.8130379571e+01   2.7655973086e+00     0.218827     0.178161 -39.98 0.0006330763    1.348    0.258
       146  -9.1675     61.4008    196.8512   1.0980186790e+02   2.5254406270e+01    0.4798668     0.269538  84.95  0.002222235    2.221    0.550
       147  -8.4149     12.5734    197.1612   1.2064361241e+02   3.0386513809e+01    0.3023301    0.1200431  82.19   0.00130153    2.915    0.657
       148  -7.5652     29.3711    197.6877   1.1709025526e+02   2.8684676036e+01     0.135245   0.07482062  63.73 0.0007034567    1.777    0.437
       149  -8.4015    215.8611    195.6277   7.5059735921e+01   9.2285603019e-01    0.2423679    0.1673785 -51.37 0.0008752717    1.917    0.478
       150  -8.9891    185.1577    194.9069   8.1080300725e+01   6.0551993122e+00    0.2685407     0.219607 -58.82 0.0006799005    1.598    0.374
       151  -7.9692    133.1862    196.1712   9.2849267723e+01   1.4672201831e+01    0.1919211     0.164701  72.65 0.0005949148    1.373    0.271
       152  -8.6531    224.6529    194.3955   7.3165558475e+01  -2.3190730133e-01    0.2865366    0.1570685 -44.03 0.0009009723    1.972    0.493
       153  -7.4077    209.3055    195.6866   7.6337918934e+01   1.9479438775e+00    0.1191973    0.1112688 -83.88 0.0004640969    1.620    0.383
       154  -8.9841    160.6612    194.2113   8.6247604732e+01   1.0379110590e+01    0.2846329    0.2339552 -81.35 0.0008196618    1.730    0.422
       155  -8.9279     43.6674    193.4917   1.1351179097e+02   2.8122647906e+01    0.4143076    0.2005254  71.74  0.001784176    2.674    0.626
       156  -8.1943    230.6015    194.2697   7.2048565056e+01  -1.1093672403e+00    0.1815884    0.1076852 -26.38  0.000731361    1.541    0.351
       157  -8.6294     76.8566    193.9709   1.0582998318e+02   2.3880104342e+01    0.2267183    0.1770066 -86.02 0.0006202943    1.297    0.229
       158  -8.3711    210.9880    202.2546   7.7259771723e+01   5.7963139190e-01    0.2123309    0.1838179 -53.37 0.0006766941    1.592    0.372
       159  -8.0254    205.3508    192.1126   7.6423759539e+01   3.2013693827e+00    0.1865683    0.1207013 -47.16   0.00046201    1.763    0.433
       160  -8.1484    198.9804    191.7774   7.7631884310e+01   4.3082062570e+00    0.2292651    0.1719685 -49.76 0.0006268898    1.595    0.373
       161  -8.3925    179.1197    191.6264   8.1731510885e+01   7.6954569132e+00    0.2329966    0.1894911 -50.81 0.0006099728    1.422    0.297
       162  -8.4437    172.3507    191.8458   8.3232531593e+01   8.8208250390e+00    0.2457013    0.2147775 -76.26 0.0009613651    1.556    0.357
       163  -9.1559    139.5189    190.6779   9.0420085568e+01   1.4753390707e+01    0.3596228    0.2729475  88.99  0.001074269    1.930    0.482
       164 -10.4097     92.0990    188.3707   1.0138470140e+02   2.2977030972e+01      1.01318    0.4998825  52.96   0.00347489    2.348    0.574
       165  -8.7275    148.1525    189.0395   8.8124223049e+01   1.3600083095e+01    0.2890677    0.1896291 -65.07 0.0008663346    2.056    0.514
       166  -8.9938    129.3293    188.7179   9.2467461729e+01   1.6915238555e+01     0.317712    0.2351641  79.39 0.0008357212    1.914    0.477
       167  -8.5236    237.1319    188.3961   6.9738071047e+01  -1.1440101825e+00    0.2676007    0.1462095 -38.69 0.0008617393    1.710    0.415
       168  -8.7979    216.5948    188.1443   7.3461413216e+01   2.0680622758e+00    0.2589934    0.2188738 -57.80 0.0008341097    1.660    0.398
       169  -9.1317    155.9045    187.4456   8.6053975147e+01   1.2569345038e+01    0.3542592    0.2443326 -64.07 0.0009637883    1.931    0.482
       170  -9.6806    120.8682    186.6526   9.4130645156e+01   1.8794438724e+01    0.5560645    0.3171639 -75.14  0.002120267    2.944    0.660
       171  -8.6530     34.1616    187.9863   1.1514253530e+02   3.0408805674e+01    0.3099317    0.1607313  76.73  0.001277236    2.204    0.546
       172  -8.8203    191.4700    187.4576   7.8321336084e+01   6.3559947354e+00    0.2740538    0.2252948 -65.25 0.0008541365    1.717    0.418
       173  -9.3057    109.5042    186.0917   9.6788195862e+01   2.0788398314e+01    0.4207042    0.2904389  89.51  0.001178254    2.023    0.506
       174  -8.9594     54.8080    187.2477   1.1023723942e+02   2.8280398581e+01    0.3851083     0.203578  66.57   0.00171543    2.336    0.572
       175  -7.8090    230.5281    187.5129   7.0747270283e+01  -6.5758968468e-03    0.1331269    0.1112685 -12.33 0.0001021126    1.032    0.031
       176  -8.9842    164.7660    186.7751   8.3931891436e+01   1.1142244664e+01    0.2631448    0.1995958 -56.25 0.0006549783    1.547    0.354
       177  -9.2678    249.1969    185.6965   6.7129852320e+01  -2.4764307681e+00    0.2378264    0.2142981 -26.34  0.000886312    1.323    0.244
       178  -8.6803    210.1675    184.3329   7.3942907992e+01   3.7716800779e+00    0.2435307    0.1819093 -38.29  0.000521372    1.335    0.251
       179  -8.5943    202.8886    184.6609   7.5443961699e+01   4.9271948062e+00    0.2556344    0.1804211 -54.82 0.0007527203    1.870    0.465
       180  -8.5780    183.0230    184.8448   7.9576965008e+01   8.3068144844e+00    0.2396276    0.1989461 -38.03 0.0006303663    1.228    0.185
       181  -8.9988     66.5134    184.4814   1.0707625854e+02   2.7466627548e+01    0.3372368    0.2179409  74.19   0.00104241    1.791    0.442
       182  -8.2739    224.1178    183.6783   7.1162572697e+01   1.6260075008e+00    0.2234377    0.1637515 -38.67  0.000526489    1.368    0.269
       183  -9.0316    174.2150    183.0667   8.1122431310e+01   1.0203839293e+01    0.4448225    0.2230996 -45.22  0.001098741    2.027    0.507
       184  -9.0631     44.2376    182.3270   1.1219973023e+02   3.0656146467e+01    0.3299554    0.1915966  78.54  0.001186355    1.942    0.485
       185  -7.8885      1.7537    183.6120   1.2200886934e+02   3.4308587529e+01    0.1572613   0.09150311  46.84 0.0009390931    1.681    0.405
       186  -9.3809    147.5111    180.5448   8.6672907440e+01   1.5498139363e+01    0.4103197    0.2915916 -72.22  0.001302273    2.006    0.502
       187  -7.5793     83.2741    182.5833   1.0269099937e+02   2.5616976967e+01    0.1483553    0.1009349  76.66 0.0005064018    1.795    0.443
       188  -9.5430     25.6096    178.9349   1.1626208497e+02   3.3360780631e+01     0.648162    0.2596332  79.96  0.002298409    4.021    0.751
       189  -8.6645    240.4724    180.4985   6.7599179423e+01  -3.7771667678e-01    0.2692435    0.1122365 -36.95  0.001092077    2.107    0.525
       190  -8.7348    137.4531    179.3332   8.8821215417e+01   1.7549114441e+01    0.2946034    0.2363269  76.24 0.0009526105    1.631    0.387
       191  -8.8981    205.0182    177.7565   7.3625101448e+01   5.8105933908e+00    0.2970589     0.179828 -45.78 0.0007833609    1.747    0.428
       192  -9.3177    191.4036    178.3215   7.6503044500e+01   8.0729599452e+00    0.2796066    0.2475641 -60.39 0.0005751349    1.433    0.302
       193  -8.1989    169.2803    178.6056   8.1319456091e+01   1.1975939233e+01      0.25579    0.1729018 -54.65  0.000759229    1.729    0.422
       194  -8.9738     35.9391    176.9816   1.1361215721e+02   3.2807135615e+01    0.5297081    0.2189216  80.60  0.001713518    4.648    0.785
       195  -8.7872    250.5078    172.8765   6.4388310494e+01  -6.5613669720e-01    0.2705572    0.1647157 -30.06 0.0007100394    1.379    0.275
       196  -9.0171    248.9849    177.4980   6.5557920408e+01  -1.1638465257e+00    0.2903262    0.2302237  47.15  0.001071629    1.720    0.419
       197  -8.7777    247.3157    174.2927   6.5199691424e+01  -4.0752173747e-01    0.2478687    0.1709193  -6.70 0.0008903675    1.481    0.325
       198  -8.4886    217.5831    177.2861   7.1097147849e+01   3.7784768879e+00    0.2309804    0.2032305 -67.99 0.0009380318    1.651    0.394
       199  -8.8393    129.0806    177.2468   9.0450275651e+01   1.9483082409e+01    0.3234471    0.2318543 -88.81 0.0009494656    2.106    0.525
       200  -8.2786     97.1212    177.7620   9.8479405935e+01   2.4674071537e+01    0.2304485    0.1689339  -5.60  0.001082443    1.956    0.489
       201  -8.5657    231.1668    176.8137   6.8501068160e+01   1.6621384887e+00    0.2337278    0.1586745 -39.86 0.0006520588    1.435    0.303
       202  -8.8993    183.0884    176.0966   7.7799115860e+01   9.9803044628e+00    0.2987038    0.2273977 -53.60 0.0005446566    1.538    0.350
       203  -9.5406    104.2211    174.7793   9.6184782960e+01   2.4246169325e+01    0.5254028    0.3210607  67.74  0.001685436    2.454    0.593
       204  -8.8308     88.9778    176.8744   1.0038945742e+02   2.6126599198e+01    0.2931958    0.2130619  79.01   0.00110767    1.647    0.393
       205  -9.9690     57.3361    173.3642   1.0789402355e+02   3.1275626150e+01    0.8294622    0.3909177  82.70  0.002693471    4.348    0.770
       206  -8.7075     12.6402    176.6295   1.1906332120e+02   3.5044448133e+01    0.2552908    0.1311187  66.00 0.0008035107    2.010    0.503
       207  -7.9576    211.5364    176.4599   7.2084193912e+01   4.9347215365e+00    0.1399561     0.121703 -11.54 0.0001131899    1.010    0.010
       208  -9.1824    158.8073    175.0878   8.2977190712e+01   1.4603955304e+01    0.3592473    0.2785779 -87.31  0.001101589    1.989    0.497
       209 -10.7746     75.9508    169.3656   1.0254782005e+02   2.9812309053e+01     1.450171    0.5408973 -67.43  0.005022873    3.105    0.678
       210  -8.4681    224.3956    174.5874   6.9277167724e+01   3.1262956920e+00    0.2469966    0.1177749 -42.36 0.0007556471    2.029    0.507
       211  -9.3086    175.8802    172.1000   7.8532817346e+01   1.2080079204e+01    0.4040545    0.2435082 -49.51  0.001095152    1.788    0.441
       212  -8.4120    143.2296    172.8883   8.6189330313e+01   1.7919794446e+01    0.2864833    0.2259422 -88.08  0.001030894    1.774    0.436
       213  -8.6071    134.7666    171.8950   8.8038522753e+01   1.9669142186e+01    0.2658929    0.2098974 -76.39 0.0008188817    1.596    0.373
       214  -9.5077    121.5019    170.5878   9.1067363614e+01   2.2313650206e+01    0.3949661    0.2919906  88.40  0.001204935    1.894    0.472
       215  -9.2168     45.0264    171.0854   1.1070535809e+02   3.3254485998e+01    0.3841807    0.2158473  83.53  0.001429694    2.134    0.531
       216  -8.3509    205.8822    170.5724   7.1969147094e+01   6.9705648479e+00    0.2673781     0.175245 -52.79 0.0007664586    1.884    0.469
       217  -8.5081    237.1359    169.7030   6.6005519388e+01   1.9054586025e+00    0.2304483    0.1592154 -40.69 0.0005817662    1.411    0.291
       218  -9.1243    230.3526    169.1234   6.7078590920e+01   3.0903383036e+00    0.3943907    0.2111862 -46.12  0.001829525    2.000    0.500
       219  -8.3784    198.3339    170.0132   7.3359890964e+01   8.4086296541e+00    0.2058378    0.1701371 -33.75 0.0006001843    1.162    0.139
       220  -9.1347    167.1928    168.6679   7.9747428743e+01   1.4387700028e+01     0.325794    0.2582758  81.41  0.001050456    1.911    0.477
       221  -8.5324    149.8141    169.5794   8.3955324142e+01   1.7430394978e+01    0.2701526    0.1982248 -66.75 0.0007344632    1.746    0.427
       222  -7.6577     68.3428    170.6794   1.0471282406e+02   3.0527260313e+01    0.1479488   0.09925725  68.60 0.0007049978    1.723    0.420
       223  -8.3131    244.4740    169.1465   6.4641426280e+01   8.5345686108e-01    0.1994056    0.1115612 -35.81 0.0005694763    1.537    0.349
       224  -8.4762    112.1586    167.9792   9.2940076488e+01   2.4524355684e+01    0.3698091    0.2335162  75.90  0.001416148    2.763    0.638
       225  -8.2535     88.6497    168.5555   9.9115725777e+01   2.8163104239e+01    0.2431468    0.1697045 -86.22 0.0007887117    1.747    0.428
       226  -8.3378    218.8434    168.2592   6.8999053491e+01   5.1524109712e+00    0.1988784    0.1787537 -39.77 0.0006017021    1.253    0.202
       227  -8.9912    191.9331    166.6394   7.3958692351e+01   1.0207254297e+01    0.2718559    0.2007786 -44.67 0.0005396532    1.384    0.278
       228  -8.7321    184.9850    166.5319   7.5395037454e+01   1.1506510276e+01    0.2727015    0.1971373 -54.84 0.0006917875    1.641    0.391
       229  -9.9518     94.9273    162.4495   9.6404681261e+01   2.8666262034e+01    0.9347733    0.5643173  88.93   0.00314764    2.895    0.655
       230  -9.2504     20.5630    166.3366   1.1625640851e+02   3.6802610469e+01    0.3438155    0.1626781  61.43  0.001092263    2.438    0.590
       231  -8.1702    140.6651    166.3199   8.5484719501e+01   1.9835614035e+01    0.2396044    0.1828845  51.65 0.0008422605    1.432    0.302
       232  -9.4904    135.6582    163.9642   8.6230407813e+01   2.1284659609e+01    0.4272162    0.2770014  55.33 0.0009280427    1.866    0.464
       233  -8.1626    233.9928    165.0113   6.5588063447e+01   3.1972982414e+00    0.1953151     0.159604 -56.93  0.000728664    1.622    0.383
       234  -8.6626    159.6767    164.4702   8.0580251595e+01   1.6679058027e+01    0.2789641    0.2241067 -74.75 0.0007684174    1.672    0.402
       235  -8.4896     56.9411    164.1094   1.0673055695e+02   3.3576868144e+01    0.3611332    0.2222738  -6.84  0.001521405    2.955    0.662
       236  -9.5527     33.5588    163.5230   1.1270835864e+02   3.6282624377e+01    0.5479642    0.2275068  55.07  0.002216609    2.983    0.665
       237  -8.8320    245.9890    163.1619   6.3172917682e+01   1.5969474812e+00    0.2288973    0.1630064 -31.48 0.0005381875    1.186    0.157
       238  -7.9893    240.1210    164.2150   6.4369870072e+01   2.3461249668e+00    0.1681383     0.153374 -46.69 0.0006625802    1.359    0.264
       239  -8.6164    212.9959    163.7767   6.9158568474e+01   6.9635343891e+00    0.2468787    0.1833942 -36.64 0.0006246926    1.253    0.202
       240  -8.3880    204.9039    163.0614   7.0572916697e+01   8.5316678193e+00    0.2094398    0.1886078 -53.89 0.0005663576    1.328    0.247
       241  -9.3557      3.4619    162.4919   1.2004347471e+02   3.9058212503e+01    0.3644978    0.1722982  57.84    0.0018338    2.249    0.555
       242  -9.1962    177.6563    160.7728   7.5735594321e+01   1.4031714517e+01    0.3611813    0.2720227 -66.77 0.0009823582    1.832    0.454
       243  -8.8755    151.6244    161.1253   8.1758910048e+01   1.8924502414e+01    0.3163127     0.247694 -75.85 0.0008384514    1.728    0.421
       244  -8.8293     60.6970    160.2969   1.0518108288e+02   3.4052415624e+01    0.3590043    0.2173318  76.38  0.001189006    2.200    0.545
       245  -8.4911    227.5360    159.2613   6.5523323139e+01   5.2575219696e+00    0.2621787    0.1726123 -52.02  0.001004831    1.840    0.457
       246  -9.7308    105.6652    157.5476   9.2636872447e+01   2.8093761742e+01     0.558098    0.3661673 -72.36  0.001421474    1.887    0.470
       247  -8.2669    245.2823    158.6804   6.2369895799e+01   2.4451140923e+00    0.1878537    0.1068734 -29.84 0.0005073179    1.544    0.352
       248  -9.7427    250.1941    157.7030   6.1373763541e+01   1.8345761568e+00     0.341548    0.1687691 -38.64 0.0008911328    1.729    0.421
       249  -8.5230    246.5507    155.5432   6.1515856587e+01   2.7620044278e+00     0.220784     0.111811 -35.55 8.112373e-05    1.672    0.402
       250  -8.5313    236.8739    159.1016   6.3863290343e+01   3.7288443324e+00    0.2045613    0.1687335 -39.41 0.0008023252    1.235    0.190
       251  -8.4339    128.0244    158.8487   8.7088296193e+01   2.3850038587e+01    0.2650841     0.201319 -72.42 0.0007795286    1.619    0.382
       252  -8.2419    196.6135    158.0171   7.1138741870e+01   1.1002533496e+01    0.2221626    0.2048773  53.76 0.0006043157    1.300    0.230
       253  -8.2587    188.1774    158.1438   7.2907392346e+01   1.2561342027e+01    0.1968137    0.1709586 -57.02 0.0004612226    1.344    0.256
       254  -9.2511    167.6428    157.4329   7.7233563037e+01   1.6639350131e+01    0.3283773    0.2745458 -83.14  0.001108493    1.636    0.389
       255  -8.5158    218.0542    156.6072   6.6676889810e+01   7.3688656624e+00     0.263087    0.1791958 -49.03  0.000883535    1.609    0.379
       256  -8.8520    157.7825    156.2661   7.9250502862e+01   1.8794601562e+01    0.2586003    0.2024337 -55.20 0.0006082799    1.393    0.282
       257  -9.4527    119.4972    155.1420   8.8513095663e+01   2.6257016884e+01    0.4476153    0.3037574 -77.36  0.001422338    2.105    0.525
       258  -9.3296     49.6691    155.4830   1.0743868404e+02   3.6557587190e+01      0.42383    0.2432808  68.21  0.001691211    2.270    0.559
       259  -8.7623    144.6935    155.0453   8.2119003936e+01   2.1585498308e+01    0.3414766    0.2620311  73.67  0.001021016    1.817    0.450
       260  -9.5728     81.6937    154.5613   9.8547070203e+01   3.2612177436e+01    0.5391448    0.3567546 -83.84  0.001673797    1.907    0.476
       261  -8.9429     77.8583    146.7734   9.8193750272e+01   3.5096458000e+01    0.3578049    0.2292506 -84.85  0.001047196    2.089    0.521
       262  -9.4716    242.5424    155.0181   6.2061652582e+01   3.4928853037e+00    0.1900911    0.1691574  -2.29 0.0004265211    1.133    0.118
       263  -7.5572    204.5685    155.4734   6.8996772760e+01   1.0011832987e+01     0.144678    0.1293933 -21.06 0.0001778898    1.024    0.023
       264  -9.3765     68.0219    153.8724   1.0218145151e+02   3.4697843495e+01    0.4363737    0.2672401  66.55  0.001279131    2.170    0.539
       265  -8.1521    232.8242    154.0063   6.3485741577e+01   5.2735712809e+00    0.2149495    0.1479329 -57.12 0.0008066499    1.962    0.490
       266  -9.6617    132.8889    153.1302   8.4642909945e+01   2.4260603647e+01    0.4493975    0.3446116  74.96  0.001283837    1.785    0.440
       267  -9.4595    133.4864    148.5139   8.3480050910e+01   2.5203743919e+01    0.3602187     0.241952 -35.95  0.001140345    1.558    0.358
       268  -8.7502    151.6492    152.5795   7.9890396469e+01   2.0785737660e+01    0.2704505    0.1418475 -46.68 0.0007946151    1.886    0.470
       269 -10.3245    148.9334    144.8913   7.8808438266e+01   2.3010197190e+01    0.6389725    0.4356864 -84.90   0.00161815    2.807    0.644
       270  -9.3579     20.1269    152.8157   1.1495981716e+02   4.0103090586e+01    0.1944899    0.1501165  79.19 0.0005983097    1.242    0.195
       271  -8.3288    182.4609    151.5594   7.2657972948e+01   1.4969220151e+01    0.2842932    0.2063617 -70.71  0.001252412    2.108    0.526
       272  -8.8133     98.3736    150.9698   9.3303926390e+01   3.0893764320e+01    0.3549026    0.2415842 -87.83  0.001075173    2.117    0.528
       273  -9.6382     29.4129    150.7365   1.1226241076e+02   3.9804168113e+01    0.4947237    0.2364987  70.47  0.001968378    3.099    0.677
       274  -8.9430      2.8896    150.3769   1.1913815548e+02   4.1969960651e+01    0.3192164    0.1449534 -88.38  0.001444153    2.117    0.528
       275  -9.6468    248.7663    149.4082   5.9890069042e+01   3.4208988588e+00    0.3463817    0.1808282 -37.70 0.0008207598    1.615    0.381
       276  -8.9449    247.0129    143.9762   5.9031644203e+01   4.6062993770e+00    0.2533305     0.157735 -35.68 0.0005892714    1.350    0.259
       277 -10.0139    242.7054    149.9795   6.0981409909e+01   4.3109500646e+00    0.2917932    0.2811162  75.76  0.001889425    1.388    0.279
       278  -8.8158    189.3621    150.1926   7.0893902521e+01   1.3902861287e+01    0.2972519    0.2359415 -49.47 0.0007981071    1.336    0.252
       279  -8.3845    162.4761    150.4604   7.6862930613e+01   1.9120312362e+01    0.2645011    0.1435298 -54.67 0.0007907841    2.191    0.544
       280  -8.2784    212.9757    149.9417   6.6172336020e+01   9.4951046914e+00    0.2148001    0.1900443 -26.20  0.000382603    1.041    0.039
       281  -8.5154    198.8267    149.0367   6.8706553915e+01   1.2310378857e+01    0.2175715    0.1912698 -56.23 0.0005457076    1.310    0.237
       282  -8.5124     51.0371    149.4573   1.0617566429e+02   3.7898550854e+01     0.191324    0.1173146 -12.51 0.0008085324    2.739    0.635
       283  -9.8335     39.7403    147.6494   1.0904252988e+02   3.9569996283e+01    0.5490247    0.2922264  70.86  0.002151609    2.683    0.627
       284  -9.4335    233.6970    147.7279   6.1999430444e+01   6.2090914565e+00    0.2778538    0.1607774 -41.73 0.0009093083    1.573    0.364
       285 -10.3599     54.6244    144.5845   1.0440169369e+02   3.8696667602e+01    0.7999862    0.4113893  70.38  0.002635991    3.610    0.723
       286  -8.0466     53.3678    137.2997   1.0354925239e+02   4.0665238320e+01    0.2341731    0.1692384 -13.23 0.0007536632    1.826    0.452
       287  -8.3231    223.3218    146.9545   6.3630687944e+01   8.1633803697e+00    0.2021009    0.1592684 -32.64 0.0004427583    1.121    0.108
       288 -10.1654    139.0613    145.0386   8.1286759394e+01   2.4919411003e+01    0.5142729    0.3504701 -76.42  0.001208808    2.341    0.573
       289 -10.3307    106.6097    144.1858   8.9651870655e+01   3.1142192565e+01    0.7638175    0.5171527 -87.07  0.002187137    2.321    0.569
       290  -9.5541     13.1986    146.1914   1.1605963469e+02   4.2256856587e+01    0.3615559     0.207497  74.43  0.001282705    1.920    0.479
       291  -8.0458    206.5276    146.4892   6.6629494045e+01   1.1334444173e+01    0.1452117    0.1313058 -26.13 0.0002957459    1.042    0.040
       292  -8.3346    175.6682    146.2039   7.2915415758e+01   1.7395371104e+01    0.2325139    0.1870381 -58.83 0.0007221794    1.438    0.304
       293 -10.4194    241.5574    143.6762   5.9836621710e+01   5.5647942975e+00    0.5653571    0.3312321 -10.64  0.002451254    2.561    0.610
       294  -9.9049    125.0113    142.7987   8.4396509434e+01   2.8130340202e+01    0.5388899    0.3685053 -82.54  0.001486481    2.395    0.582
       295 -11.0492     69.0332    139.8088   9.9423997381e+01   3.8063367976e+01     1.105137    0.4978727 -64.30  0.003578391    2.242    0.554
       296 -10.4576     60.2436    125.5102   9.9307467290e+01   4.2771366794e+01    0.7600399    0.4531014  77.78  0.002608513    2.984    0.665
       297  -8.9174    165.4144    144.0519   7.4719319218e+01   1.9895611762e+01    0.2705258    0.2252799  50.91 0.0006465713    1.318    0.241
       298  -9.9887     89.3008    146.3476   9.4896958743e+01   3.3479168815e+01    0.6823265    0.4014852 -87.59  0.002417892    3.191    0.687
       299  -9.4104      3.0469    142.1913   1.1832804369e+02   4.3920402152e+01    0.3457138    0.1831593  65.07  0.001644138    2.139    0.532
       300  -9.4640     57.7854    135.3732   1.0191035368e+02   4.0619121147e+01    0.3432091    0.2209392  17.95  0.001649697    1.901    0.474
       301  -8.4999    182.0078    141.5593   7.0469369243e+01   1.7074889218e+01    0.2832726    0.1998581 -53.78 0.0006543773    1.581    0.367
       302  -8.1728    250.4789    140.9690   5.7863640643e+01   4.5362774809e+00    0.2040557    0.1107661 -37.19 0.0005198829    1.537    0.349
       303  -9.9488     23.5319    138.2802   1.1230156506e+02   4.3385531286e+01    0.5304981    0.2750588  68.57  0.002122262    2.617    0.618
       304  -8.8487    187.5451    138.1135   6.8501723355e+01   1.6652716336e+01    0.4328287    0.1935609 -38.48  0.001641996    2.138    0.532
       305  -8.4653    172.1222    138.2117   7.1837064352e+01   1.9759371183e+01    0.2752618    0.1943333 -66.35 0.0005476533    1.967    0.492
       306  -7.7502    218.5359    138.5603   6.2630196138e+01   1.0546508324e+01    0.1418433    0.1264947 -30.45 0.0002022065    1.047    0.045
       307  -8.2304    207.4875    138.0100   6.4533342137e+01   1.2741345914e+01    0.2198811    0.1318029 -41.53 0.0006925066    1.543    0.352
       308  -8.5954    197.5850    137.5833   6.6346228569e+01   1.4755092488e+01    0.2766822    0.2048091 -54.19 0.0007560016    1.511    0.338
       309  -8.4937     89.1396    137.7060   9.3187050484e+01   3.5627360138e+01    0.3208739    0.1952606   0.46  0.001161062    3.085    0.676
       310  -8.2241    162.5440    136.3040   7.3555785002e+01   2.2120355165e+01     0.287363    0.1464817 -47.95 0.0007845336    1.989    0.497
       311  -8.9189    150.9417    136.1476   7.6268471548e+01   2.4527954425e+01    0.4515177    0.2591334  18.78  0.001560609    2.945    0.660
       312  -9.1700    139.9951    137.4711   7.9294872178e+01   2.6440955992e+01    0.2368272     0.153837  37.58 0.0006940381    1.585    0.369
       313 -10.3786     83.3330    132.6899   9.3819617439e+01   3.7765662337e+01    0.6991468    0.3515292 -60.75  0.001444484    2.034    0.508
       314  -8.6317     85.2530    122.5851   9.1016267416e+01   3.9935837133e+01    0.5108684    0.2954955   5.38  0.001792696    3.294    0.696
       315  -9.4292     39.1735    136.2546   1.0752997370e+02   4.2463178563e+01    0.2850012    0.2077118  76.08 0.0007728804    1.549    0.354
       316  -8.9065    250.7402    130.1024   5.5537902381e+01   6.2859839301e+00     0.441685     0.104534 -37.27   0.00144161    3.599    0.722
       317  -9.0557    248.3045    135.2171   5.6985174115e+01   5.8488272945e+00    0.3291457    0.1803177 -39.80 0.0008018492    1.548    0.354
       318  -8.5353    246.9558    130.3115   5.6147488437e+01   6.8936290066e+00     0.232908    0.1544077 -42.35 0.0006066593    1.332    0.249
       319  -7.7577    192.4987    136.5332   6.7118667486e+01   1.5970263524e+01    0.1490536    0.1383299 -27.32 4.979972e-05    1.030    0.029
       320  -7.9002    217.7695    144.0190   6.3981951009e+01   9.6979877634e+00    0.1935923    0.1072302 -38.20 0.0005891224    1.619    0.382
       321  -8.0915    237.4718    133.6924   5.8350194362e+01   7.9696222494e+00    0.2592151     0.114368 -42.03 0.0008782359    1.999    0.500
       322  -7.6986    231.4804    134.4395   5.9489343711e+01   8.9078073108e+00    0.1388201     0.120374 -28.24 5.161503e-05    1.007    0.007
       323  -8.3951    179.6953    133.9411   6.9170301864e+01   1.9082983203e+01    0.2759407    0.1990124 -54.80 0.0008106222    1.546    0.353
       324  -9.0447    112.7918    133.3591   8.5533389753e+01   3.2622279201e+01    0.3309992    0.2521151  77.09 0.0007308171    1.811    0.448
       325  -9.3795    143.1258    131.8089   7.7148279688e+01   2.7074546765e+01    0.3772531    0.2629434 -66.72 0.0007726056    1.903    0.475
       326 -10.1418    132.2322    131.4340   7.9843440379e+01   2.9348921164e+01     0.516221    0.3693073 -77.40  0.001004059    2.080    0.519
       327 -10.3498    130.7607    118.1575   7.6910445017e+01   3.2630354659e+01    0.6502605    0.4352615 -67.30  0.001968725    2.085    0.520
       328 -10.0803    133.7397    109.8887   7.3950191586e+01   3.3823027182e+01    0.7130186    0.3517593 -53.65  0.002225007    2.400    0.583
       329 -10.4483     98.2527    130.3313   8.8946958923e+01   3.5922697163e+01     0.752463    0.4035907 -55.32  0.001886803    1.843    0.457
       330  -8.8790     99.2746    120.3203   8.6287761657e+01   3.8139837597e+01    0.5924478    0.3449194  11.76  0.002101778    3.012    0.668
       331  -9.5440    152.8521    129.0695   7.4087199966e+01   2.5672329357e+01    0.4761393    0.2646457 -54.21 0.0008631682    2.069    0.517
       332 -10.2766     12.8469    129.1703   1.1418642021e+02   4.6431486441e+01    0.4900748    0.2625295  80.36  0.001785722    2.282    0.562
       333  -8.0423    220.4138    130.2057   6.0422172116e+01   1.1701473920e+01    0.1966757    0.1213036 -45.97 0.0005140406    1.562    0.360
       334  -8.1578    204.4521    130.2749   6.3324602450e+01   1.4785969378e+01    0.2050607    0.1295367 -48.19 0.0009251267    1.603    0.376
       335  -8.2099    192.8136    130.1657   6.5557419984e+01   1.7147037955e+01    0.2214981    0.1965289 -57.62 0.0004934994    1.237    0.192
       336  -9.1526    168.2791    129.5251   7.0608388785e+01   2.2354683929e+01    0.3069215    0.2481027 -67.25 0.0009299496    1.513    0.339
       337  -8.5329    161.4320    130.1893   7.2334409366e+01   2.3645840075e+01    0.2230264    0.1443806 -52.52 0.0009371834    1.664    0.399
       338  -9.9613     73.2754    129.4408   9.6133484521e+01   4.0052159389e+01     0.390072    0.2721053 -87.00 0.0009837566    1.894    0.472
       339  -8.5637     26.3799    129.7589   1.1031399018e+02   4.5252582279e+01    0.2991239    0.1655909  -4.26  0.001353391    2.816    0.645
       340  -8.0618      1.7994    130.5655   1.1747801841e+02   4.6794446869e+01    0.1559944    0.1076477  43.81 0.0009433024    1.668    0.400
       341  -7.9681    211.6659    129.3440   6.1776352662e+01   1.3539819484e+01    0.2102838    0.1645806 -68.88 0.0007581844    1.681    0.405
       342 -10.7355     45.0079    123.8389   1.0370446495e+02   4.4953966900e+01     1.045669    0.5641602  77.80  0.003788877    3.630    0.725
       343 -10.1057    118.2231    125.6039   8.2179404255e+01   3.3420390286e+01    0.5797829    0.3833911  71.82  0.001550144    2.574    0.612
       344  -8.0253    228.3708    125.1407   5.7940936984e+01   1.1102661574e+01    0.2063022      0.11324 -46.06 0.0006129303    1.736    0.424
       345  -8.9211    179.2523    124.8553   6.7068366252e+01   2.1003263900e+01    0.2701863    0.2498982  89.41 0.0006942777    1.265    0.210
       346 -10.3143     28.3391    122.4693   1.0862402883e+02   4.6887259296e+01    0.7033437    0.3647985  76.17  0.002775569    3.244    0.692
       347  -8.9490     27.2413    113.7135   1.0753788558e+02   4.9130664549e+01    0.2794385    0.1649252  20.56  0.001441584    2.004    0.501
       348  -7.7207    244.2767    124.6356   5.5333482016e+01   8.3061350066e+00    0.1357394   0.09446857 -56.95 0.0004166773    1.671    0.402
       349  -8.3935    188.4042    123.6349   6.4876935579e+01   1.9326358444e+01    0.2938901    0.1216544 -51.51 0.0009505558    3.102    0.678
       350  -8.9838    158.7592    121.6990   7.0844881614e+01   2.5997728839e+01    0.3665346    0.2866016 -87.68  0.001312183    1.826    0.452
       351  -7.8529    203.3429    122.2207   6.1641063085e+01   1.6517812028e+01    0.2113252    0.1236914 -46.59 0.0004404954    1.672    0.402
       352  -7.8739    194.8442    121.8552   6.3170374319e+01   1.8330681593e+01      0.20664    0.1672295 -56.77 0.0004476593    1.348    0.258
       353  -8.5406    172.0182    121.5002   6.7796560836e+01   2.3211345187e+01    0.2815762    0.2036121 -54.69 0.0005134965    1.515    0.340
       354  -9.7165     70.9521    119.9593   9.4822598034e+01   4.2713756714e+01    0.3274141    0.2453112 -78.63  0.000863247    1.574    0.365
       355  -9.9992    141.5409    118.2987   7.4159053830e+01   3.0368247815e+01    0.5897721    0.3102804 -53.63    0.0016492    2.178    0.541
       356  -9.8810      3.1980    117.6215   1.1558674113e+02   4.9833707173e+01     0.472293    0.2423258  68.63  0.002202268    2.615    0.618
       357  -7.8321    231.0433    117.5190   5.5804103171e+01   1.1924307458e+01    0.1732279    0.1223261  89.98 0.0008066738    2.352    0.575
       358  -8.8983     58.8055    115.8040   9.7765931620e+01   4.5344955166e+01    0.4363407    0.2262101 -28.52  0.001660413    2.831    0.647
       359  -7.9268    219.3160    116.6572   5.7514603810e+01   1.4333833444e+01     0.144668    0.1062082 -64.99 0.0005050095    1.712    0.416
       360  -8.3314    185.5608    116.0175   6.3582385359e+01   2.1405564926e+01    0.2304779    0.1405428 -40.18 0.0004097987    1.543    0.352
       361 -10.3135    109.2241    113.2880   8.1608034349e+01   3.7968036578e+01    0.8319008    0.4033478 -53.50  0.002513749    2.192    0.544
       362  -9.0470    249.7735    114.4192   5.2338695999e+01   9.0292172289e+00    0.3620134    0.2001001 -59.03  0.001606663    2.534    0.605
       363  -7.9839    193.0495    115.3272   6.1932707984e+01   1.9947788354e+01    0.1995569    0.1876352 -51.57 0.0004952064    1.093    0.085
       364  -9.9460     78.8445    112.3757   9.0591197920e+01   4.3391087011e+01    0.6177711    0.4081917 -84.69  0.002521989    2.498    0.600
       365  -8.7634     77.3734    105.9263   8.9468077807e+01   4.5144730709e+01    0.4397446    0.2729217  -6.10  0.001738279    2.617    0.618
       366  -7.6813    167.4450    114.5420   6.7043738878e+01   2.5602696473e+01    0.1529673    0.1462239 -36.02 0.0002858662    1.030    0.029
       367 -10.0416     92.7697    112.6007   8.6321504287e+01   4.1084797028e+01    0.4991943    0.3519847 -72.90  0.001500299    1.879    0.468
       368  -8.9181     93.2645    105.1461   8.4238580776e+01   4.2728663835e+01    0.5142358    0.2938449  11.93    0.0018125    3.100    0.677
       369 -10.1768    121.9322    112.3587   7.7777702589e+01   3.5705160275e+01    0.5658958    0.3047205 -46.92  0.001180691    1.816    0.449
       370  -9.7508    119.2953    106.0361   7.6810259469e+01   3.7630169879e+01    0.3100821    0.2565176 -46.82 0.0007121206    1.198    0.165
       371 -10.8296     14.5337    110.5402   1.1109944429e+02   5.0852283021e+01    0.6859332    0.2937648 -65.48  0.002896479    1.846    0.458
       372  -8.4181    174.8663    112.0623   6.4799779538e+01   2.4483369572e+01    0.2354392    0.2007082 -63.67 0.0005352842    1.312    0.238
       373  -8.6663    159.1409    111.6692   6.8177609174e+01   2.7992626260e+01    0.2672497    0.2024498 -50.47 0.0005868588    1.357    0.263
       374 -10.1767     66.3985    109.8876   9.3991155676e+01   4.5789263339e+01    0.6338856    0.3487347 -53.49  0.002829959    1.636    0.389
       375  -7.8647    149.7851    110.0699   6.9964396826e+01   3.0356889121e+01    0.2108772    0.1231504 -42.91 0.0006377389    1.666    0.400
       376 -11.2914    248.6065    105.6435   5.0615015229e+01   1.0663838697e+01    0.8351804    0.2772374 -36.39  0.003244449    2.603    0.616
       377  -8.4964      4.1000    109.3237   1.1423437456e+02   5.1776550973e+01    0.2176946    0.1145379  -2.14  0.001098105    2.600    0.615
       378  -8.1494    189.2231    108.1623   6.0899551506e+01   2.2116917379e+01    0.2046012    0.1682814 -59.51 0.0004610777    1.318    0.241
       379  -9.5388    139.8995    104.3717   7.0871739047e+01   3.3680840224e+01    0.4805732    0.3144496 -56.08  0.001518898    1.772    0.436
       380 -10.6090     45.5688    102.4218   9.9250682193e+01   5.0130610226e+01    0.7910541    0.4787842  72.70  0.003210381    3.109    0.678
       381  -9.4529     46.4687     92.6981   9.6690599545e+01   5.2328821578e+01    0.5257952    0.2761332   7.72  0.002204524    2.742    0.635
       382 -10.6544     22.7855    102.5996   1.0705982362e+02   5.2179186665e+01    0.7330859    0.4106598  79.68  0.002734917    2.948    0.661
       383  -8.6454    166.6438    104.2742   6.4548703411e+01   2.7820497881e+01    0.3041467    0.2357034 -70.21 0.0007444822    1.630    0.387
       384  -9.5834    150.6764    103.1917   6.7904057417e+01   3.1572243882e+01     0.489787    0.3165272 -64.51  0.001396444    2.219    0.549
       385  -9.2878      6.4391    102.9216   1.1256875572e+02   5.3176876711e+01    0.2781784    0.1849376  79.11  0.001317927    1.791    0.442
       386  -9.7379    128.5693    102.3232   7.3252698339e+01   3.6523357592e+01    0.3476347     0.294629  89.05 0.0008252942    1.517    0.341
       387 -10.7927    108.8632     98.9455   7.7829927416e+01   4.1239806219e+01     0.871589    0.5291667  67.63  0.001703831    3.230    0.690
       388  -8.0544    175.5301    102.0311   6.2072207761e+01   2.6279115042e+01    0.2327097    0.1438573 -39.57 0.0004528098    1.547    0.353
       389  -9.3723     82.1990    100.0269   8.6373811335e+01   4.5756021990e+01    0.4207861    0.2633147 -66.31 0.0008132108    2.103    0.525
       390  -8.2897    159.8438    101.1095   6.5214349647e+01   2.9954256234e+01    0.2338896    0.2037578 -63.85 0.0005194704    1.267    0.211
       391 -10.2616     63.7835     95.8081   9.1405385489e+01   4.9468984566e+01    0.7342071    0.4191812 -69.89   0.00179458    2.516    0.603
       392  -8.7860     64.7674     87.8051   8.8919380162e+01   5.1151780339e+01    0.3787269     0.226217  -7.74  0.001541663    2.596    0.615
       393  -9.4143     94.9052     96.9426   8.1487834763e+01   4.4286700640e+01     0.353441    0.2674783 -65.22 0.0007787614    1.613    0.380
       394  -8.5252    151.2697     95.4636   6.5641528794e+01   3.2977246421e+01    0.3969366    0.2491636 -13.75  0.001511808    2.462    0.594
       395 -10.6304    123.6146     91.7798   7.1592366476e+01   3.9756049476e+01    0.6289128    0.5264238  -0.90  0.001685872    1.322    0.244
       396  -8.1433    164.8702     94.1589   6.2225565588e+01   3.0162969147e+01    0.2293009    0.2004438 -66.45  0.000434429    1.261    0.207
       397  -9.2117    139.0255     92.2602   6.7703802954e+01   3.6329944374e+01    0.3837749    0.2804711 -67.92 0.0006666583    1.845    0.458
       398  -7.8383    188.5008     93.5125   5.7321761070e+01   2.4964462411e+01    0.1486007    0.1372701 -56.67 7.948328e-05    1.078    0.072
       399  -8.2749    176.2923     93.0695   5.9560878805e+01   2.7781942564e+01    0.2161492    0.1850328 -46.31 0.0005761436    1.139    0.122
       400  -9.3661     22.4734     90.4575   1.0483201590e+02   5.5081764785e+01    0.4105889    0.2103385 -38.62  0.001275825    1.836    0.455
       401  -9.6250      5.0808     92.0498   1.1131608940e+02   5.5816463868e+01    0.3063897    0.1920695  66.92  0.001134036    2.204    0.546
       402  -7.9569    157.6233     91.8170   6.3174253323e+01   3.2247113308e+01    0.2189997    0.1365758 -48.74 0.0005109846    1.675    0.403
       403  -9.7207     34.8105     89.7252   1.0019236465e+02   5.4210824011e+01    0.4841291    0.2810185 -81.72  0.001726164    2.652    0.623
       404  -9.1483    107.6117     92.7067   7.6412282831e+01   4.2821161371e+01    0.6976095    0.2941534  29.06   0.00211614    3.770    0.735
       405  -8.3329    150.9609     89.3047   6.3987727971e+01   3.4232400923e+01    0.2088303    0.2015237  54.25 0.0004852032    1.072    0.067
       406 -10.2461     86.5304     85.8591   8.0957205522e+01   4.8166281523e+01    0.6813056    0.4085891 -51.95  0.002175173    1.748    0.428
       407  -9.0319     43.1367    109.5181   1.0156737825e+02   4.8674244092e+01     0.311596     0.143882  19.22  0.001303888    2.697    0.629
       408  -7.3521    188.2914     87.3029   5.5760270598e+01   2.6107645201e+01    0.1425951    0.1149545   8.73 0.0002561093    1.570    0.363
       409  -7.5351    163.7243     87.3080   6.0595409060e+01   3.1696184814e+01    0.1487834    0.1169668 -70.35  0.000221666    1.551    0.355
       410 -10.0198     48.5544     83.8894   9.3695943067e+01   5.4106970212e+01    0.6408885    0.4136806 -73.78   0.00236264    2.175    0.540
       411  -9.6207    104.7545     83.1305   7.4407004770e+01   4.5360548111e+01    0.4302063    0.3042182 -63.83 0.0009545706    1.932    0.483
       412  -8.4996    157.9870     84.0594   6.0925623954e+01   3.3603646598e+01    0.2264761    0.2198175 -46.25 0.0003891104    1.033    0.032
       413  -9.2250    140.9483     82.5090   6.4402208118e+01   3.7772280284e+01    0.4043995    0.2202625 -43.04 0.0009701858    1.843    0.457
       414  -7.9755    192.4811     90.5085   5.5827412456e+01   2.4612068505e+01    0.1448275    0.1376787 -31.97 0.0001651653    1.048    0.046
       415  -9.2308    249.9825     81.3337   4.5214793780e+01   1.4231232510e+01    0.2722771    0.1074593 -48.47  0.001152609    2.370    0.578
       416  -8.6444     63.9353     82.2056   8.7628165940e+01   5.2503454225e+01    0.2081575    0.1893457 -70.91 0.0007514897    1.335    0.251
       417  -9.8175     24.5852     80.5367   1.0188525295e+02   5.7203847304e+01    0.4190897    0.2734721  88.37  0.001486116    2.396    0.583
       418  -9.6944      9.6652     80.8360   1.0761769999e+02   5.8155796396e+01    0.3378291     0.211809  66.20  0.001330548    2.478    0.596
       419  -8.4004    150.2598     80.6149   6.1663431231e+01   3.6001450145e+01    0.2792544    0.1755271 -49.50 0.0007007489    1.716    0.417
       420  -8.8584    119.2732     80.2895   6.9349536415e+01   4.2948581863e+01    0.2729664    0.2353259 -74.25 0.0006550482    1.455    0.313
       421  -8.6187     74.6415     80.6351   8.3392015360e+01   5.1241069553e+01     0.276889    0.2114175 -60.45 0.0008694347    1.549    0.355
       422  -8.3517    166.8699     79.6840   5.7830763745e+01   3.2333188962e+01    0.2498562    0.1934438 -27.21 0.0004618992    1.349    0.259
       423  -7.9214    184.0000     78.0882   5.4125984706e+01   2.8657045837e+01    0.2343135   0.08006027 -36.14  0.000630099    2.834    0.647
       424  -9.2685    128.2159     75.0701   6.5352647211e+01   4.1986282192e+01    0.5126012    0.2499585 -44.07  0.001226765    2.124    0.529
       425  -8.4134    104.8385     77.3840   7.2599326766e+01   4.6481885216e+01    0.2147075    0.1349508  30.52 0.0009417962    1.727    0.421
       426  -7.7844    156.7208     76.3314   5.9001966785e+01   3.5269673740e+01    0.1500373    0.1152911 -68.87 0.0005170419    1.604    0.377
       427  -8.6427    140.6069     75.6192   6.2440619450e+01   3.9104839813e+01    0.2951329    0.2214424 -55.19 0.0008201948    1.512    0.339
       428  -9.9094     63.1478     73.6477   8.5353832133e+01   5.4437164192e+01    0.4473724    0.2717472 -58.80  0.001010477    2.002    0.500
       429  -9.7055     82.5495     72.9207   7.8275782981e+01   5.1515418479e+01    0.4200608    0.2992993 -65.95  0.001188952    2.075    0.518
       430  -8.2665    163.5187     73.2683   5.6712595814e+01   3.4211500085e+01     0.265467    0.1365148 -41.58  0.001038573    1.920    0.479
       431  -7.6345    151.4724     73.4280   5.9300851866e+01   3.6989352310e+01    0.1450973     0.143713  40.07 0.0001298352    1.014    0.014
       432  -8.7953    115.7261     72.9578   6.8048311416e+01   4.5078878649e+01    0.2610195    0.2014696 -52.92 0.0005046048    1.477    0.323
       433  -8.4684     42.5052     72.9969   9.2990160443e+01   5.7185573371e+01    0.2012931    0.1194819 -52.58 0.0004241395    1.536    0.349
       434  -9.4059     28.9382     70.6568   9.7717260713e+01   5.9033747636e+01    0.6163195    0.2645435 -19.74  0.002151422    4.231    0.764
       435  -7.6754    175.4945     72.5551   5.4193329484e+01   3.1538993370e+01    0.1411682    0.1407605 -40.24 0.0001276529    1.039    0.037
       436  -9.1898    106.0044     71.7918   7.0470448096e+01   4.7311763983e+01    0.2842107    0.2329191 -59.60  0.000807349    1.491    0.329
       437  -9.1729     95.2277     71.2549   7.3591839617e+01   4.9533616070e+01    0.3410668    0.2409946 -56.37 0.0009329753    1.769    0.435
       438  -9.3774     51.2938     69.5775   8.8563616931e+01   5.6876168878e+01    0.4246185     0.269622 -68.50  0.001446395    2.418    0.586
       439  -9.5813     16.6691     69.0600   1.0227151578e+02   6.0345746893e+01    0.5824065    0.1838014 -62.04  0.002299031    2.895    0.655
       440  -8.9509    146.9722     68.0477   5.8704265840e+01   3.8945831516e+01    0.3813349    0.1921916 -42.61  0.000984145    2.028    0.507
       441  -8.9641    138.4965     66.0548   6.0035918000e+01   4.1237153478e+01    0.2922242    0.2287633 -64.52 0.0007868106    1.570    0.363
       442  -8.8402    121.5926     66.0866   6.4259446704e+01   4.5035992020e+01    0.3125474    0.2369296 -63.58 0.0008125714    1.739    0.425
       443  -8.6798     84.0696     65.2073   7.5220083980e+01   5.2733288517e+01     0.368614    0.2040523  10.06  0.001273896    3.539    0.717
       444  -9.6575     97.2594     61.5645   6.9724273387e+01   5.0910236031e+01    0.5539659     0.372953 -13.70  0.002177099    1.765    0.433
       445  -9.2635     37.2703     64.3528   9.2546015123e+01   5.9572450173e+01    0.2938875     0.222195 -74.98  0.001070441    1.894    0.472
       446  -8.8488    110.2201     63.8398   6.6645547570e+01   4.7869757504e+01       0.2554    0.2255639 -52.23 0.0007173894    1.294    0.227
       447  -8.6262     64.8937     63.2563   8.1355105611e+01   5.6266732461e+01    0.4913491    0.2646098   1.79  0.001708143    3.824    0.738
       448  -8.2294    158.2062     61.9904   5.4543115915e+01   3.7292681771e+01    0.1931819    0.1842958 -41.23  0.001098558    1.061    0.057
       449  -9.5886     73.2727     59.4905   7.7003647601e+01   5.5650129194e+01    0.4069748    0.2354446 -50.84  0.001136137    2.050    0.512
       450  -7.8977    146.8384     58.8501   5.5959467049e+01   4.0457537437e+01     0.196317    0.1645525 -58.72 0.0004612182    1.319    0.242
       451  -7.7748     88.8217     59.5997   7.1725511098e+01   5.2879611541e+01    0.1833918    0.1335478  50.01 0.0004387313    1.562    0.360
       452  -9.9125     23.3812     56.4121   9.6012442878e+01   6.2509826750e+01    0.4331827    0.3028807  87.46   0.00210507    2.848    0.649
       453  -9.6266      7.5651     57.2858   1.0315117035e+02   6.3441610791e+01     0.318138    0.2235266 -83.33   0.00132062    1.969    0.492
       454  -8.2235    130.8106     58.0522   5.9351582663e+01   4.4296229913e+01    0.2177754    0.1943811 -65.10 0.0006410638    1.290    0.225
       455  -8.0451    140.1319     56.1739   5.6599840718e+01   4.2437677512e+01    0.1955521    0.1666532 -61.59 0.0004154715    1.330    0.248
       456  -9.1075    118.9580     55.2917   6.1419271807e+01   4.7395113847e+01    0.4334031    0.2191164 -42.18  0.001363495    2.115    0.527
       457  -9.2718     62.8664     54.8465   7.9205259835e+01   5.8150921309e+01    0.3185106    0.1851256 -48.63 0.0006777667    1.895    0.472
       458  -8.9678     44.0738     55.0567   8.6759460127e+01   6.0670705586e+01    0.4031513    0.1631652 -50.71  0.001399303    2.473    0.596
       459  -9.0622     54.1424     53.8442   8.2244720703e+01   5.9599610867e+01    0.4100603    0.2276626 -58.93  0.001741278    2.879    0.653
       460  -8.3721    105.6348     53.1574   6.4332309699e+01   5.0606061723e+01     0.227535    0.1948987  60.93 0.0006958649    1.351    0.260
       461  -9.4475     92.3871     50.7262   6.7442923289e+01   5.3686545253e+01    0.3655643    0.2334274 -46.65  0.001035731    1.838    0.456
       462  -8.3742     74.6724     51.7041   7.3723000557e+01   5.6792112780e+01    0.2270275      0.15111   1.32  0.001096055    1.807    0.447
       463  -8.4879    129.9305     49.4809   5.6792086578e+01   4.5798839196e+01    0.2131379    0.1889682 -27.18 0.0004577448    1.168    0.144
       464  -8.0866    144.8213     49.1435   5.3409549904e+01   4.2376243219e+01     0.192594    0.1632701  15.64 0.0004953459    1.310    0.237
       465  -8.7992    121.0342     47.5780   5.8304794391e+01   4.8098086833e+01    0.2470817    0.2005783 -16.76 0.0004847076    1.293    0.226
       466  -8.3825    112.1784     46.9449   6.0366541507e+01   5.0152385981e+01    0.2049336    0.1871101 -54.65 0.0005851484    1.287    0.223
       467  -8.9733     82.0829     46.4347   6.9211925510e+01   5.6334325842e+01    0.2790069    0.2031425 -47.37 0.0006262378    1.662    0.398
       468  -8.3332     45.0838     44.6395   8.2612440671e+01   6.2467855659e+01     0.212097    0.1591774 -40.62 0.0006306884    1.342    0.255
       469  -9.3310     16.4181     44.5698   9.5454423839e+01   6.5416889700e+01    0.2431928    0.1964892 -70.03  0.000986532    1.697    0.411
       470  -8.8097    132.7468     43.5747   5.4228738290e+01   4.5981386093e+01    0.2616856    0.2190933 -57.63 0.0007466063    1.374    0.272
       471  -8.6797     95.5470     38.1729   6.1864982111e+01   5.4923994160e+01    0.2316952     0.212517 -72.47 0.0007699391    1.448    0.309
       472  -9.2883     69.6712     41.4493   7.1653097516e+01   5.9322229247e+01     0.370972    0.2655286 -56.07   0.00133891    2.119    0.528
       473  -8.9202     58.1849     42.6551   7.6485340766e+01   6.0976025911e+01    0.2466737    0.1987027 -56.11  0.001108146    1.766    0.434
       474  -9.8527      5.1194     42.1085   1.0003368784e+02   6.6657388819e+01    0.3234126    0.1955239 -65.46  0.001548441    1.903    0.474
       475  -8.4214    105.9486     41.4593   6.0113034576e+01   5.2284998943e+01    0.2510952    0.1857003 -46.57 0.0006736278    1.598    0.374
       476  -8.6015     93.0551     42.6055   6.4265231895e+01   5.4799149669e+01    0.3436683    0.2010497  -4.03  0.001343335    2.546    0.607
       477  -8.4963     36.7432     40.8500   8.4808978682e+01   6.4150586198e+01    0.2097878    0.1642002 -50.99 0.0006573927    1.571    0.363
       478  -8.1929     80.9210     36.9548   6.5976269396e+01   5.7975055822e+01    0.1927904    0.1697882 -73.50 0.0006080712    1.707    0.414
       479  -8.2522    125.9459     35.6783   5.3132242793e+01   4.8591179838e+01    0.1926094    0.1645709  51.01  0.000374572    1.093    0.085
       480  -8.5892    125.7390     31.8708   5.1895048324e+01   4.9107607025e+01    0.2256039    0.2054191  17.64   0.00066613    1.108    0.098
       481  -8.3092    111.8713     34.7538   5.6156954928e+01   5.1889062592e+01    0.2405636     0.167283 -56.24 0.0006348702    1.964    0.491
       482  -7.9589     88.6183     34.2836   6.2474829574e+01   5.6853289158e+01     0.182844    0.1226571 -16.54 0.0008623313    1.565    0.361
       483  -8.9010     48.4911     33.3535   7.6718809202e+01   6.3885428919e+01    0.2431291    0.2082724 -37.92  0.000713553    1.426    0.299
       484  -8.5929    119.1573     32.9202   5.3743628660e+01   5.0485587293e+01    0.2422198    0.1509205 -36.76 0.0006102039    1.730    0.422
       485  -8.5351     60.7526     32.8754   7.1563081960e+01   6.2099128897e+01    0.2080157     0.169698 -41.24 0.0005145574    1.508    0.337
       486  -8.8157     71.9863     30.6948   6.6520685565e+01   6.0489297907e+01    0.3655613    0.1612055 -41.74  0.001245352    2.703    0.630
       487  -9.3548     26.1496     35.5644   8.7663843740e+01   6.6217846774e+01    0.2427565    0.2089833 -44.19 0.0008422275    1.419    0.295
       488  -8.8210     12.9514     30.2668   9.2128063192e+01   6.8325862958e+01     0.259911    0.1572804 -57.33  0.001130141    2.014    0.503
       489  -8.4194    101.4136     29.2623   5.6872890730e+01   5.4847497021e+01    0.1775847     0.123127 -37.63 0.0009408321    1.612    0.380
       490  -8.9051     81.3856     27.5884   6.2100117873e+01   5.9142017046e+01    0.2495915    0.2092931 -66.24  0.000832019    1.832    0.454
       491  -9.0429      3.4022     27.0754   9.5893054160e+01   6.9568112257e+01     0.311319    0.1494932 -60.89  0.001446163    2.650    0.623
       492  -8.7448     91.8625     26.3455   5.8418049763e+01   5.7202475989e+01    0.2739156    0.1737111 -43.16  0.001159759    1.944    0.486
       493  -7.7051    145.7112     26.3179   4.6166004764e+01   4.5062032235e+01    0.1336533   0.09951406 -68.15 0.0002575828    1.595    0.373
       494  -7.8273    104.5028     23.0068   5.3731656611e+01   5.4902408899e+01    0.1682558    0.1064171 -52.28 0.0004004933    2.238    0.553
       495  -8.7241     63.6742     21.0746   6.5435854432e+01   6.3203762669e+01    0.2695916     0.192434 -48.95  0.001056771    2.094    0.523
       496  -8.6749     48.4638     21.7637   7.1735443396e+01   6.5575079054e+01    0.1968089     0.186366  -7.53 0.0007569538    1.424    0.298
       497  -7.7764     34.3138     22.7005   7.8454363745e+01   6.7383449802e+01    0.1008488    0.0987919   4.51 0.0002785713    1.608    0.378
       498  -7.8005    120.7350     21.3682   4.9383566220e+01   5.1441586448e+01    0.1295504   0.09948773 -61.54 0.0006987597    1.655    0.396
       499  -8.0461     19.5139     21.5219   8.5214799664e+01   6.9209289536e+01    0.1187685   0.09254624 -14.99 5.576097e-05    1.058    0.054
       500  -7.5693    243.0502     20.0467   3.3046192195e+01   2.3838088612e+01     0.137793     0.111836 -72.31 0.0003301103    1.045    0.043
       501  -8.9557     74.0235     19.5345   6.1157484982e+01   6.1514896254e+01     0.217636    0.1699858 -37.89 0.0007258082    1.563    0.360
       502  -8.1614     11.9838     20.4954   8.8722745490e+01   7.0058794740e+01    0.1369971   0.09224938  41.82  0.000808629    2.408    0.585
       503  -8.0996     87.8521     17.7633   5.6160371674e+01   5.8991248819e+01    0.1584045    0.1538229  81.47 0.0005311013    1.328    0.247
       504  -8.3085     38.5992     17.8921   7.4285168430e+01   6.7507008432e+01    0.2265986    0.1024635 -31.08  0.001138798    2.070    0.517
       505  -7.2919    119.3210     17.2930   4.8265140898e+01   5.2181181807e+01     0.138611   0.08779059  34.17 0.0002971232    1.610    0.379
       506  -7.6677    112.7235     16.6719   4.9464884129e+01   5.3739435108e+01    0.1353745   0.08890112  28.67 0.0002251649    1.592    0.372
       507  -8.1415     29.9717     15.9846   7.7454988056e+01   6.8882557609e+01    0.1539282      0.14544 -27.23 0.0006015937    1.627    0.385
       508  -7.8739      7.5497     16.0147   8.9212546346e+01   7.1141017893e+01    0.1301824    0.1000142 -66.29 0.0005512845    2.389    0.581
       509  -7.9793     96.9893     14.9800   5.2581202595e+01   5.7362821277e+01    0.1844538    0.1551609 -64.94 0.0005143586    1.619    0.382
       510  -8.8854    232.7040    247.5679   8.1127468425e+01  -9.1021446582e+00    0.2125109    0.1784565 -47.11 0.0008606606    1.998    0.499
       511  -8.5827    218.5791    247.8795   8.3741329283e+01  -7.3378326733e+00    0.2711864     0.140089 -44.99  0.001426936    2.597    0.615
       512  -9.0394    175.6262    247.9789   9.1969656126e+01  -1.4090404659e+00    0.2713678    0.2164077  68.27  0.001625253    2.052    0.513
       513  -8.6725    132.3017    248.2116   1.0068431455e+02   4.8946849198e+00    0.2330754     0.171822  75.19 0.0006205821    1.907    0.476
       514  -8.2397    113.2583    248.6035   1.0457589866e+02   7.5790262719e+00    0.2014009    0.1460738 -80.57 0.0009140449    1.768    0.434
       515  -9.2504    103.8575    246.8924   1.0627647744e+02   9.2136807511e+00    0.4157741    0.2309568 -81.80  0.002001477    2.874    0.652
       516  -9.2831    243.1966    246.2888   7.9065617766e+01  -1.0225596971e+01    0.3975949    0.1645458 -26.82   0.00203292    2.379    0.580
       517  -8.6175    155.9476    248.1293   9.5906787346e+01   1.4368976257e+00     0.182455    0.1527516  46.63 0.0006187169    1.290    0.225
       518 -10.0943    223.9282    244.2733   8.2178337945e+01  -7.5536575525e+00    0.4347619    0.2357937 -45.27  0.002334597    2.530    0.605
       519  -8.1052    169.0124    247.4872   9.3206994811e+01  -3.7427857021e-01    0.1958712    0.1047092  32.94  0.001031112    1.587    0.370
