#   1 NUMBER                 Running object number                                     
#   2 MAG_AUTO               Kron-like elliptical aperture magnitude                    [mag]
#   3 X_IMAGE                Object position along x                                    [pixel]
#   4 Y_IMAGE                Object position along y                                    [pixel]
#   5 X_WORLD                Barycenter position along world x axis                     [deg]
#   6 Y_WORLD                Barycenter position along world y axis                     [deg]
#   7 A_WORLD                Profile RMS along major axis (world units)                 [deg]
#   8 B_WORLD                Profile RMS along minor axis (world units)                 [deg]
#   9 THETA_WORLD            Position angle (CCW/world-x)                               [deg]
#  10 FWHM_WORLD             FWHM assuming a gaussian core                              [deg]
#  11 ELONGATION             A_IMAGE/B_IMAGE                                           
#  12 ELLIPTICITY            1 - B_IMAGE/A_IMAGE                                       
         1 -14.5302     68.5758    144.1660   1.0879128314e+02   3.7240633681e+01     5.374798     2.723525  71.76   0.01800038    3.435    0.709
         2 -14.4731    211.4512     22.9058   4.3758104430e+01   2.9438427950e+01     1.439727     1.081224   9.77  0.007551009    1.896    0.473
         3 -14.4685    199.4125     35.7425   4.8681546044e+01   3.0833849458e+01      2.21566     1.496648  29.67  0.007873387    2.028    0.507
         4 -14.1235      3.2501      9.3862   9.8308153155e+01   7.2888707898e+01     1.938903     1.017131 -37.80   0.01241352    1.399    0.285
         5 -10.5789     60.1091      7.6876   6.9853304201e+01   6.6391280873e+01    0.1771331    0.1381061  20.84  0.001135291    1.121    0.108
         6 -11.8967     59.1561      2.7086   6.7683208997e+01   6.7095602116e+01    0.4967843    0.1386879  45.17  0.002012618    3.194    0.687
         7 -11.3502    235.9406      1.7751   3.6381471124e+01   2.5985775639e+01    0.5794827    0.1698154  76.02  0.001929927    3.328    0.700
         8  -9.7061    113.5277    199.3414   1.0648832423e+02   1.7847982921e+01    0.3460374    0.1969444  81.82  0.001316092    3.043    0.671
         9 -11.0435    139.8691    248.7551   1.0759823452e+02   4.8265940945e+00      0.37291    0.2151388 -65.06  0.002097065    2.447    0.591
        10 -10.3530    134.7607    249.2792   1.0859625141e+02   5.5408082173e+00    0.3041106    0.1704546 -74.78  0.001543536    3.059    0.673
        11 -12.8924     70.7055    175.8478   1.1282568063e+02   2.9510431792e+01     1.024955    0.5254599 -34.99   0.00349071    5.077    0.803
        12 -14.3343     87.3776    228.0678   1.1520154657e+02   1.6318222536e+01     1.989845     1.020401  48.02  0.004276538    1.599    0.375
        13 -13.6498     14.5633    192.3069   1.2630548432e+02   3.2352614388e+01     1.097274    0.2865775 -59.29   0.00213778    4.084    0.755
        14 -14.7532     44.1492    223.1506   1.2286207254e+02   2.2952075988e+01     2.353401     1.426022  16.71  0.007399994    3.605    0.723
        15 -15.7947     67.9816    248.2329   1.2047398292e+02   1.5379780144e+01     9.477062     2.936317  30.91  0.005126191   11.441    0.913
        16 -14.4789     53.5003    195.1400   1.1871900652e+02   2.7511522553e+01     1.487436    0.8919896  53.25  0.008265686    1.479    0.324
        17 -16.8688     11.7883    242.1015   1.2945140965e+02   2.2984081559e+01     3.118645     1.809633  35.53    0.0218146    2.008    0.502
        18  -9.7279    147.5175    185.4868   9.6911715250e+01   1.4626018103e+01    0.2181301    0.1251539  50.61 0.0009816641    1.731    0.422
        19  -9.0805     95.4181    188.2226   1.0889150035e+02   2.3104272402e+01    0.1715274    0.1207975 -82.34 0.0004740985    1.490    0.329
        20 -10.3525     99.5570    180.8136   1.0690549509e+02   2.4055932087e+01    0.2288684    0.2115135   4.18 0.0005617685    1.403    0.287
        21 -10.0016     41.0081    178.2752   1.1974481989e+02   3.2678591089e+01    0.2271773    0.1501841 -89.78 0.0003404372    1.305    0.233
        22 -12.5022     88.5982    156.4270   1.0569173116e+02   3.1369718181e+01    0.7750766    0.4870629 -41.74  0.003633524    1.944    0.485
        23 -13.1479     82.1236    163.2762   1.0837659092e+02   3.0758499715e+01     1.817348    0.5076636  50.33 0.0005516806    4.651    0.785
        24 -13.6230     69.7904    159.1588   1.1077748563e+02   3.3497870717e+01    0.6203761    0.4260708 -47.87  0.001602945    1.644    0.392
        25 -10.1153    173.3993    244.8512   1.0091798599e+02   1.0191442879e-01    0.2374234    0.1742669 -81.71   0.00136552    2.473    0.596
        26  -9.3162     81.9975    194.9609   1.1268508496e+02   2.3696541610e+01    0.2124361    0.1334983  68.32 0.0009703439    1.613    0.380
        27  -9.8698     37.3340    167.7622   1.1951609535e+02   3.5456513982e+01    0.2696772    0.1364314  52.58 0.0008979628    1.916    0.478
        28 -10.4769     32.6763    165.1267   1.2030809444e+02   3.6546699512e+01    0.2610688    0.1672793  39.41   0.00100281    1.679    0.404
        29  -8.9800    205.5102    167.4683   8.1208539573e+01   6.7938059525e+00     0.143908    0.1290983   5.46 -0.0001373658    1.032    0.031
        30  -9.4287    161.9922    166.7151   9.0164465553e+01   1.5590240215e+01    0.2054001    0.1848413  41.74 0.0004277333    1.067    0.063
        31  -9.1845     42.4607    167.4856   1.1831966637e+02   3.4958917327e+01    0.1274506    0.1033176  87.87 8.683475e-05    1.003    0.003
        32 -14.7841     44.9376    205.2891   1.2134294421e+02   2.6419381166e+01     1.631194    0.8781086  51.59  0.009274936    1.593    0.372
        33  -9.2953    192.6806    164.9894   8.3256033836e+01   9.7638994426e+00     0.204291    0.1831811 -22.11 0.0006800216    1.106    0.096
        34  -9.3107     48.7553    160.9901   1.1611190482e+02   3.5743571226e+01    0.1841181     0.146968 -83.72 0.0006918364    1.060    0.056
        35 -11.2518     32.6463    156.5059   1.1942848097e+02   3.8538417074e+01     0.297446     0.263835  75.06  0.001184181    1.168    0.144
        36  -9.5418     48.9292    154.4334   1.1525975137e+02   3.7263635838e+01    0.1825757   0.08649245  57.17 0.0008044018    2.371    0.578
        37 -10.1052    134.3745    148.1987   9.2733459095e+01   2.5075912912e+01    0.3635285    0.2257964 -61.62  0.001314104    1.838    0.456
        38 -11.0336    133.3524    141.4959   9.1531058465e+01   2.6785847324e+01    0.7344583    0.2526591 -55.21  0.002195316    3.563    0.719
        39 -10.5777    174.6710    148.9801   8.3565187567e+01   1.6559261235e+01    0.2902324    0.2624941  42.32 0.0009815616    1.101    0.092
        40 -10.1758     39.0413    146.4318   1.1670828729e+02   4.0251664306e+01    0.3219377    0.1780533  54.73  0.001374737    1.902    0.474
        41 -10.6638     84.6820    144.1086   1.0456315117e+02   3.4909060378e+01    0.3557004    0.2328236  64.85  0.001507157    1.770    0.435
        42 -12.3440     89.8689    141.2029   1.0266385834e+02   3.4788224164e+01    0.2834918    0.2532305 -57.46 0.0003989723    1.120    0.107
        43 -10.8702    102.5623    141.0838   9.9303163022e+01   3.2688841625e+01    0.5855055    0.3623663 -27.11  0.002307769    2.685    0.628
        44 -10.1796    111.6623    130.9982   9.4764448292e+01   3.3428570573e+01    0.3213108    0.2511379  -1.51  0.001059824    1.806    0.446
        45 -10.1537    106.0660    130.6754   9.6188765099e+01   3.4533883179e+01    0.3205655    0.2774547 -67.19  0.001125055    1.124    0.110
        46 -10.7737    135.0000    120.0162   8.6034046920e+01   3.1286147503e+01    0.5315628   0.08797731 -46.17  0.001156161    5.933    0.831
        47 -11.0387     44.2973    129.6328   1.1301522560e+02   4.3725264327e+01    0.3071722    0.2239787  39.42  0.001486426    1.539    0.350
        48 -10.8180    117.8213    126.9580   9.2206021662e+01   3.3199365951e+01     0.580195    0.3171461 -63.72  0.002202581    2.288    0.563
        49 -11.3383    121.4067    120.3137   8.9658840083e+01   3.4027904262e+01    0.6334348    0.3142796 -28.67  0.001875094    3.996    0.750
        50 -10.2892    138.2772    171.6232   9.6470995041e+01   1.9206902255e+01     0.423059    0.2534966 -87.66  0.001440448    3.781    0.736
        51 -11.3384     73.8563    188.4190   1.1366686626e+02   2.6273529530e+01    0.3755428    0.2114329  69.53  0.001428964    1.971    0.493
        52  -9.9247    160.6463    127.3298   8.1609816058e+01   2.4091358616e+01    0.1634579    0.1261298 -87.72 2.983643e-06    1.777    0.437
        53 -10.1324    150.3695    188.4260   9.6806850490e+01   1.3518409483e+01    0.2391662    0.1778659 -47.38 0.0008519578    1.463    0.316
        54  -9.7858    107.9102    119.7904   9.3193404063e+01   3.6763344063e+01    0.2066973    0.1986206 -17.99  0.000308261    1.124    0.110
        55  -9.7800    126.1330    127.9763   9.0266875031e+01   3.1318206865e+01    0.2641208    0.1814892 -79.03  0.001083956    2.068    0.516
        56 -11.0587     98.9101    127.2688   9.7385659023e+01   3.6614268071e+01      0.31001    0.2558235 -16.29  0.001432436    1.542    0.351
        57  -9.7531    168.1174    112.8854   7.6200158020e+01   2.5402310554e+01     0.376498    0.2380854 -64.07  0.001444463    2.235    0.553
        58  -9.8874    134.8328    112.1927   8.4058577893e+01   3.3062752598e+01    0.3445981    0.1741593 -42.15  0.001301654    1.967    0.492
        59 -11.4386    118.0656    108.3087   8.7501339640e+01   3.7442802504e+01    0.5023375    0.4517001 -16.84  0.002597056    1.214    0.176
        60 -10.0749    205.4571    110.1870   6.7825518142e+01   1.7264632882e+01     0.322112    0.2180889  41.37 0.0009438386    1.582    0.368
        61 -10.3568    134.5736    105.3091   8.2275542495e+01   3.4630004456e+01    0.4960315    0.1504653 -45.39  0.001456311    3.236    0.691
        62  -9.6819     34.0125    100.4842   1.1117093407e+02   5.1754549431e+01    0.2121417    0.1491517 -64.62 0.0007368505    1.173    0.147
        63  -9.8531     41.9365     91.9551   1.0689465007e+02   5.3005651815e+01    0.1979978    0.1695261 -55.75  0.000581194    1.025    0.024
        64 -10.2783     52.5280     90.9775   1.0314474379e+02   5.2078651840e+01    0.2161341    0.1175254 -57.23 0.0005766866    1.577    0.366
        65  -9.7744     75.0798     84.9175   9.4066470722e+01   5.0437034390e+01    0.2066539    0.1898017 -48.05 0.0003530804    1.050    0.048
        66  -8.8106     70.7474     82.2839   9.4767656631e+01   5.1673086113e+01     0.129192    0.1080489 -82.62  0.000171842    1.471    0.320
        67  -9.2567    158.0012     80.7552   6.9438613007e+01   3.4173291868e+01    0.2019442    0.1336775  52.65 0.0003642961    1.527    0.345
        68  -9.1198     56.5406     66.5186   9.5124557262e+01   5.7055185525e+01    0.1352916     0.117816 -39.51 0.0001276564    1.043    0.041
        69 -10.5388     13.3962     59.7596   1.0993991524e+02   6.2580679245e+01    0.2064332     0.184733 -66.22 0.0004359524    1.220    0.180
        70 -11.3130    170.8171    233.3883   9.9791398282e+01   2.1804664843e+00    0.2344159    0.2241506   5.98  0.000879122    1.195    0.163
        71 -12.2033    190.4045     42.2950   5.1818328734e+01   3.2235446538e+01    0.6215819    0.5133432  30.11 0.0009680628    1.425    0.298
        72 -16.5792      7.0318    204.1929   1.2841491612e+02   3.0611578957e+01     7.039668     1.363078 -74.48  0.007336151    3.934    0.746
        73  -8.9889     68.7736     52.5956   8.5929252426e+01   5.8121823527e+01    0.1754778    0.1286504  46.37 0.0008508473    1.650    0.394
        74 -10.9536    148.4358     44.5384   6.0032646188e+01   4.2641182525e+01    0.2816069     0.250921 -75.94 0.0007430269    1.241    0.194
        75 -11.5807      2.6071     29.7107   1.0637201218e+02   6.9298809193e+01    0.3229151     0.198001 -51.58  0.001768108    1.265    0.209
        76  -8.6515    130.2920    212.6633   1.0484212608e+02   1.2458081231e+01    0.1324026   0.09351064  70.62 0.0003891573    1.642    0.391
        77  -9.6391    189.8250     15.0732   4.4123697090e+01   3.5733462534e+01     0.214845    0.1714502 -67.06 0.0005461001    1.228    0.186
        78 -11.6669    146.9550     51.2485   6.2588254885e+01   4.2000724739e+01    0.5434632    0.3608004 -78.24  0.001887664    2.365    0.577
        79 -12.4492    195.2612    196.8766   8.9044364739e+01   3.7156517614e+00     1.214505    0.8212422 -71.75  0.005292793    3.149    0.682
        80 -10.0142    209.9009    199.8524   8.6763092900e+01   6.5792797108e-01    0.1627932    0.1541131  39.51 0.0002841438    1.290    0.225
