#   1 NUMBER                 Running object number                                     
#   2 MAG_AUTO               Kron-like elliptical aperture magnitude                    [mag]
#   3 X_IMAGE                Object position along x                                    [pixel]
#   4 Y_IMAGE                Object position along y                                    [pixel]
#   5 X_WORLD                Barycenter position along world x axis                     [deg]
#   6 Y_WORLD                Barycenter position along world y axis                     [deg]
#   7 A_WORLD                Profile RMS along major axis (world units)                 [deg]
#   8 B_WORLD                Profile RMS along minor axis (world units)                 [deg]
#   9 THETA_WORLD            Position angle (CCW/world-x)                               [deg]
#  10 FWHM_WORLD             FWHM assuming a gaussian core                              [deg]
#  11 ELONGATION             A_IMAGE/B_IMAGE                                           
#  12 ELLIPTICITY            1 - B_IMAGE/A_IMAGE                                       
         1 -14.2959    158.7223     52.7648   8.1584144888e+01   3.8884296727e+01     1.232361     1.057075  20.66  0.003894068    1.320    0.243
         2 -14.4471    170.9846     37.0969   7.4753563030e+01   3.8040853220e+01     1.106872    0.9734838   4.42   0.00399629    1.365    0.268
         3 -11.8600    189.9744     14.8050   6.5908858692e+01   3.5980984340e+01    0.2629125    0.2194697 -58.63 0.0009162608    1.230    0.187
         4 -14.0224    187.3340      5.3989   6.3844067722e+01   3.7592136197e+01    0.9752979    0.6525972  68.95  0.003939939    1.269    0.212
         5 -12.2555    168.2157    233.6795   1.2095758660e+02   1.4525043641e+00    0.3638256    0.2220182  54.60 0.0009883305    1.665    0.399
         6 -19.2661     69.4531    242.5412   1.4075043491e+02   1.6122394470e+01     6.760075     5.332883  73.09   0.04036044    1.065    0.061
         7 -11.3539    163.4630    203.9991   1.1707786118e+02   7.6633997550e+00    0.2935542    0.2487157 -60.29  0.000538723    1.314    0.239
         8 -11.5727    160.8668    198.1441   1.1659269603e+02   9.3056945000e+00    0.3090304    0.2656318 -86.78  0.001300517    1.330    0.248
         9 -12.3015    139.3939    201.1743   1.2170122097e+02   1.2819429836e+01    0.3576745    0.3076901  -9.10  0.001504307    1.563    0.360
        10 -11.9956    136.1470    196.7660   1.2166950696e+02   1.4340867760e+01    0.4111217    0.2610781  72.42  0.001816268    2.107    0.525
        11 -12.4431    207.6012    197.5078   1.0686029526e+02   3.5057150392e-01    0.4370906    0.2761725  11.58  0.001924028    2.293    0.564
        12 -12.0828    155.0489    196.9204   1.1761697373e+02   1.0683082579e+01    0.4054599    0.2726031  83.34  0.001765538    2.312    0.568
        13 -10.8030    176.4902    233.9935   1.1939273288e+02  -7.4692763218e-02    0.1752012    0.1316125 -44.33 0.0005707182    1.559    0.359
        14 -10.7608    180.0329    192.4685   1.1149738439e+02   6.6294477812e+00    0.2562493    0.2066561 -70.00 0.0006484144    1.536    0.349
        15 -10.9579      4.9994    199.4029   1.4882287712e+02   3.2369737651e+01    0.1455721    0.1098859  85.15 0.0003464042    1.079    0.073
        16 -12.3257    167.6277    190.6589   1.1377934367e+02   9.4534822136e+00    0.4189576     0.305508  24.12  0.001851287    1.602    0.376
        17 -11.8656    198.9750    222.3306   1.1309356361e+02  -2.2092296047e+00    0.3478592    0.2274313  26.16  0.001416518    1.549    0.354
        18 -10.9869      7.7639    218.8122   1.4960253301e+02   2.8179986280e+01    0.1759471    0.1098181 -62.76  0.001191432    1.820    0.450
        19 -10.9086    176.6120    187.7843   1.1131805220e+02   8.2198940340e+00    0.2493174    0.1864859 -54.66 0.0007904633    1.483    0.326
        20 -10.7812    184.1002    186.5118   1.0949266823e+02   6.9597835984e+00     0.229282     0.136808  43.74  0.001031636    1.587    0.370
        21 -12.2028    205.5076    180.4882   1.0389094031e+02   3.8009424149e+00    0.5351074    0.3295697  43.50  0.001931177    1.581    0.368
        22 -12.0579    208.6945    178.6573   1.0287863537e+02   3.5035986321e+00    0.4342028    0.3527253   9.75  0.002305669    1.340    0.254
        23 -10.5977      4.6558    215.8777   1.4994364291e+02   2.9062513553e+01   0.08079747   0.06678451  44.96 0.0002216368    1.596    0.373
        24 -18.9196     53.2840     89.1092   1.2165453685e+02   5.2259080001e+01     18.28335    0.8472663 -55.12    0.0259004   20.429    0.951
        25 -12.5056    196.1459    171.8544   1.0399912799e+02   7.3330174080e+00    0.7245898    0.4220507 -51.58  0.002096353    1.942    0.485
        26 -10.6416    194.4908    166.0048   1.0309723771e+02   8.8201456499e+00    0.2811046    0.2035767  70.87 0.0007853327    1.864    0.464
        27 -13.4121    138.0641    171.8040   1.1675159702e+02   1.9351534479e+01    0.7513551    0.4792837  68.29  0.002678994    2.035    0.509
        28 -11.1750    163.1678    210.1672   1.1819832539e+02   6.5497800306e+00    0.2412871    0.1954708 -57.68 0.0009122127    1.391    0.281
        29 -11.5759    142.2650    166.1925   1.1467404850e+02   1.9752989059e+01    0.3081558    0.2049444 -59.65  0.001392198    1.607    0.378
        30 -10.6043    122.9120    166.1648   1.1921249750e+02   2.3569955159e+01    0.2315008    0.1878127  73.78 0.0004706036    1.285    0.222
        31 -10.1825    200.9969    164.9797   1.0153938835e+02   7.6546623357e+00    0.2331342    0.1858137 -84.43 0.0007364917    1.730    0.422
        32 -10.4457     25.2900    165.4561   1.4188906733e+02   3.7818302386e+01    0.2124217    0.1483128  24.31  0.001099685    1.963    0.491
        33 -10.7039    223.7531    163.8739   9.6831679153e+01   3.2027233772e+00    0.2545288    0.1902936 -55.34 0.0006176184    1.563    0.360
        34 -11.2233    113.6747    160.2020   1.2028869117e+02   2.6672760749e+01    0.2624988    0.1943814  56.08  0.001135345    1.357    0.263
        35 -12.0881    102.9459    159.1562   1.2270393789e+02   2.8838427221e+01    0.3745494    0.2739041  69.51 0.0004959398    1.497    0.332
        36 -10.4484     16.7147    249.9374   1.4998782939e+02   2.1340051028e+01    0.1654714    0.1552701  -2.67  0.001336698    2.180    0.541
        37 -11.7926     24.7388    156.8130   1.4106134372e+02   3.9825032637e+01     0.508033    0.2296443  49.53  0.002588301    2.375    0.579
        38  -9.0203     25.6825    207.0272   1.4563356322e+02   2.8728288101e+01    0.3825886    0.2092943  78.15  0.002261676    1.613    0.380
        39 -11.2051    162.0275    154.0126   1.0754501484e+02   1.8279471689e+01    0.2416729    0.2352735  62.88  0.001296628    1.007    0.007
        40 -13.1913    133.9594    145.4213   1.1228295609e+02   2.6136553607e+01     1.278699     0.328198 -54.88  0.003032872    5.553    0.820
        41 -10.9329    140.1235    156.7690   1.1323926810e+02   2.2297704349e+01     0.225806    0.1990025  78.03 0.0003843138    1.171    0.146
        42 -10.8697    174.8247    148.9462   1.0353707980e+02   1.6562653992e+01    0.2932244    0.2213034 -66.26 0.0009016456    1.563    0.360
        43 -12.4408    144.2676    145.8058   1.0987074399e+02   2.3901066620e+01    0.4608488    0.3343857  64.39  0.002089049    1.558    0.358
        44 -11.8860     32.8845    141.7532   1.3725336426e+02   4.2495379839e+01    0.4527669    0.2512526  17.09  0.002017499    2.723    0.633
        45 -12.6631    114.9755    138.0343   1.1541642570e+02   3.1596452899e+01    0.5958626    0.3642125 -34.42  0.002470294    2.082    0.520
        46 -12.8262    104.8274    138.4969   1.1813449353e+02   3.3361277757e+01    0.5131696    0.3381002  64.72  0.002284899    1.876    0.467
        47 -11.2008    158.7800    204.8666   1.1820985374e+02   8.3961352289e+00    0.3676483    0.1935895  57.09  0.001327946    2.219    0.549
        48 -12.3246    106.0332    130.8412   1.1615130908e+02   3.4933035936e+01    0.4129678    0.3506688 -72.71  0.001278393    1.192    0.161
        49 -11.4310    108.2621    125.2979   1.1429542058e+02   3.5807830637e+01    0.3277228    0.2554706 -34.79 0.0007084277    1.400    0.286
        50 -12.6139    119.4243    129.3283   1.1229742455e+02   3.2749509438e+01    0.4696681    0.3927553 -47.67  0.001294181    1.178    0.151
        51 -13.1029    124.7868    126.9041   1.1033895793e+02   3.2233668738e+01    0.7127418    0.4570847  82.25  0.002625381    2.798    0.643
        52 -11.4437      2.8976    125.9228   1.4265383508e+02   4.8487012984e+01    0.3073777    0.1074826 -61.12  0.001538713    2.043    0.510
        53 -12.5861    135.4156    122.3101   1.0650948927e+02   3.1056155774e+01    0.7497613    0.1800473 -48.06  0.001971741    4.226    0.763
        54 -11.5783    113.5437    118.5538   1.1127234852e+02   3.6350031272e+01    0.2575709    0.2502648  61.07 0.0005273251    1.059    0.056
        55 -11.1683     25.2916    119.0301   1.3589342746e+02   4.8381684202e+01    0.1971341    0.1748574 -26.26 0.0005355952    1.354    0.262
        56 -10.3989      2.4894    112.5075   1.4107514828e+02   5.1460227891e+01    0.1657251    0.1066712 -11.66  0.001029899    2.229    0.551
        57 -12.0927     85.2116    110.2174   1.1712001032e+02   4.3226362860e+01    0.3271211     0.198676 -57.20  0.001182471    1.593    0.372
        58 -11.0391     30.1967    111.4666   1.3328868785e+02   4.9666194682e+01    0.2011883    0.1277119  14.31    0.0011377    2.103    0.525
        59 -10.6211      8.1432    111.4915   1.3941823998e+02   5.1332800142e+01    0.2097013    0.1187461   4.22  0.001191113    2.637    0.621
        60 -10.6745    205.6594    110.1273   8.7846786021e+01   1.7343264044e+01    0.2873892    0.2235295  46.82  0.000640533    1.340    0.254
        61 -11.1125    168.0052    113.2498   9.6407407008e+01   2.5643024924e+01    0.4305525    0.3088729  89.50  0.001523554    1.987    0.497
        62 -11.3232    160.5904    128.1494   1.0185306303e+02   2.4210501389e+01    0.3742181    0.2508912 -55.94  0.001607918    1.605    0.377
        63 -10.7675    124.8610     81.1760   9.8075130754e+01   4.1913310869e+01    0.2218441    0.2095432 -85.01 0.0008567173    1.175    0.149
        64 -10.3145     93.2468     79.2113   1.0644169935e+02   4.8478381956e+01    0.1822846    0.1668318 -76.29 0.0004569199    1.316    0.240
        65 -12.4266     13.3202    245.2461   1.5025024166e+02   2.2562688983e+01    0.4400202    0.1039265 -68.31  0.002086847    3.587    0.721
        66 -11.7325    146.8123    238.5041   1.2582682697e+02   4.4254977336e+00    0.2378443    0.1715802 -64.39  0.001041517    1.665    0.399
        67 -10.9757     14.1752     58.9064   1.2744946130e+02   6.1905710016e+01     0.288435      0.15652 -34.52  0.001733188    1.616    0.381
        68 -12.6118    174.9556     29.7150   7.2029264026e+01   3.7983505239e+01    0.3853956    0.3251753  22.53  0.001134648    1.433    0.302
        69 -10.5643    131.1199     28.7414   7.9943039943e+01   4.8660206888e+01    0.2818831    0.1770762  69.17  0.001366461    1.791    0.442
        70 -12.5039    158.7389    235.8161   1.2312687675e+02   2.7813772512e+00    0.3697344    0.2620926  35.17  0.001085287    1.325    0.245
