#   1 NUMBER                 Running object number                                     
#   2 MAG_AUTO               Kron-like elliptical aperture magnitude                    [mag]
#   3 X_IMAGE                Object position along x                                    [pixel]
#   4 Y_IMAGE                Object position along y                                    [pixel]
#   5 X_WORLD                Barycenter position along world x axis                     [deg]
#   6 Y_WORLD                Barycenter position along world y axis                     [deg]
#   7 A_WORLD                Profile RMS along major axis (world units)                 [deg]
#   8 B_WORLD                Profile RMS along minor axis (world units)                 [deg]
#   9 THETA_WORLD            Position angle (CCW/world-x)                               [deg]
#  10 FWHM_WORLD             FWHM assuming a gaussian core                              [deg]
#  11 ELONGATION             A_IMAGE/B_IMAGE                                           
#  12 ELLIPTICITY            1 - B_IMAGE/A_IMAGE                                       
         1 -15.0215    230.3758      7.9993   2.9850584869e+01   2.7611431103e+01     7.888126     2.760438  55.88   0.02114659    3.639    0.725
         2 -17.7669    245.3587     80.1103   4.2876135099e+01   1.5088175739e+01     6.642125     6.252434  58.92   0.02151966    1.329    0.248
         3 -16.7556    248.1960     60.6407   3.8682220759e+01   1.7439475728e+01     3.948322     1.494898 -55.48   0.01259669    2.706    0.631
         4  -9.2614    181.2030     24.3933   3.7975573189e+01   3.6538858278e+01    0.2899133    0.2090402  80.71  0.001070595    1.228    0.186
         5 -11.6411    129.3738     20.9307   4.4708124003e+01   4.9167033823e+01     1.082777    0.2879151  53.99  0.003990076    2.945    0.660
         6 -10.4376    125.8369     14.2765   4.3259764028e+01   5.0658205046e+01    0.3053583    0.2467665 -32.27  0.001898195    1.423    0.297
         7 -11.9820    119.2797      9.7787   4.3004775859e+01   5.2594267595e+01    0.6651577    0.4150563  53.06    0.0028369    1.365    0.267
         8  -9.2759    149.8178     30.1666   4.3914136633e+01   4.3291632704e+01    0.2385537    0.1834753 -32.61 0.0005537456    1.459    0.315
         9  -8.9995    180.0220    222.0565   8.2778341300e+01   1.4204850885e+00     0.196873    0.1716376  13.02 0.0003125626    1.017    0.017
        10  -9.8984    146.9891    215.8289   8.8852278190e+01   7.9225028206e+00    0.2371007    0.1965606 -45.43 0.0004557025    1.308    0.236
        11  -8.9566    233.7374    211.8120   7.0648769284e+01  -4.8043758577e+00     0.221749    0.1322391 -31.09 0.0007355257    1.497    0.332
        12  -8.1681     98.8421    210.8490   9.9214734359e+01   1.6815107199e+01    0.1783566     0.147769  67.76 0.0002447074    1.221    0.181
        13  -8.6461    226.5699    209.3227   7.1483814396e+01  -3.4239006293e+00    0.1741514    0.1047556 -26.70 0.0009395604    1.553    0.356
        14 -10.0528    169.3247    201.9272   8.1536563644e+01   6.8790126273e+00    0.2934813    0.2437536  43.19 0.0005846611    1.257    0.204
        15  -9.5606    165.2131    198.9897   8.1902714232e+01   8.1597155745e+00    0.3291226    0.2467863  70.86  0.001040644    2.006    0.502
        16 -10.0337    194.5084    198.0030   7.5535043924e+01   3.3963040560e+00    0.4511758    0.3029802 -67.85  0.002019454    2.714    0.632
        17 -10.3906    191.3480    192.0107   7.5046214614e+01   5.0251914887e+00    0.6458561    0.3671963 -62.23  0.002522944    3.220    0.689
        18  -9.9920    206.0873    198.7626   7.3386315380e+01   1.3975993313e+00    0.4750372    0.2626576  11.58  0.001960695    2.831    0.647
        19 -10.3616    239.1995    198.1660   6.7232032422e+01  -3.4263425014e+00     0.340315    0.2533695  49.79  0.002031599    1.905    0.475
        20  -9.2550     30.9632    197.3704   1.1380943525e+02   2.9053482163e+01    0.2144164    0.1634311 -71.45  0.000379228    1.258    0.205
        21  -8.2785    237.4455    249.4688   7.6350065584e+01  -1.0635977558e+01    0.1157391   0.08732103  -1.07 0.0001043053    1.005    0.005
        22  -9.0165    189.5464    249.0498   8.5185282820e+01  -4.3837241446e+00    0.2226804    0.1516073  40.20 0.0007214646    1.536    0.349
        23  -8.6528    111.1024    167.9276   8.9132869437e+01   2.4718001302e+01    0.2989055    0.1830179  57.93 0.0009841581    1.982    0.495
        24  -9.6532    175.7048    164.3210   7.2795345537e+01   1.3288483281e+01    0.2754937    0.1801853 -55.48  0.001245093    1.730    0.422
        25 -13.5753     15.1166    141.7538   1.1213366352e+02   4.4139222396e+01     1.929986     1.691674  67.18  0.007851009    1.188    0.158
        26 -10.4666    205.1668    153.6209   6.4571459344e+01   9.8591700616e+00    0.5354543    0.3793771 -69.80  0.002300624    2.088    0.521
        27 -10.4755    210.3954    150.6954   6.2986080944e+01   9.4512517001e+00    0.5357698    0.3639675  77.61  0.002333457    2.719    0.632
        28  -8.3376    147.4520    156.0531   7.7491705417e+01   2.0586554067e+01    0.2320526    0.1495423 -48.17  0.000557098    1.552    0.356
        29  -9.1619    156.9038    154.5596   7.4926317705e+01   1.9035917455e+01    0.2273052    0.2040355 -43.81 0.0004990022    1.104    0.094
        30 -10.5242    133.8566    145.6648   7.8582523448e+01   2.5656304943e+01     1.356035    0.3504106 -54.76  0.003044431    6.107    0.836
        31 -10.7589    176.5084    148.7941   6.9276512481e+01   1.6337422228e+01    0.4605429    0.3481851  23.86 0.0002326225    1.518    0.341
        32  -8.8148    248.9881    187.5559   6.3640835455e+01  -3.1070755215e+00    0.1702564    0.1176736  31.67 0.0006021314    1.595    0.373
        33 -11.6512     67.7399    144.0667   9.6802605173e+01   3.7708455979e+01    0.9879463    0.6408847  57.33  0.003723595    1.795    0.443
        34 -12.0016     47.2632    135.0018   1.0142003188e+02   4.2678478169e+01    0.5694581    0.4935716 -23.26 0.0008792505    1.297    0.229
        35 -14.0279     59.4464    132.1228   9.7085670593e+01   4.1867778859e+01     2.757443     1.472564  22.57  0.009370329    2.250    0.556
        36  -9.2814    162.0292    146.0104   7.1851712476e+01   1.9852288165e+01    0.2384145    0.1902929 -87.56 0.0007848766    1.660    0.398
        37  -8.4526    120.4025    145.7027   8.2107045591e+01   2.8298730813e+01    0.1953768    0.1867179  60.77 0.0004098113    1.061    0.057
        38 -10.6178    143.9995    145.4556   7.5994817328e+01   2.3655942954e+01    0.5699411    0.3207734 -65.84   0.00203036    2.722    0.633
        39 -10.4027    174.3768    138.0354   6.7313985531e+01   1.8995520206e+01     0.325202    0.2285025 -62.45  0.001474243    1.700    0.412
        40 -10.1320    166.8792    133.8754   6.7981117830e+01   2.1425507400e+01    0.3338295    0.2580429 -37.37  0.001475257    1.288    0.223
        41 -10.3822    146.7769    142.7147   7.4694276883e+01   2.3701913521e+01    0.4090382    0.2913058 -61.13  0.001534036    1.586    0.370
        42  -9.9333    200.8469    140.4211   6.2543843916e+01   1.3200564856e+01    0.2435652    0.2266122  87.15 0.0007907134    1.229    0.186
        43 -11.1862    152.8271    125.2928   6.9134689660e+01   2.6241458284e+01    0.5016713     0.409231  63.99  0.002457802    1.350    0.259
        44  -9.3260     95.9336    121.5140   8.3461997353e+01   3.8684116629e+01    0.2287273    0.1511956  38.20 0.0005640897    1.542    0.351
        45  -8.6905    220.3198    238.6705   7.7675394220e+01  -7.0263718144e+00    0.1032997   0.09766804  53.04 0.0002684368    1.689    0.408
        46  -8.8341    108.2740    183.6034   9.2689754632e+01   2.1492014893e+01    0.2409436     0.205257  74.06 0.0005751529    1.260    0.206
        47  -8.8591     33.6480    181.9032   1.1163980940e+02   3.2460135065e+01    0.1831554    0.1789662  45.56 0.0004150296    1.221    0.181
        48  -8.5149     88.5652    113.2979   8.3700864529e+01   4.1944048565e+01    0.2793961    0.1472516 -57.24  0.001100542    2.020    0.505
        49  -8.5386     69.4907    114.0227   8.9998371728e+01   4.4897912185e+01     0.214856    0.1392024 -55.56 9.036279e-06    1.477    0.323
        50  -8.6588    173.8892    180.3642   7.6461749376e+01   1.0351327091e+01    0.2188211    0.1772327  55.42 0.0006723353    1.437    0.304
        51 -10.3466     87.8170     95.8518   7.9335091892e+01   4.6035410038e+01    0.2357877    0.2287985   8.60 0.0002332406    1.030    0.030
        52 -10.0285    155.2803    178.5444   8.0276030308e+01   1.4154812441e+01    0.5050422    0.3429275  83.70  0.001827364    2.845    0.649
        53 -11.2238    178.4641    174.0770   7.4214752528e+01   1.0783332418e+01    0.8534491    0.7561296  -1.70  0.004753157    1.133    0.117
        54  -9.6961    157.5322     75.2382   5.5099869688e+01   3.4932472401e+01    0.4609284    0.2752716  72.46  0.001940173    2.085    0.520
        55  -8.5668    136.4842     74.9790   5.9606803405e+01   3.9901302859e+01    0.2148765    0.1467006 -38.04 0.0003991102    1.522    0.343
        56 -10.7780    192.8659    165.3446   6.9426235892e+01   9.8649678666e+00    0.9441207    0.3839153 -52.80  0.003230481    3.252    0.693
        57 -11.2460    140.5565     66.0854   5.6103647657e+01   4.0461324004e+01    0.5501893    0.4664961 -40.01  0.002994283    1.233    0.189
        58 -10.8771    136.8493     59.8174   5.5079771286e+01   4.2335646682e+01    0.4087473    0.3103111  67.78  0.001978224    1.335    0.251
        59 -10.9399    150.0141     65.7909   5.4013848260e+01   3.8277497512e+01    0.6470125    0.3867807  86.29  0.002511656    2.732    0.634
        60  -9.8134    106.0673     64.3134   6.4197943302e+01   4.8571332312e+01    0.6956358    0.2066973 -37.87  0.002245883    3.574    0.720
        61 -11.8814    185.5622    163.1589   7.0463000550e+01   1.1655442317e+01     1.060501    0.7067165 -83.44  0.003984161    3.350    0.701
        62  -8.3696     54.8651     55.1704   7.8434253636e+01   5.9632164190e+01    0.1894415    0.1420153 -13.01 0.0008644401    1.338    0.252
        63  -9.2079    110.5271     50.7398   5.8560378139e+01   4.9764251125e+01    0.4801759    0.1478558 -31.45  0.001542012    3.993    0.750
        64 -10.4136    197.0002    176.8641   7.0945099090e+01   6.9054530691e+00    0.5639417    0.3658444  67.49  0.002340722    2.947    0.661
        65 -10.1249    123.9030     46.8468   5.4017962005e+01   4.7286503008e+01    0.3516351    0.2168396  75.94  0.001560163    2.125    0.529
        66 -11.2244    190.0062    172.0011   7.1375973522e+01   9.0864355673e+00    0.5920322    0.3730167  53.66  0.002160514    1.976    0.494
        67 -10.3588    171.4292     42.0080   4.3753825503e+01   3.6663932002e+01    0.3336468    0.2538864 -40.02  0.001888505    1.382    0.277
        68 -10.0284    120.8185     39.4654   5.2362179188e+01   4.8999559236e+01    0.3239362    0.1979458  41.66  0.001351002    1.632    0.387
        69  -9.7330    171.2077     35.3785   4.2060655376e+01   3.7568266957e+01    0.5670037     0.307217  84.84  0.002255752    2.165    0.538
        70  -9.4956    169.2748     31.5634   4.1340707151e+01   3.8493488366e+01    0.2666319    0.2566937 -59.27 0.0008655689    1.183    0.155
        71 -10.1118    148.4470     34.0548   4.5254917788e+01   4.3153896025e+01    0.2317396    0.2276033  19.65  0.001049409    1.180    0.153
        72  -9.0867    187.2822     23.4737   3.7045774906e+01   3.5241604132e+01    0.3776634    0.2637542  33.87  0.001333604    2.114    0.527
        73  -8.1894    177.5222     25.4905   3.8696894322e+01   3.7269584064e+01    0.1886662    0.1742889 -41.47 0.0008598893    1.264    0.209
        74  -9.8409    182.9991     28.9785   3.8882670140e+01   3.5586673733e+01    0.4979256    0.3583149  27.86  0.002684618    2.116    0.527
        75  -9.7251    189.6747    237.2504   8.3315247277e+01  -2.5720797336e+00    0.3379679    0.2331419  59.51   0.00172782    2.523    0.604
        76 -10.3257    210.1972    231.4911   7.8379010605e+01  -4.5927327365e+00    0.2104851    0.1821665  -7.17 0.0002605736    1.128    0.113
        77  -9.1896    177.7274    231.2758   8.4769453254e+01   1.8787813889e-01    0.1985201    0.1778099  29.78 0.0003049769    1.180    0.152
        78  -9.1111    179.0802    226.9815   8.3791931280e+01   7.1324335193e-01    0.1943602    0.1700144   9.51 0.0002940824    1.018    0.018
        79  -8.3779    248.2704    195.5982   6.5239221649e+01  -4.2651568798e+00    0.1578023    0.1063757  16.87 0.0008158538    1.577    0.366
        80  -8.3653    161.5108    176.0392   7.8351536408e+01   1.3526569893e+01    0.2086965    0.1332002 -71.62 0.0008098908    2.640    0.621
