#   1 NUMBER                 Running object number                                     
#   2 MAG_AUTO               Kron-like elliptical aperture magnitude                    [mag]
#   3 X_IMAGE                Object position along x                                    [pixel]
#   4 Y_IMAGE                Object position along y                                    [pixel]
#   5 X_WORLD                Barycenter position along world x axis                     [deg]
#   6 Y_WORLD                Barycenter position along world y axis                     [deg]
#   7 A_WORLD                Profile RMS along major axis (world units)                 [deg]
#   8 B_WORLD                Profile RMS along minor axis (world units)                 [deg]
#   9 THETA_WORLD            Position angle (CCW/world-x)                               [deg]
#  10 FWHM_WORLD             FWHM assuming a gaussian core                              [deg]
#  11 ELONGATION             A_IMAGE/B_IMAGE                                           
#  12 ELLIPTICITY            1 - B_IMAGE/A_IMAGE                                       
         1  -9.9019    230.5904     19.4365   6.0124986185e+01   2.5684404011e+01    0.3575947    0.2085499 -41.38  0.001959227    1.718    0.418
         2  -9.5007    190.3754     14.5440   6.3431332916e+01   3.5830613632e+01    0.2863069    0.2244201 -85.01  0.001525369    1.167    0.143
         3  -8.4233     55.8173     10.1406   9.2234727835e+01   6.5553274020e+01    0.1635441    0.1431239   8.93 0.0006255279    1.266    0.210
         4  -8.3644     90.8349      9.2493   8.0491019743e+01   5.9480973355e+01    0.1812874    0.1298823 -70.08 0.0009302513    2.712    0.631
         5 -10.6010    246.1659      5.2316   5.5912239910e+01   2.3859050196e+01    0.4660099     0.361535  61.55  0.002874129    1.534    0.348
         6  -8.5906      6.0486      8.5313   1.1374782801e+02   7.1352799522e+01    0.1211344   0.08099835  37.85 0.0008089229    2.489    0.598
         7  -7.6035    101.2959      7.7157   7.7166103554e+01   5.7485504214e+01    0.1106383   0.09690662 -86.71 0.0002801406    1.544    0.352
         8  -8.7287     33.4029      5.3165   9.9249153939e+01   6.9127055446e+01     0.221089    0.1778606 -54.66  0.001433413    2.698    0.629
         9  -8.4076     78.8565      3.7181   8.1754295199e+01   6.2264002360e+01    0.2039666    0.1434737 -46.35  0.001206988    2.162    0.537
        10  -8.2162     16.2827      3.6313   1.0648475840e+02   7.1147906275e+01   0.08896406   0.07930771 -22.95 0.0007016119    1.695    0.410
        11  -7.9319     13.2656      8.6670   1.1020133991e+02   7.0771560001e+01   0.08830111   0.07786354 -24.06  0.000238436    1.582    0.368
        12  -8.3898     62.3499      1.5773   8.6160095131e+01   6.5349807874e+01    0.1380285      0.13238  37.59 0.0004842902    1.519    0.342
        13  -7.6357     39.3080      1.6494   9.5010980527e+01   6.8777571076e+01   0.09302994   0.08683558 -18.58 0.0007043448    1.712    0.416
        14  -9.1890    210.9087    246.3880   1.1211952819e+02  -8.3661963625e+00    0.2305026    0.1802869 -57.81 0.0007339015    1.964    0.491
        15  -8.6798    232.7997    247.1634   1.0809330610e+02  -1.1894036420e+01    0.2109866    0.1764067  50.83  0.001071251    1.694    0.410
        16  -8.2705     93.8467    249.5481   1.3564697461e+02   1.0839474306e+01    0.2424543    0.1270462  70.08  0.001167523    2.270    0.559
        17  -9.3351     65.6278    249.4995   1.4089861629e+02   1.5027062376e+01    0.2793261    0.1527252  61.08 0.0008204611    1.531    0.347
        18  -8.9761    147.3766    246.3929   1.2473177365e+02   2.4888448012e+00    0.3015696    0.1790488  68.73  0.001376454    2.549    0.608
        19  -7.8786     76.5322    247.4938   1.3871198277e+02   1.3845562591e+01    0.1236891    0.0961902  65.60 -1.329828e-05    1.015    0.015
        20  -8.8348    120.0552    245.3838   1.3006848602e+02   7.3565166902e+00     0.303128    0.1880603  81.61  0.001508454    2.221    0.550
        21  -9.7494     52.5063    249.7820   1.4327106154e+02   1.6756786910e+01    0.2711506    0.1592256  51.87 0.0008911184    1.377    0.274
        22  -8.7505     10.3430    245.5132   1.5012031870e+02   2.2557335749e+01    0.2100414   0.06955273  87.03 0.0009443544    3.328    0.700
        23  -8.7897     46.0054    244.7233   1.4403632332e+02   1.8568100695e+01     0.165711    0.1182427  61.64 0.0005641859    1.118    0.105
        24  -8.4156    202.0597    243.2229   1.1332460654e+02  -6.4507125789e+00    0.2058986    0.1702988 -83.52  0.001001933    2.048    0.512
        25  -8.8515    169.1167    243.6204   1.1995341571e+02  -8.4922644466e-01    0.1960895    0.1803066 -88.93 0.0005948723    1.354    0.261
        26  -8.5367    159.6821    244.3352   1.2196249016e+02   6.8689114026e-01    0.2153049    0.1394801  47.98 0.0005309735    1.351    0.260
        27  -9.6648    160.2449    240.5576   1.2129418767e+02   1.2272630112e+00    0.3890832    0.2584238 -77.18  0.001562481    2.508    0.601
        28  -8.3256     77.4649    242.9709   1.3810772911e+02   1.4576373415e+01    0.1747093    0.0891763  81.27 0.0008091619    2.511    0.602
        29  -9.3399    182.6615    240.5651   1.1675316486e+02  -2.7236607718e+00      0.43794    0.2826552  45.19  0.001575516    1.400    0.286
        30  -8.0520     88.3257    242.1788   1.3594458537e+02   1.3090891074e+01    0.1686327    0.1048308 -84.56  0.000677766    1.757    0.431
        31  -9.1948     30.0752    241.7735   1.4660983546e+02   2.1086218702e+01    0.1972649    0.1367227 -87.07 0.0005461453    1.252    0.202
        32  -9.4230      3.3626    240.8073   1.5099797631e+02   2.4161221114e+01    0.2263595    0.1349269  83.05 0.0007968922    1.239    0.193
        33  -8.7714     27.9828    250.4920   1.4752108124e+02   1.9667795932e+01     0.268817   0.09290799  39.10  0.001365686    2.741    0.635
        34  -8.1545     37.5309    241.4677   1.4529265340e+02   2.0256149771e+01    0.1172542   0.08529743  72.64 7.303715e-05    1.008    0.008
        35  -8.4497    240.5025    240.0918   1.0545656118e+02  -1.2108342721e+01    0.1722476    0.1119639 -28.50  0.001026159    1.570    0.363
        36  -8.5817    194.0987    239.8214   1.1434377735e+02  -4.5861081529e+00    0.1900003    0.1577393  43.29 0.0004275574    1.215    0.177
        37  -8.0621    146.2148    239.7860   1.2404615960e+02   3.8458336190e+00    0.2096615    0.1268197  71.67 0.0007474273    2.618    0.618
        38  -8.6438    135.4597    238.9802   1.2613326171e+02   5.8826274516e+00    0.1736189    0.1324831 -64.22 0.0005983011    1.537    0.349
        39  -8.1399    129.4614    238.9782   1.2735782139e+02   6.9276570223e+00    0.1772856    0.1098496  88.14 0.0008088597    2.526    0.604
        40  -8.1405    125.5335    239.5199   1.2822848230e+02   7.5053177654e+00    0.1348398    0.1097058  56.04 5.087732e-05    1.041    0.039
        41  -7.9887     83.9860    239.0064   1.3645859514e+02   1.4372260540e+01    0.1555036    0.1186532  58.76 0.0003895628    1.073    0.068
        42  -8.3545     71.9976    238.7406   1.3874334120e+02   1.6202569050e+01    0.1770729    0.1328306  58.89 0.0003802734    1.101    0.092
        43  -8.4685     52.8800    239.0908   1.4235452694e+02   1.8776372866e+01    0.1947236    0.1211723  69.55 0.0006500311    1.341    0.254
        44  -9.2524     19.4332    238.6769   1.4822928541e+02   2.2891305331e+01    0.2054401    0.1471071  76.36 0.0004761339    1.017    0.017
        45  -9.0975    231.1685    237.2073   1.0669708849e+02  -1.0293520448e+01    0.2552495    0.2331925  62.24  0.001173732    1.673    0.402
        46  -8.2319    209.0370    238.3205   1.1114371499e+02  -6.8849404238e+00    0.1784821     0.147732  27.58 0.0005660398    1.070    0.066
        47  -7.9650    107.4887    238.5123   1.3175128603e+02   1.0738662354e+01    0.1342231    0.1060508  61.40 0.0008096775    1.062    0.059
        48  -9.2665    246.6447    229.6238   1.0247886058e+02  -1.1603831362e+01    0.2833562    0.2354904 -43.77 0.0009337846    1.653    0.395
        49  -9.5304    247.5938    234.7783   1.0322483244e+02  -1.2445454309e+01    0.2974369    0.2318806 -45.64  0.001873039    1.821    0.451
        50  -8.7958    250.6327    232.2202   1.0221829503e+02  -1.2546314026e+01    0.2295101    0.1417526 -20.94 0.0006944843    1.570    0.363
        51  -8.0596     25.3030    236.9582   1.4711632782e+02   2.2574044802e+01    0.1872045    0.0647031  82.57 0.0007039826    4.232    0.764
        52  -8.5066    217.3121    235.7154   1.0908793013e+02  -7.8661755580e+00    0.2098569    0.1783676  80.52 0.0008982532    2.003    0.501
        53  -9.4096    213.4460    231.4176   1.0909709971e+02  -6.5830776087e+00     0.401594    0.2951421 -70.66  0.001458415    2.686    0.628
        54  -9.2582    203.0325    234.2307   1.1163618846e+02  -5.2501443206e+00    0.3303895    0.1966456 -47.44  0.001203536    2.099    0.523
        55  -8.1440    170.3535    236.1244   1.1855331196e+02   1.8278529959e-01    0.1662518    0.1276531 -64.19 0.0005398295    1.716    0.417
        56  -8.9972    108.4101    234.4175   1.3107008574e+02   1.1378881388e+01     0.298693    0.2007195  73.27  0.001046449    1.588    0.370
        57  -8.8373     94.0792    234.0115   1.3392241797e+02   1.3790141597e+01    0.4323183     0.214524  73.89   0.00175483    3.104    0.678
        58  -8.4277     78.8433    234.6874   1.3701895031e+02   1.6002807840e+01    0.2399995    0.1328664  75.86  0.001048053    2.031    0.508
        59  -9.8726     54.9480    232.2044   1.4138597432e+02   1.9879858444e+01    0.5113297    0.1412283 -58.82  0.002059676    3.810    0.738
        60  -9.7642     61.9880    228.3860   1.3968953724e+02   1.9705265742e+01    0.3799248    0.1692913  51.08  0.001260552    1.912    0.477
        61  -7.8712      7.4821    235.4709   1.5004442204e+02   2.4771516263e+01    0.1104626   0.07720765  76.83 0.0001312376    1.005    0.005
        62  -7.9854    122.9574    234.4601   1.2809358690e+02   8.9022637049e+00    0.1956759   0.09243521  57.91 0.0005679504    2.403    0.584
        63  -8.2858     99.4314    234.3242   1.3288054071e+02   1.2870559248e+01    0.2312788    0.1277528  58.64 0.0009704684    1.703    0.413
        64  -8.9581     68.2271    232.3635   1.3885766796e+02   1.8019055603e+01     0.420413    0.1786058  66.44  0.001744906    2.985    0.665
        65  -8.4418    194.5712    232.8121   1.1308898804e+02  -3.5627872485e+00    0.2156495    0.1666905 -59.75 0.0009482258    1.805    0.446
        66  -8.9837    141.3806    231.0896   1.2379778351e+02   6.2917033265e+00    0.6507106    0.2683518  59.33  0.001965818    4.800    0.792
        67  -9.3554    186.5014    230.9006   1.1440473025e+02  -1.8258585785e+00    0.3198206     0.241599  83.26  0.001387371    2.246    0.555
        68  -8.1856    139.3508    244.6800   1.2611363973e+02   4.1817516143e+00    0.1378385   0.08987619  64.81 0.0007048025    1.743    0.426
        69  -8.9881    236.0106    230.8504   1.0466779063e+02  -1.0152917149e+01    0.2087673    0.1643309 -20.27 0.0005813956    1.259    0.206
        70  -8.0472      1.4628    231.1983   1.5080992960e+02   2.6196144074e+01    0.1581881   0.07447115  84.34 0.0009494086    1.720    0.419
        71  -9.0131    151.3463    229.0250   1.2140028718e+02   4.8736878568e+00    0.3359057    0.2105818  89.65  0.001298439    3.178    0.685
        72  -9.3666    148.8477    224.7362   1.2126915889e+02   6.1308697696e+00     0.446054    0.4171429  56.68  0.001649986    1.090    0.082
        73  -8.3817     32.8167    230.1930   1.4531907203e+02   2.3056105054e+01    0.1719786    0.1183278  73.93 0.0003466538    1.116    0.104
        74  -8.1890    229.6450    228.8303   1.0550965267e+02  -8.8568066669e+00    0.1610867    0.1160976 -40.75 0.0004667967    1.636    0.389
        75  -8.7532    162.1035    228.1525   1.1900688477e+02   3.0690656694e+00    0.2589098    0.1713003  56.00 0.0008959064    1.594    0.373
        76  -8.8168    128.1247    227.4764   1.2606541272e+02   9.3465302412e+00    0.2947952    0.1948638  70.42  0.001172693    1.789    0.441
        77  -7.8639    120.2934    227.9665   1.2778031460e+02   1.0623952761e+01    0.2025008    0.1049512 -83.48 0.0007020254    4.086    0.755
        78  -9.6328     49.3306    227.7301   1.4206252661e+02   2.1528104615e+01    0.3683887    0.2342881  50.40  0.002080307    1.389    0.280
        79  -9.3945    225.4028    221.7984   1.0505340670e+02  -7.1133069708e+00    0.2446727    0.1465141 -28.51 0.0007108583    1.747    0.428
        80  -8.9781    180.5463    224.2868   1.1451889285e+02   3.7378601840e-01    0.2408974    0.2070055 -69.34  0.000438408    1.507    0.336
        81  -8.9352     94.3213    224.5620   1.3277044796e+02   1.5664275011e+01    0.4718935      0.23907  74.64  0.001881894    3.066    0.674
        82  -8.6475    206.0338    225.8961   1.0959680352e+02  -4.4563497510e+00    0.2132999    0.1746604 -57.13 0.0008577825    1.664    0.399
        83  -9.6348    175.7319    233.2677   1.1699728931e+02  -2.9588578297e-01    0.4687312    0.2516539 -59.65  0.002043798    2.912    0.657
        84  -8.2048      6.0955    226.1006   1.4975122424e+02   2.6750090321e+01    0.1522432    0.1200979  86.76 0.0004298036    1.205    0.170
        85  -8.4558     74.8361    225.1483   1.3682244762e+02   1.8542788220e+01    0.1546604    0.1441576  89.63 0.0002876006    1.283    0.220
        86  -8.7903    216.4906    223.3525   1.0707087367e+02  -5.8545323233e+00    0.2431243    0.2101682 -82.23  0.001087575    1.863    0.463
        87  -8.7398    104.7517    223.8387   1.3050195881e+02   1.4104735088e+01    0.2577685    0.1689358  85.61  0.001311176    1.797    0.444
        88  -8.6208    173.0306    222.8863   1.1585334231e+02   2.0038813873e+00    0.2244713     0.180387 -72.37  0.000706838    1.660    0.398
        89  -7.9001    140.4630    222.9517   1.2278334928e+02   8.0078272718e+00    0.1801034    0.1184741 -89.71 0.0008062504    2.350    0.574
        90  -8.9688    238.9618    221.5355   1.0242959346e+02  -9.2721267940e+00     0.211969    0.1767301 -44.76 0.0007615465    1.572    0.364
        91  -9.2111    192.4126    221.4387   1.1157325062e+02  -1.2997326699e+00    0.2864965    0.2415228  79.04  0.000828434    1.674    0.403
        92  -9.3284    159.9079    221.0047   1.1832004277e+02   4.7860924970e+00    0.5163059    0.2441144  57.31  0.001859563    2.996    0.666
        93  -8.4531     19.0326    221.5193   1.4719565474e+02   2.6357413653e+01    0.2185865    0.1178768  78.96 0.0008035575    1.571    0.363
        94  -8.5220     82.7567    220.6063   1.3470378244e+02   1.8303658939e+01    0.2473553    0.1427589  78.50 0.0008786686    2.017    0.504
        95  -8.1465     72.9982    220.7408   1.3672526998e+02   1.9735340441e+01    0.2388686    0.1093054  74.92 0.0008925205    3.488    0.713
        96  -8.2442    202.8047    220.1312   1.0922099760e+02  -2.9500904597e+00    0.1932008    0.1800918  44.48 0.0006148673    1.235    0.190
        97  -9.1074    132.6960    215.9504   1.2339508501e+02   1.0816326100e+01    0.4530999    0.2728642  79.76  0.001828917    2.834    0.647
        98  -8.8683    120.3258    219.3455   1.2657827918e+02   1.2348586406e+01    0.3817161    0.2109586  67.78  0.001590142    2.501    0.600
        99  -8.8346     62.3422    217.9222   1.3859581886e+02   2.1846679530e+01    0.3557927    0.1705596 -88.95  0.001586141    2.564    0.610
       100  -8.7741    248.1998    217.9427   1.0005933619e+02  -1.0187886781e+01    0.3321837    0.2325995  72.17   0.00137783    4.461    0.776
       101  -8.4044    210.0486    219.0761   1.0757356380e+02  -4.0588819552e+00    0.1895277    0.1680136  82.46 0.0005606465    1.653    0.395
       102  -8.9277     55.0083    221.8821   1.4044272866e+02   2.2000847826e+01    0.1913227    0.1486528  73.83 0.0005370799    1.017    0.017
       103  -8.0351      1.4945    219.5097   1.5016394102e+02   2.8509061674e+01    0.1121066   0.07839251  79.56  0.000289904    1.015    0.015
       104  -8.8046    109.2478    217.6225   1.2872462013e+02   1.4629799046e+01    0.4112949    0.1567449  41.23   0.00164352    2.343    0.573
       105  -8.7475     51.5638    217.3969   1.4070343783e+02   2.3399785614e+01    0.2253262     0.140768  76.33 0.0006575622    1.451    0.311
       106  -7.7550    179.2904    217.6243   1.1363627315e+02   1.7846310479e+00    0.1366123    0.1092369  78.13 0.0007020956    1.731    0.422
       107  -8.8058    169.2137    216.5273   1.1558421381e+02   3.8762344538e+00    0.2740984    0.2135996  88.94  0.001025383    1.820    0.451
       108  -8.5282    142.8617    216.5624   1.2127662327e+02   8.8188690428e+00    0.2623914    0.1845909 -81.56 0.0008473656    1.927    0.481
       109 -10.1100     33.8762    214.1791   1.4387986687e+02   2.6248284503e+01    0.4884281    0.2531867  89.31  0.002477995    1.795    0.443
       110  -8.4929     12.5908    216.0447   1.4799204477e+02   2.8144531897e+01    0.1634814    0.1229629  69.68 0.0004561613    1.129    0.114
       111  -8.9290    232.3755    214.5336   1.0237285832e+02  -7.1528169534e+00    0.2722019    0.1954658 -34.12 0.0009406011    1.438    0.305
       112  -8.3184    185.7037    214.5574   1.1174630378e+02   1.1361405345e+00    0.2140895    0.1749733 -76.88 0.0006358464    1.723    0.420
       113  -8.6784    154.3882    215.2290   1.1855729347e+02   6.9212165948e+00    0.1803466     0.136487 -67.98 0.0004611804    1.616    0.381
       114  -8.7139     93.4114    214.3632   1.3170070511e+02   1.7954307249e+01    0.3425829    0.1627492  56.45  0.001199536    2.145    0.534
       115  -8.1266     86.8761    215.5905   1.3324788092e+02   1.8730734735e+01    0.1898802    0.1036219  52.84 0.0005908276    1.649    0.394
       116  -9.4614    213.9297    212.3015   1.0554979895e+02  -3.6326115426e+00    0.3457812    0.2843089  65.53  0.001427158    1.713    0.416
       117  -9.9471     71.7523    211.9042   1.3601104249e+02   2.1810169345e+01    0.5970783    0.2684008  51.02    0.0026107    2.023    0.506
       118  -8.3295    224.5726    212.3725   1.0346811597e+02  -5.4992584459e+00    0.2253933    0.1260925 -41.76 0.0006384478    1.940    0.485
       119  -8.8224    161.7973    212.5356   1.1649655509e+02   6.0371579400e+00    0.2527207    0.1907593 -77.57 0.0007455862    1.800    0.444
       120  -9.3513    175.6173    210.1569   1.1309810530e+02   3.8493108466e+00    0.3933403    0.2737185  81.30  0.001256814    2.535    0.605
       121  -7.4873    106.3181    212.6449   1.2867728662e+02   1.6179487887e+01    0.1484419   0.09573611  71.83  0.000704594    1.749    0.428
       122  -8.1641      3.8618    211.9143   1.4929861190e+02   2.9835564184e+01    0.1526534   0.09544807  71.91 0.0004062129    1.256    0.204
       123  -8.7803    204.3318    210.8622   1.0721545915e+02  -1.6634876025e+00    0.2310898    0.2065719 -74.50 0.0007579558    1.528    0.346
       124  -8.2265    192.5388    210.7707   1.0962982733e+02   5.3293139544e-01    0.1799685    0.1370265 -57.70 0.0007772557    1.676    0.403
       125  -8.7981    147.9430    210.7325   1.1921986765e+02   9.0270874056e+00    0.2930694    0.2229345  89.83 0.0009998254    1.698    0.411
       126  -8.7305    116.1954    210.4991   1.2620120604e+02   1.4920609693e+01    0.2951848     0.198138  72.43 0.0005891259    1.712    0.416
       127  -8.2133     85.6406    209.8296   1.3280208992e+02   2.0169093000e+01    0.2867203    0.1492567  84.66  0.001139531    2.927    0.658
       128  -8.9797    236.5198    208.3452   1.0041688746e+02  -6.8775916729e+00    0.2633258    0.2197456 -59.29 0.0009671054    1.755    0.430
       129  -8.2475    237.6732    204.6728   9.9494932008e+01  -6.4920246082e+00     0.214919    0.1430864   2.06 0.0007707034    1.724    0.420
       130  -8.2055    139.2909    208.5923   1.2078067441e+02   1.1095943377e+01    0.2614121    0.1975972  74.43 0.0007053511    1.534    0.348
       131  -8.3169    136.3098    208.6944   1.2145970665e+02   1.1633881306e+01     0.201525    0.1901865 -86.58 0.0006858355    1.126    0.112
       132  -8.2694    126.4748    208.4983   1.2361752718e+02   1.3494217964e+01    0.2210362    0.1366999 -72.01 0.0005420314    2.024    0.506
       133  -7.9367     46.3114    209.6497   1.4102696521e+02   2.5731034762e+01    0.1352214   0.07577169  71.07 0.0007045365    1.719    0.418
       134  -9.2247     25.7179    208.1517   1.4496778869e+02   2.8441423350e+01    0.3340924    0.1701522 -84.50  0.001347775    1.706    0.414
       135  -7.9465    156.3795    208.1083   1.1691871936e+02   7.9397974755e+00    0.1903999    0.1375573 -66.84 0.0007176592    1.720    0.419
       136  -9.1772     99.3459    206.1275   1.2931022881e+02   1.8764647292e+01    0.3758117    0.2244982  75.57  0.001482544    2.126    0.530
       137  -9.1493     79.4334    206.2910   1.3370763425e+02   2.1901520944e+01    0.3285167    0.1816915  43.31  0.001382138    1.689    0.408
       138  -9.3923     12.5933    203.7918   1.4715136312e+02   3.0710054117e+01    0.2788388    0.1742587  85.45  0.001047364    1.263    0.208
       139  -9.6980    192.4642    197.3461   1.0711086317e+02   2.9967017940e+00    0.4387456    0.3210167 -66.84  0.001338115    1.957    0.489
       140  -9.0137    183.7959    204.2045   1.1025958212e+02   3.3929109083e+00    0.3464524    0.2405483  66.77  0.001043028    2.055    0.513
       141  -8.4758    179.0219    203.9787   1.1124165981e+02   4.3590623925e+00    0.2622259    0.1913186  40.25   0.00053004    1.251    0.200
       142  -8.2475     98.9791    210.5114   1.2998994404e+02   1.7871701497e+01    0.2059368   0.09440534  58.20  0.000809026    2.494    0.599
       143  -8.5171     56.0329    205.0588   1.3856773655e+02   2.5491266704e+01    0.2122173    0.1248206  72.92 0.0007149938    1.694    0.410
       144  -9.4816    250.1321    202.1919   9.6719641369e+01  -8.1396004517e+00    0.3867776    0.1741615 -36.58  0.001290782    2.124    0.529
       145  -9.5856    163.6909    203.0703   1.1441883319e+02   7.5231899615e+00    0.4066478    0.2733259  63.27 0.0008190493    1.846    0.458
       146  -8.5675    131.2022    204.0879   1.2185735444e+02   1.3553023710e+01    0.2834573    0.1702864  64.02  0.001022519    2.036    0.509
       147  -8.2930    121.9213    204.1573   1.2396115439e+02   1.5248927405e+01    0.1824825    0.1676397  22.87 0.0004580923    1.278    0.217
       148  -9.1510    243.0315    200.8894   9.7763607290e+01  -6.7843330194e+00    0.2959827    0.1826329 -40.14 0.0008390349    1.674    0.403
       149  -8.3099    211.0057    202.0318   1.0418350363e+02  -1.3631540178e+00    0.2049583    0.1752042  82.16 0.0005624793    1.712    0.416
       150  -8.7995    140.4201    201.1541   1.1928668350e+02   1.2430108066e+01    0.3277361    0.2285703  87.81  0.001300616    2.012    0.503
       151  -8.5122     79.8473    201.4937   1.3301623118e+02   2.2906556684e+01    0.2736709    0.1610772  88.53  0.001106215    1.998    0.500
       152  -8.7306     48.3898    202.1944   1.3987268530e+02   2.7106909493e+01     0.183606    0.1014888 -87.18 0.0009401439    1.762    0.433
       153  -9.4197    149.6432    198.7508   1.1678228334e+02   1.1149084473e+01    0.4548804    0.3059619  86.04  0.001563742    2.385    0.581
       154  -8.8395    123.9101    199.2942   1.2273481864e+02   1.5937558929e+01    0.3043311    0.2002126 -79.46 0.0009737059    1.945    0.486
       155  -9.1594    112.6878    198.4474   1.2516999785e+02   1.8158275272e+01    0.3993085     0.246578  79.07  0.001540986    2.263    0.558
       156  -9.3891    246.3047    207.3048   9.8399756138e+01  -8.3105163782e+00    0.2657141     0.197899 -26.08 0.0004925678    1.266    0.210
       157  -8.9825    236.9858    198.5553   9.8433660180e+01  -5.3965591344e+00    0.2441964     0.179758 -47.72 0.0008417933    1.634    0.388
       158  -7.6045    188.2747    199.3376   1.0838436353e+02   3.4381408334e+00    0.1445159    0.1096352  -0.21 0.0002622823    1.608    0.378
       159  -8.4186    177.0611    199.0505   1.1074555559e+02   5.6889278940e+00    0.2201124    0.1775052  78.68 0.0005940348    1.638    0.390
       160  -8.9137    105.6242    199.0199   1.2687259773e+02   1.9269444851e+01    0.2476638    0.1832218  54.86  0.000461795    1.239    0.193
       161  -8.9528     88.6891    198.6335   1.3066262578e+02   2.2172379888e+01    0.3261587    0.2037806  74.97  0.001554245    1.833    0.454
       162  -8.4058    202.2334    198.1557   1.0522387357e+02   9.6747220484e-01    0.1852084    0.1712537  81.72 0.0005969768    1.373    0.272
       163  -9.7473     61.5356    197.1855   1.3652040174e+02   2.6515071538e+01    0.4306207    0.2192401  72.14  0.001892325    2.429    0.588
       164  -9.6473     52.9445    197.4152   1.3840816275e+02   2.7597674466e+01    0.2840807    0.2156663 -67.64  0.001740452    1.307    0.235
       165  -9.3044    194.9512    203.7661   1.0781836422e+02   1.3362337567e+00    0.3908422     0.304275 -63.62  0.001297107    1.723    0.420
       166  -8.7204    215.7943    195.6907   1.0197972154e+02  -1.1415756928e+00    0.2638946    0.1887572 -50.51 0.0008191616    1.669    0.401
       167  -8.1189    133.1941    196.1804   1.2008582534e+02   1.4873345494e+01    0.2204223     0.114051 -65.10 0.0005187031    2.515    0.602
       168  -9.4316    245.8534    193.8333   9.5860739333e+01  -6.1302436303e+00    0.3257963    0.2600191 -80.30  0.001308847    2.338    0.572
       169  -9.3264    224.3741    193.6730   9.9883558740e+01  -2.3638836337e+00    0.4724989    0.2408367 -38.92  0.002127835    1.969    0.492
       170  -8.7799    160.9023    194.4064   1.1345073233e+02   9.8250080180e+00    0.2683119    0.2093716 -77.85 0.0007866865    1.640    0.390
       171  -9.2442     44.0589    194.0151   1.3995368303e+02   2.9465369534e+01    0.3831679    0.1745472  64.23  0.001714589    2.499    0.600
       172  -8.0108    230.9643    194.4776   9.8770312333e+01  -3.6794573858e+00    0.1667596    0.1215442  66.10 0.0004237746    2.230    0.552
       173  -8.8322     76.9407    193.7769   1.3266782586e+02   2.5092877214e+01    0.2542894    0.1792349 -84.29 0.0006471456    1.380    0.275
       174  -8.4052      6.0985    194.1860   1.4770902333e+02   3.3364203254e+01    0.1619675     0.130487 -82.32 0.0004868094    1.199    0.166
       175  -7.5511    238.3545    193.2832   9.7135614015e+01  -4.7703012463e+00    0.1402152   0.09635846   5.94 0.0004803796    1.663    0.399
       176  -8.9970    241.5926    192.1438   9.6307329993e+01  -5.1385075898e+00    0.2730218    0.1633758 -24.82 0.0007940098    1.712    0.416
       177  -7.9117    154.9638    193.4832   1.1462155193e+02   1.1199628963e+01    0.2152039    0.1198347  61.14 0.0008090039    2.455    0.593
       178  -8.2273    198.9905    191.9499   1.0467630478e+02   2.7332826649e+00    0.2114624    0.1799682  85.40   0.00053007    1.611    0.379
       179  -8.3740    172.1935    191.8970   1.1045054747e+02   8.0731689229e+00    0.2252026    0.1980041  79.26 0.0007486008    1.333    0.250
       180  -8.9971    139.4603    190.7510   1.1768482533e+02   1.4844175378e+01    0.3664728    0.2455491  74.66  0.001081291    2.057    0.514
       181  -8.2914    117.9466    192.2743   1.2296469323e+02   1.8585595876e+01    0.2055133    0.1775836  54.20 0.0004711179    1.072    0.067
       182 -10.4708     92.2741    189.0638   1.2847210886e+02   2.3776753726e+01    0.9166445    0.3286877  52.44  0.003133262    3.248    0.692
       183  -7.8005    179.2743    191.6626   1.0884435105e+02   6.6974773384e+00    0.1428946    0.1176345  85.60 0.0003237335    1.607    0.378
       184  -8.3676     17.0241    191.5353   1.4534837681e+02   3.2931756489e+01    0.1579511    0.1061724  44.80 0.0008752557    1.561    0.359
       185  -8.3582    237.1384    188.6773   9.6441507386e+01  -3.7944381098e+00    0.2225448    0.1741332 -40.82  0.000611498    1.352    0.261
       186  -8.4666    148.2661    189.2186   1.1536481427e+02   1.3437745804e+01    0.2040119    0.1701909  85.00 0.0005629595    1.378    0.274
       187  -8.7684    129.2554    188.7280   1.1970935247e+02   1.7262466959e+01    0.2804195    0.2126038  81.65 0.0009196822    1.549    0.354
       188  -9.6934    121.0213    186.9764   1.2134788386e+02   1.9210780940e+01    0.5842382     0.314692 -76.23  0.002106063    3.042    0.671
       189  -7.9403     71.0081    188.9978   1.3339238515e+02   2.7063193534e+01    0.1624614    0.1389279  68.43 0.0003870399    1.077    0.072
       190  -8.6952    216.5376    187.9916   1.0028842249e+02   8.2533375440e-02    0.2524885    0.1977697  57.81 0.0007717694    1.572    0.364
       191  -8.8354    191.3452    187.6563   1.0543562103e+02   5.0605062465e+00    0.2872568    0.2396772  89.57 0.0009177609    1.631    0.387
       192  -9.0982    155.8591    187.4430   1.1328173921e+02   1.2293195940e+01    0.3200238    0.2180346 -63.66 0.0008578146    1.770    0.435
       193  -9.1000     54.7607    187.0398   1.3683670994e+02   2.9728460198e+01    0.3929215    0.2110518  77.61  0.001391111    2.223    0.550
       194  -8.5331     49.9553    188.4948   1.3807620302e+02   3.0000719590e+01    0.1757422    0.1193776  43.64 0.0004673791    1.505    0.336
       195  -8.5202     33.9500    187.8814   1.4149854478e+02   3.2008394264e+01    0.2476063    0.1272656  80.13  0.001211587    2.087    0.521
       196  -7.6218     10.6150    188.2944   1.4637968584e+02   3.4238475663e+01    0.1258388   0.06670755  66.99 0.0007016245    1.765    0.434
       197  -8.0652    230.5079    187.5031   9.7458491569e+01  -2.4148220836e+00    0.1368493    0.1261587  -2.47 0.0001300791    1.061    0.058
       198  -8.5427    164.9583    186.9536   1.1111293480e+02   1.0549891772e+01    0.2366508    0.1832824  80.16 0.0007814762    1.699    0.412
       199  -8.9587    109.3829    186.1186   1.2396785452e+02   2.1530373513e+01    0.3777451    0.2464431  79.17  0.001141997    1.987    0.497
       200  -8.7477     28.5000    187.2674   1.4260032778e+02   3.2729561683e+01    0.1940363    0.1523713  50.24  0.000548879    1.346    0.257
       201  -8.6013    249.1745    185.6263   9.3623548196e+01  -5.3596552330e+00     0.232182    0.1652377 -40.53 0.0008651922    1.428    0.300
       202  -8.9640    182.8838    185.4230   1.0681698657e+02   7.2071846071e+00    0.2657408    0.2143956 -41.53  0.000730399    1.305    0.234
       203  -8.8543    210.1468    184.4057   1.0084604119e+02   1.9592987226e+00    0.2596046    0.2028189 -45.33 0.0004934619    1.375    0.273
       204  -8.6402    202.9691    185.0038   1.0244522134e+02   3.2543036266e+00    0.2188999    0.1827229  85.55 0.0005889054    1.679    0.404
       205  -8.8747     66.5008    184.6797   1.3386532297e+02   2.8704279062e+01    0.3280186    0.1870711  67.31  0.001053658    1.969    0.492
       206  -8.8284    185.1478    194.8164   1.0818268671e+02   4.9118491226e+00    0.2331003    0.2001273 -61.03 0.0006942997    1.375    0.273
       207  -8.2693    196.9654    183.9341   1.0348503039e+02   4.6522180335e+00    0.2229564    0.1846952  86.65 0.0005219245    1.672    0.402
       208  -9.3034    174.2450    183.2058   1.0828095235e+02   9.4234131681e+00    0.3815351    0.2557818 -60.67    0.0010664    1.853    0.460
       209  -7.7681    143.5260    184.5024   1.1558633674e+02   1.5407467612e+01    0.1516832    0.1410016  58.22 2.930731e-05    1.016    0.016
       210  -8.6399    240.9573    181.9461   9.4368932660e+01  -3.3335512038e+00    0.3362866    0.2159104 -65.73  0.001377683    3.237    0.691
       211  -8.9467     44.4182    182.4751   1.3863370240e+02   3.2054460244e+01    0.3480424     0.191768  74.57  0.001179899    2.002    0.500
       212  -7.8198      1.3826    183.7206   1.4788020742e+02   3.6026033631e+01    0.1207181   0.06476139  66.69  0.000700546    1.721    0.419
       213  -8.1997     60.1677    182.1434   1.3500359081e+02   3.0158244895e+01    0.1830813    0.1354665  72.30 0.0003783531    1.274    0.215
       214  -9.5010     25.7913    179.3595   1.4242501223e+02   3.4792749874e+01    0.6415228    0.2492189  82.29  0.002242289    4.368    0.771
       215  -9.1140    147.3278    180.6233   1.1395245552e+02   1.5494813360e+01     0.321811    0.2391761  80.93 0.0008498263    1.753    0.430
       216  -7.6602     15.6648    181.2938   1.4476694386e+02   3.5326546913e+01    0.1244344    0.0716241  69.57 0.0003183309    1.642    0.391
       217  -8.5322    137.7576    179.6280   1.1602972199e+02   1.7639065256e+01    0.2836115    0.1957808 -88.18  0.001122569    2.066    0.516
       218  -8.0292    114.5480    180.5140   1.2177696315e+02   2.1887931371e+01    0.1504735     0.134698  73.77 0.0001600543    1.056    0.053
       219  -9.2460    191.4286    178.4003   1.0352411504e+02   6.8555451323e+00    0.2833593    0.2538342  82.03  0.000531012    1.348    0.258
       220  -9.0502     35.8081    176.6993   1.3993197379e+02   3.4360369978e+01    0.5021502    0.2050398  81.39  0.001655012    4.694    0.787
       221  -9.5136    248.5028    176.5170   9.1894956718e+01  -3.7396252995e+00     0.443577    0.2644755 -48.68   0.00214259    1.926    0.481
       222  -8.5671    250.5131    172.9565   9.0809200715e+01  -3.4913219223e+00    0.1955609    0.1556664 -28.55 0.0005420827    1.138    0.121
       223  -8.4834    217.7269    177.6056   9.7912833093e+01   1.7381332887e+00    0.2561869    0.1871599 -66.55  0.000962106    2.029    0.507
       224  -8.6421    205.1159    177.6434   1.0047744885e+02   4.2214840376e+00    0.2537538    0.1954776 -50.16 0.0006165465    1.431    0.301
       225  -7.9175    169.3305    178.6913   1.0847431436e+02   1.1377613632e+01    0.1543103    0.1204507  78.31  0.000558584    1.665    0.399
       226  -8.6081    129.0674    177.3487   1.1768814148e+02   1.9866914388e+01    0.2805868    0.2063676 -89.58 0.0008136576    1.699    0.411
       227  -7.9150    101.4583    178.4363   1.2460065861e+02   2.4707488984e+01    0.2267485    0.1652518  71.03 0.0005867293    1.472    0.321
       228  -8.1158     97.9837    177.4996   1.2529252084e+02   2.5523419919e+01    0.2150515    0.1391559  40.12 0.0006268441    1.550    0.355
       229  -8.3427    231.2136    177.1859   9.5207608771e+01  -7.4857025776e-01    0.1859315    0.1599438 -52.26 0.0005852947    1.357    0.263
       230  -9.1522    183.0884    176.2540   1.0489261920e+02   9.0130700770e+00     0.300683    0.2363881 -63.30 0.0006246745    1.525    0.344
       231  -8.5959     88.8929    176.6858   1.2737991685e+02   2.7221263319e+01    0.2779898    0.1789406 -86.57  0.000795222    1.828    0.453
       232  -9.8911     57.2912    173.2930   1.3452989731e+02   3.2614839034e+01    0.7870494    0.3601683  83.63  0.002557802    4.432    0.774
       233  -8.4443     12.8132    176.5832   1.4495972366e+02   3.6634750055e+01    0.2233485     0.111813  70.35 0.0007510921    2.055    0.513
       234  -8.1622    211.6311    176.2213   9.8845454374e+01   3.1907841879e+00    0.2036392    0.1329274 -29.79 0.0006881274    1.613    0.380
       235  -9.2092    158.7177    175.1035   1.1018527920e+02   1.4356753087e+01    0.3806984    0.2690429  88.00  0.001051304    2.170    0.539
       236  -9.1886    104.2549    174.6959   1.2327919072e+02   2.5099638650e+01    0.5289495    0.2808564  66.75  0.001556584    2.936    0.659
       237 -10.6977     75.7922    170.1453   1.2957790975e+02   3.0805829163e+01      1.21625    0.4582235 -74.85  0.003496227    4.865    0.794
       238  -8.5246    224.5578    174.7678   9.5978171893e+01   9.3844455969e-01    0.1935174    0.1320628 -48.84 0.0009353081    1.618    0.382
       239  -8.5289    142.6944    173.1138   1.1357960166e+02   1.8108086740e+01    0.2705098     0.199157 -42.39  0.001083872    1.472    0.320
       240  -9.4113    175.7720    172.2206   1.0567599086e+02   1.1382961653e+01    0.3789896    0.2562716 -46.21  0.000887054    1.542    0.352
       241  -8.3789    134.7991    172.0523   1.1528032381e+02   1.9945136003e+01    0.2386521    0.2024662  80.88 0.0006742883    1.273    0.214
       242  -9.4787    121.4056    170.5248   1.1827658812e+02   2.2924209165e+01     0.400527    0.2741011 -83.76  0.001127594    1.914    0.478
       243  -9.1220     44.8129    170.9057   1.3718563732e+02   3.4702193728e+01    0.3711477    0.2025719  84.84  0.001432115    2.114    0.527
       244  -9.0646     40.0004    170.4715   1.3826303581e+02   3.5348405363e+01    0.3046013    0.1159232  34.16  0.001343037    2.794    0.642
       245  -8.7490    230.4754    170.3397   9.3913402818e+01   6.0814087227e-01    0.2758098    0.2182756 -14.15 0.0007044377    1.295    0.228
       246  -8.5785    205.8277    170.5200   9.8822421797e+01   5.4445833124e+00    0.2854638    0.1900211 -57.32 0.0006858128    1.884    0.469
       247  -8.7443     20.0644    170.5041   1.4281956464e+02   3.7356831425e+01    0.1891245    0.1366181  78.48 0.0005680433    1.230    0.187
       248  -8.9991     20.5283    166.4654   1.4231122602e+02   3.8237470830e+01    0.3264816    0.1435901  58.79   0.00119569    2.595    0.615
       249  -8.3479    237.2959    169.9898   9.2567900384e+01  -6.0908954275e-01    0.1985775    0.1691647 -30.52 0.0004546102    1.110    0.099
       250  -8.5409    198.5069    170.4878   1.0034315630e+02   6.9586895398e+00    0.1480064    0.1439133  18.55 -1.124839e-05    1.038    0.037
       251  -8.9865    167.0856    168.6038   1.0689129149e+02   1.3996235508e+01     0.366551    0.2632025  78.72  0.001274502    2.019    0.505
       252  -8.4444    149.8812    169.7845   1.1118254921e+02   1.7371532906e+01    0.2807324     0.202357 -86.17 0.0008570263    1.954    0.488
       253  -8.6192    111.5508    167.5148   1.2016977127e+02   2.5483678449e+01    0.3347066    0.2116118  77.77   0.00106512    2.322    0.569
       254  -8.0983    244.4081    169.2003   9.1112498328e+01  -1.7715041534e+00    0.1867008    0.1218298 -45.46 0.0004645781    1.577    0.366
       255  -8.2082     88.5953    168.7762   1.2616766773e+02   2.9153477792e+01    0.2020266    0.1309141 -75.75 0.0006260578    1.649    0.394
       256  -8.3191    218.6861    168.4113   9.5778104483e+01   3.2524310162e+00    0.2041128    0.1743264 -88.76 0.0006456721    1.587    0.370
       257  -8.7683    191.9503    166.6388   1.0091248662e+02   9.1028713179e+00    0.2875334    0.2170094 -51.41 0.0006260041    1.426    0.299
       258  -8.8892    185.0054    166.5318   1.0240259509e+02   1.0602151233e+01    0.2822895    0.2132984 -61.43 0.0006634012    1.569    0.363
       259  -9.7694    136.5471    164.3128   1.1329738936e+02   2.1367144988e+01    0.6140049    0.3152144  60.55  0.001920792    2.817    0.645
       260 -10.1935     95.0359    162.6642   1.2347637643e+02   2.9558302408e+01    0.8752741    0.5143957  89.48  0.003158738    2.719    0.632
       261  -8.1823    233.9905    165.0414   9.2132342927e+01   8.9100456449e-01     0.213087    0.1719179 -69.28   0.00065968    1.685    0.407
       262  -8.5676    159.6005    164.5594   1.0777636397e+02   1.6475892698e+01    0.2977359    0.2186018  87.29 0.0008494949    1.944    0.486
       263  -8.9421     63.1566    164.6144   1.3188430343e+02   3.3911639233e+01    0.2685621    0.1975824 -88.40 0.0006544053    1.325    0.245
       264  -8.8719     60.7071    160.5630   1.3189828018e+02   3.5207569540e+01    0.3370655    0.1827402 -73.15  0.001004755    1.814    0.449
       265  -9.3790     33.4061    163.3425   1.3897619155e+02   3.7717885748e+01    0.5215019    0.2129618  59.50  0.002095809    3.301    0.697
       266  -8.1178    239.9724    164.2734   9.0874712114e+01  -9.8575154197e-02    0.1869654    0.1742956 -12.16  0.000445651    1.040    0.039
       267  -8.6051    212.8880    163.8999   9.5957636701e+01   5.2742831745e+00    0.2534775    0.1976239 -47.64 0.0005643161    1.340    0.254
       268  -7.7308     55.6315    164.6729   1.3375917466e+02   3.4873927773e+01    0.1349963   0.09781209 -36.25 0.0007034441    1.812    0.448
       269  -9.0535    246.0329    163.0368   8.9532995148e+01  -9.9868722961e-01    0.2125114    0.1889708 -22.31  0.000491372    1.017    0.017
       270  -8.4888    204.8598    162.6146   9.7310384173e+01   7.1847673394e+00    0.2831597    0.1896593 -56.55 0.0006278252    1.796    0.443
       271  -9.1078      3.3731    162.4568   1.4576587111e+02   4.0564118265e+01    0.3640526    0.1620632  61.11  0.001846969    2.489    0.598
       272  -8.9162    177.3811    160.8423   1.0285902814e+02   1.3435924944e+01    0.2888968    0.2574909  85.40 0.0008537979    1.284    0.221
       273  -8.6397    151.5922    160.8615   1.0889420644e+02   1.9009474278e+01    0.2924052    0.2295149 -85.78 0.0007535403    1.599    0.375
       274  -8.7531    243.4496    159.5416   8.9249919786e+01   8.8603512075e-02    0.3599837    0.2020469  28.93  0.001214155    2.269    0.559
       275  -8.9430     84.5098    159.5314   1.2563406132e+02   3.2030055892e+01    0.2682071    0.2244397 -86.64 0.0004955075    1.162    0.139
       276  -9.7163     81.2889    154.6265   1.2561426442e+02   3.3718160829e+01    0.4825921    0.2760327  68.40  0.001528396    2.514    0.602
       277  -9.7528    250.2129    157.8323   8.7711363431e+01  -8.5615075832e-01    0.3344608     0.176914 -39.12 0.0008259765    1.722    0.419
       278  -8.0555    236.9775    159.0289   9.0299939332e+01   1.4010344659e+00    0.1759295    0.1529107 -28.90 0.0005298484    1.068    0.064
       279  -8.5490    227.2219    158.9625   9.2092131475e+01   3.3140585580e+00    0.2191618    0.1895255 -57.07 0.0009351037    1.303    0.232
       280  -8.0559    128.3828    159.1447   1.1427087034e+02   2.4219015520e+01    0.2182982    0.1454249 -66.37 0.0005463105    1.718    0.418
       281  -9.9011    105.4166    157.8348   1.1989698863e+02   2.8909274079e+01    0.5033628    0.3352507  74.62  0.001157961    1.989    0.497
       282  -8.7371    100.1742    156.2083   1.2094914396e+02   3.0230442377e+01    0.2421616    0.1744791  77.73 0.0005637248    1.674    0.403
       283  -8.5326    196.5062    157.9967   9.8037786201e+01   9.8783947564e+00    0.2253448     0.149396 -44.27 0.0004798789    1.524    0.344
       284  -8.1631    187.9665    157.9223   9.9859449204e+01   1.1742584507e+01    0.2391859    0.1913502 -86.25 0.0005469443    1.666    0.400
       285  -9.0241    167.6454    157.4381   1.0433644371e+02   1.6293181608e+01    0.3565865    0.2563584  86.47  0.001126426    2.100    0.524
       286  -8.6956    145.0444    155.9406   1.0942591502e+02   2.1517405640e+01    0.4897062     0.242613 -64.35   0.00156238    3.229    0.690
       287  -8.4439     79.2677    158.5557   1.2682319982e+02   3.3075313166e+01    0.1846206    0.1420089  22.17 0.0009472203    1.618    0.382
       288  -9.0626     42.4329    157.4814   1.3604662296e+02   3.8141326551e+01    0.2207124     0.189861 -84.29 0.0005066323    1.030    0.029
       289  -8.3941    217.9306    156.6528   9.3372470122e+01   5.6247093544e+00    0.2926015    0.1845936 -55.69  0.001273035    1.930    0.482
       290  -8.7393    157.3979    156.3658   1.0651709476e+02   1.8765762981e+01    0.2728125    0.2477186  85.34 0.0007808023    1.186    0.157
       291  -9.2660    119.3899    155.2022   1.1575216731e+02   2.6922214780e+01    0.4565053    0.2917941 -80.40  0.001297926    2.279    0.561
       292  -8.1739    204.7989    155.7403   9.5802814374e+01   8.5532280572e+00    0.2005369    0.1785833 -76.99 0.0005250187    1.323    0.244
       293  -9.3968     49.5038    155.4498   1.3398927909e+02   3.7821783295e+01    0.3565103    0.1919474  67.02  0.001580027    2.427    0.588
       294  -9.2814    241.4655    154.2289   8.8466084209e+01   1.4043170620e+00    0.3587212    0.2506798  81.36  0.001586424    2.605    0.616
       295  -9.8539     67.6898    153.8556   1.2905149504e+02   3.5887552610e+01    0.4237289     0.252759  81.27  0.001258343    2.309    0.567
       296  -9.6044    132.8489    153.1167   1.1186466446e+02   2.4720302801e+01    0.4514525    0.3294721  85.01  0.001266478    1.838    0.456
       297  -9.1895    133.4828    148.4914   1.1069115795e+02   2.5666793424e+01    0.3815161    0.2558244 -43.56  0.001143475    1.556    0.357
       298  -8.9949    151.8006    152.7222   1.0705882759e+02   2.0797819846e+01    0.2994313    0.1873626 -58.26  0.001015263    1.803    0.445
       299  -9.5602     29.3821    150.6817   1.3841647622e+02   4.1079923378e+01     0.437626    0.2141272  75.38  0.001869937    2.916    0.657
       300  -8.4904     19.8820    152.6166   1.4097775476e+02   4.1484595886e+01    0.1596244    0.1007486  48.90 0.0006453079    1.708    0.414
       301  -9.5910    248.8495    149.4557   8.6166716234e+01   8.5674610746e-01     0.343706     0.204277 -37.71 0.0008773296    1.529    0.346
       302  -8.9641    247.0404    144.0464   8.5311921421e+01   2.1540351068e+00    0.2925453     0.188799 -37.74 0.0006914219    1.411    0.291
       303  -8.4770    250.2877    141.0154   8.4118572666e+01   2.0714632894e+00    0.2146106    0.1811901 -11.30 0.0005242528    1.258    0.205
       304  -8.5687    243.1883    150.1267   8.7281822702e+01   1.8079715546e+00    0.2582555    0.1737023 -42.15 0.0005867121    1.394    0.283
       305  -9.0306    237.9576    150.4188   8.8265334581e+01   2.7654811226e+00    0.3595307    0.1908355  29.37  0.001425327    2.668    0.625
       306  -9.0707    189.2922    150.2404   9.7835356781e+01   1.3042069497e+01    0.3619184    0.2558683 -61.76 0.0007945593    1.719    0.418
       307  -7.7533    182.4848    151.4460   9.9606347311e+01   1.4300362883e+01    0.1552809    0.1507779  72.90 0.0001106334    1.065    0.061
       308  -7.9960    162.5462    150.7997   1.0404125091e+02   1.8871296919e+01    0.2185812    0.1516762 -60.93 0.0008208602    1.666    0.400
       309  -8.7050     98.1013    150.5312   1.2039406049e+02   3.1960201498e+01    0.2914799    0.2018948 -76.10 0.0008161187    1.639    0.390
       310  -8.1949    212.9759    149.9808   9.2862460171e+01   7.9442701031e+00     0.222619    0.1817082 -77.47 0.0004540085    1.578    0.366
       311  -9.8858     39.9562    148.1014   1.3539121859e+02   4.0634504131e+01    0.5166221    0.2586514  68.30  0.001940176    2.943    0.660
       312  -8.5957      3.3202    150.6478   1.4469477288e+02   4.3220989610e+01    0.1236094    0.0721209  73.38 0.0007047527    1.747    0.428
       313  -8.0944    198.7856    148.8231   9.5488232097e+01   1.1238356205e+01    0.2061854    0.1789563 -73.08 0.0004303332    1.335    0.251
       314 -10.2018     88.9786    146.3931   1.2203344708e+02   3.4495459364e+01    0.6804037    0.4308132 -82.51  0.002775039    2.083    0.520
       315 -11.3569     68.6032    142.1552   1.2679424348e+02   3.8591800066e+01     1.521956    0.5380827 -48.64  0.005530902    2.831    0.647
       316 -10.6738     54.7696    144.1749   1.3089542044e+02   3.9898051626e+01    0.9208281    0.4973647 -89.66  0.003072889    2.686    0.628
       317 -10.3995     62.0172    135.8184   1.2747272202e+02   4.0999289152e+01     0.557911    0.2613468  38.51  0.001480685    2.264    0.558
       318 -10.1117     73.2930    134.2392   1.2400024144e+02   3.9840243444e+01    0.5581291    0.2057047  42.97  0.002067039    2.900    0.655
       319 -10.2607     73.1155    129.6461   1.2313578239e+02   4.0966989507e+01    0.6017917      0.31238 -63.69  0.002140289    1.936    0.484
       320  -8.9013    233.5509    147.6986   8.8461463380e+01   4.1318145974e+00    0.2704081    0.1339241 -34.85 0.0008325686    1.995    0.499
       321  -7.8541    178.4940    148.5106   9.9826827690e+01   1.5812045262e+01    0.2434777     0.150252  57.34 0.0009792791    1.827    0.453
       322  -8.1785    175.4270    146.1888   9.9984557277e+01   1.6996851694e+01    0.2531428    0.1931808  89.27 0.0008230912    1.793    0.442
       323  -8.9586     78.4420    147.4509   1.2508124526e+02   3.5890469494e+01    0.3225589    0.1979131  74.93 0.0008825947    2.347    0.574
       324 -10.1510    148.9487    144.9457   1.0599413665e+02   2.3178289846e+01    0.5942153    0.3955659 -82.88  0.001686473    2.482    0.597
       325  -9.2965    138.9471    145.2211   1.0856478959e+02   2.5275448781e+01    0.4869957    0.2866939 -63.64  0.001142767    2.150    0.535
       326  -9.8031    138.7804    137.8506   1.0690146929e+02   2.7006958112e+01    0.4978248    0.4663267  60.50  0.002565215    1.058    0.055
       327  -9.8406    132.0607    131.0773   1.0703167165e+02   3.0000165353e+01    0.6118147     0.381909 -76.07  0.001469928    2.694    0.629
       328 -10.3424    106.4185    143.9074   1.1681136956e+02   3.2070112982e+01    0.7898194    0.4731767 -81.39   0.00253543    2.767    0.639
       329  -8.0971    223.4432    146.9769   9.0166887533e+01   6.3244115234e+00    0.2198743    0.1381731 -40.80 0.0003800706    1.522    0.343
       330  -9.3429     13.5475    146.3886   1.4181743627e+02   4.3436547882e+01    0.3351836    0.1687112  61.56  0.001331435    2.365    0.577
       331  -8.9706    240.4261    145.4966   8.6759885490e+01   3.1734779160e+00    0.2614165    0.1881481 -38.77 0.0005164681    1.283    0.221
       332  -9.4960    242.7026    143.3306   8.5894742843e+01   3.1190579349e+00    0.4597029    0.2145412 -29.42  0.001774729    2.508    0.601
       333  -8.0619    206.7651    146.5731   9.3333406669e+01   9.9463898702e+00      0.19955     0.146604  59.90 0.0004159509    1.541    0.351
       334  -8.6267     32.9192    145.1667   1.3680078389e+02   4.2038425217e+01    0.2852277    0.1553418  70.23   0.00133906    2.382    0.580
       335  -9.8026    125.0028    142.8393   1.1162792611e+02   2.8730154445e+01    0.5487129    0.3520936 -80.64  0.001369767    2.473    0.596
       336  -8.7040    165.6547    144.1407   1.0177053661e+02   1.9642419340e+01    0.2643254     0.215679  63.30  0.000631066    1.314    0.239
       337  -9.3991    225.0910    142.4261   8.8840057415e+01   6.8417332515e+00     0.292199    0.2213469 -41.91 0.0008175276    1.261    0.207
       338  -9.3871      2.7865    142.0291   1.4396529965e+02   4.5201500406e+01     0.309279    0.1605174  74.41  0.001638106    2.190    0.543
       339  -8.2903    181.9884    141.9442   9.7515693375e+01   1.6416132736e+01    0.2480447    0.1946752 -85.85 0.0005585095    1.670    0.401
       340  -8.9164     46.3909    140.8238   1.3261476126e+02   4.1673286673e+01    0.2095762    0.1710117  57.72 0.0005544511    1.317    0.241
       341  -9.7048     23.7331    138.4996   1.3829076705e+02   4.4434687331e+01    0.5123805      0.25519  66.50  0.002066325    2.813    0.644
       342  -8.8040    114.7881    138.6213   1.1340102611e+02   3.1751026951e+01    0.3115438     0.228788  73.31  0.001231852    1.712    0.416
       343  -8.5157     19.2242    139.3936   1.3957084286e+02   4.4600543645e+01     0.158242    0.1062983  45.79 0.0009528422    1.677    0.404
       344  -8.3151    207.4873    137.9979   9.1215545567e+01   1.1485970148e+01     0.226917    0.1464275 -43.58 0.0004997191    1.518    0.341
       345  -8.5921    197.5637    137.6998   9.3166017482e+01   1.3764253275e+01    0.3008474    0.2218059 -68.01  0.001078138    1.710    0.415
       346  -8.7718     93.1716    137.5515   1.1909543081e+02   3.5933254011e+01    0.3985736    0.2124079  52.87  0.001302272    2.211    0.548
       347  -8.4281     80.8318    138.3540   1.2269421700e+02   3.7728879330e+01    0.2344129    0.2014591 -24.44  0.001269684    1.366    0.268
       348 -10.2369     83.3684    132.9770   1.2089091905e+02   3.8629345576e+01    0.5188385    0.3083341 -69.52  0.001235188    1.913    0.477
       349  -8.8834    250.7426    130.1110   8.1692879235e+01   3.9074489095e+00    0.4285993    0.1147091 -36.51  0.001315196    3.777    0.735
       350  -9.1724    248.4283    135.3449   8.3200336597e+01   3.4313170754e+00    0.3079018    0.2141161 -40.16 0.0007738653    1.300    0.231
       351  -8.3985    246.8828    130.1572   8.2323931289e+01   4.6567561370e+00    0.2478961    0.1696586 -46.96 0.0006719963    1.373    0.271
       352  -8.1851    187.6351    135.7512   9.4810286419e+01   1.6423568149e+01    0.2219789     0.144349 -52.00 0.0003638724    1.633    0.388
       353  -7.9603    162.5240    136.5263   1.0070689338e+02   2.2021940212e+01    0.1612668     0.153143  82.78  0.000182446    1.083    0.076
       354  -9.3270     39.0112    136.0129   1.3386601994e+02   4.3598922183e+01    0.2573075     0.174067  73.71 0.0009320973    1.720    0.418
       355  -8.6044    179.4856    134.0581   9.6195422940e+01   1.8654272936e+01    0.3486095    0.2131572 -58.54 0.0009036285    1.990    0.497
       356  -8.6979    237.6639    133.5898   8.4619450535e+01   5.8890375360e+00    0.2506225     0.157005 -54.22  0.001092039    1.755    0.430
       357  -7.6478    231.2883    134.2892   8.5887681043e+01   7.0735894665e+00    0.1406337    0.1128445   1.01  0.000215484    1.538    0.350
       358  -9.0143    112.8312    133.4321   1.1275552250e+02   3.3355742357e+01    0.3507096    0.2495852  77.58  0.001084899    1.935    0.483
       359  -8.1427      9.6809    134.3107   1.4139882078e+02   4.6485061387e+01    0.1199889   0.07845543  74.19 0.0003932463    1.644    0.392
       360 -10.3734     98.2485    130.2828   1.1609469830e+02   3.6794438224e+01    0.6522277    0.2827791 -56.27  0.001783767    2.334    0.572
       361 -10.5683     60.7053    125.8903   1.2598267406e+02   4.3539170586e+01    0.8678166    0.4928746  75.67  0.003306011    3.352    0.702
       362  -9.0141    143.0350    131.7728   1.0435942315e+02   2.7463703679e+01    0.3209044    0.2540325 -74.14 0.0007936979    1.495    0.331
       363 -10.1476     13.0164    129.4951   1.3993789051e+02   4.7349704548e+01    0.4230184    0.2313215  73.90  0.002160942    2.327    0.570
       364  -7.9348    204.4725    130.2572   9.0002310283e+01   1.3694680916e+01    0.2153414    0.1418643 -53.02  0.000645883    1.618    0.382
       365  -8.4405    172.0809    138.0835   9.8841430497e+01   1.9499358953e+01       0.2508    0.1953636 -86.48 0.0006108741    1.677    0.404
       366  -8.8375    168.2160    129.5743   9.7673876939e+01   2.2222572710e+01    0.3279736    0.2419609 -76.30 0.0008066532    1.805    0.446
       367  -9.6848    152.9198    128.2461   1.0101458440e+02   2.6035240544e+01     0.636578    0.3007205 -46.65  0.001908738    2.152    0.535
       368 -10.8029     45.0376    123.8312   1.3015596658e+02   4.5850281136e+01     1.068173    0.5651305  80.58  0.003928054    3.887    0.743
       369  -8.3679     30.9900    130.5212   1.3522494971e+02   4.5660593470e+01    0.1641356    0.1258998  32.59 0.0005027923    1.536    0.349
       370  -7.7229      1.6496    130.3282   1.4299349475e+02   4.7909925391e+01    0.1200572   0.07481864  72.06 0.0007048379    1.764    0.433
       371  -7.9074    211.5163    129.0247   8.8331880684e+01   1.2351127935e+01    0.2163819    0.1251141 -61.26 0.0008086885    2.418    0.587
       372  -9.9260    117.9890    125.6056   1.0949110497e+02   3.4170315611e+01     0.533954    0.3572861  79.90  0.001556826    2.448    0.591
       373  -8.0550    228.4659    125.5272   8.4402556647e+01   9.3004117438e+00    0.1472999    0.1357833 -56.70 0.0008081322    1.069    0.064
       374  -8.7802    179.3472    124.8486   9.3976657221e+01   2.0619159747e+01    0.2986965    0.2406941  84.86 0.0007348111    1.502    0.334
       375 -10.2793     28.1624    122.1614   1.3472981470e+02   4.7854948985e+01    0.7229301    0.3570764  79.30  0.002735646    3.994    0.750
       376  -8.9430    243.5003    124.0722   8.1536768354e+01   6.4231760434e+00    0.1980054    0.1848905 -45.54 0.0004271839    1.024    0.023
       377  -7.5666    188.6459    124.3120   9.1827217905e+01   1.8545014117e+01    0.1639357    0.1247594 -85.50 0.0005045242    1.731    0.422
       378  -8.8003    135.5340    124.4888   1.0450195797e+02   3.0752745403e+01    0.2810715    0.1508084  33.61  0.001024909    2.213    0.548
       379  -7.9725    194.8031    122.0101   8.9977738589e+01   1.7568486112e+01      0.21133    0.1210963 -41.45 0.0004633902    1.730    0.422
       380  -8.5818    172.0554    121.8123   9.4858554629e+01   2.2974057408e+01    0.2421451    0.2118807 -87.38  0.000513541    1.272    0.214
       381  -9.1853    158.4817    121.5420   9.7975431912e+01   2.6218033428e+01    0.3319204    0.2617731 -79.02 0.0009715019    1.572    0.364
       382  -9.5851     70.9987    120.0059   1.2174316709e+02   4.3554536755e+01    0.3420758    0.2388968  85.38 0.0009688503    1.998    0.500
       383  -9.7399    141.5416    118.5932   1.0144678193e+02   3.0739288171e+01    0.4427575    0.3028489 -72.21  0.001097942    2.051    0.512
       384  -9.4924    130.7446    118.6507   1.0429478527e+02   3.3100599856e+01    0.4185322     0.306365 -82.45  0.001100627    1.923    0.480
       385  -9.0212     21.0013    118.7841   1.3624762924e+02   4.9211909567e+01     0.204122      0.15982  59.15 0.0008346303    1.489    0.328
       386  -9.6690      2.6585    117.3658   1.4117981355e+02   5.0754752918e+01     0.391695    0.1923136  81.19  0.001870211    2.785    0.641
       387  -8.1169    185.5448    116.0360   9.0435354325e+01   2.0959660165e+01    0.2341908    0.1537229 -43.17 0.0004412446    1.522    0.343
       388 -10.2138    109.1920    114.0779   1.0909431069e+02   3.8541768420e+01    0.5855505    0.3620876 -66.13  0.001494663    2.129    0.530
       389  -9.8101    112.8472    106.9159   1.0618506760e+02   3.9423464186e+01    0.6618271    0.2489467  38.35   0.00220039    2.853    0.650
       390  -8.8466    250.2898    115.0211   7.8483976856e+01   6.6515503802e+00    0.1999342    0.1672668 -46.07 0.0007399976    1.071    0.067
       391  -7.8888    193.0130    115.4971   8.8743293375e+01   1.9290838000e+01    0.2003376    0.1373822  83.64 0.0003920144    2.112    0.526
       392  -7.8503    153.2786    115.6375   9.7728282912e+01   2.8697939552e+01    0.1639865    0.1263385 -80.02 0.0004764349    1.671    0.402
       393  -9.4363     36.5584    115.0474   1.3108111020e+02   4.8745733097e+01    0.2201249    0.1705237  54.67 0.0006524816    1.525    0.344
       394  -8.2571    135.3621    113.6824   1.0178334716e+02   3.3192955283e+01    0.2480543    0.1626772 -49.08 0.0009012934    1.556    0.357
       395 -10.1449    133.4130    108.8847   1.0103116627e+02   3.4665968040e+01    0.6707377    0.3130734 -42.35  0.001783023    2.187    0.543
       396 -10.0163     92.7301    112.4264   1.1349048432e+02   4.1922257451e+01    0.5345588    0.3335077 -68.48  0.001440508    2.083    0.520
       397  -8.9500     93.6199    104.6243   1.1124544924e+02   4.3527028441e+01    0.5178218    0.2580951  20.83  0.001706871    3.633    0.725
       398 -10.1394     78.8165    112.3776   1.1766911494e+02   4.4186894747e+01    0.5756968     0.362408 -74.95  0.002059677    2.208    0.547
       399  -9.7484    121.9749    112.7192   1.0514674476e+02   3.6280568883e+01    0.3335595    0.2681144  65.63 0.0007942825    1.423    0.297
       400  -8.2631    174.7071    112.0364   9.1776961885e+01   2.4368067469e+01    0.2519439    0.1878134 -58.29 0.0004899254    1.462    0.316
       401  -8.4365    159.2134    111.8657   9.5306796019e+01   2.8104206438e+01    0.2415964    0.2125445 -77.86 0.0005401904    1.249    0.200
       402 -10.4520     66.4614    110.1527   1.2094560603e+02   4.6470009172e+01    0.5501759    0.3455304 -63.44  0.002021148    1.619    0.382
       403  -9.6707     14.1485    111.4478   1.3710829861e+02   5.1367919566e+01    0.2961349    0.1824768  76.65 0.0009379887    2.103    0.524
       404  -9.4874      8.0720    109.8172   1.3863098899e+02   5.2119944183e+01     0.408002    0.1447099  41.02  0.001851638    3.544    0.718
       405 -10.4314    248.2523    108.3312   7.7327991136e+01   8.2354210202e+00    0.4160981    0.3000662 -55.91  0.001922458    1.351    0.260
       406 -10.8445    249.2012    103.5867   7.6148601062e+01   8.8624522809e+00    0.4387917    0.3381862 -54.86  0.002424547    1.205    0.170
       407 -10.6268     22.8984    102.9439   1.3307202666e+02   5.2650751726e+01    0.6043048    0.3607152  76.95  0.002557974    2.608    0.617
       408  -8.4913    166.7679    104.2771   9.1543295775e+01   2.7856026620e+01    0.2699054    0.2067738 -54.95 0.0005967255    1.381    0.276
       409  -9.4516    150.6163    103.2638   9.5105394206e+01   3.1921212215e+01     0.435535    0.2794922 -65.73   0.00118107    2.175    0.540
       410  -9.6565    139.7584    104.0620   9.8065871187e+01   3.4269892034e+01    0.4837769    0.2767667 -50.29  0.001381418    1.865    0.464
       411  -9.4298     51.2048    113.3273   1.2632305590e+02   4.7626126028e+01    0.2618915    0.2230619  59.33 0.0007266331    1.359    0.264
       412 -10.4961     45.4033    102.2234   1.2582408779e+02   5.0792008850e+01    0.6473201     0.396904  76.62  0.002820034    3.037    0.671
       413  -9.8539    128.4033    102.0371   1.0052309219e+02   3.7227140043e+01    0.3455335    0.2701378 -76.90 0.0008416215    1.656    0.396
       414 -10.4831    108.9971     99.0177   1.0516041997e+02   4.1897031506e+01    0.7434504    0.4802119  74.75  0.001794459    2.942    0.660
       415  -8.7759    107.6118     92.7039   1.0379988128e+02   4.3497697260e+01    0.4355785    0.2506066  20.82   0.00162872    2.669    0.625
       416  -8.8151      6.8925    103.1937   1.3799465204e+02   5.3655386105e+01    0.1791361    0.1415434  88.65  0.001221655    1.357    0.263
       417  -7.9687    175.5263    102.4685   8.9114653447e+01   2.6089796212e+01    0.1581219    0.1508479  87.44  1.79858e-05    1.040    0.039
       418  -8.0852    159.5653    101.0012   9.2338127352e+01   3.0251899682e+01    0.2326122    0.1546981 -44.76 0.0004649643    1.535    0.349
       419  -9.3894     82.0854    100.0731   1.1361536730e+02   4.6454552059e+01    0.3561897    0.2529081 -75.07  0.001066795    1.932    0.482
       420  -9.1379     94.9204     97.0537   1.0883208668e+02   4.4953306773e+01    0.3159328    0.2064734 -56.14 0.0005629878    1.654    0.396
       421 -10.1489     63.9429     95.9896   1.1837816848e+02   4.9988340262e+01     0.493219    0.3335997  89.65   0.00177688    2.603    0.616
       422  -9.1407     56.7380     95.0313   1.2050139753e+02   5.1110728264e+01    0.2401426     0.193496  41.58 0.0009540099    1.432    0.301
       423  -8.0399    165.1128     94.1954   8.9217585288e+01   3.0249184569e+01    0.2143666    0.1809459 -75.50 0.0003946906    1.328    0.247
       424  -9.3742    139.0570     92.4547   9.5026847052e+01   3.6802528964e+01    0.3912406    0.2831928 -83.37  0.001007103    2.076    0.518
       425  -7.8959    176.3986     93.1952   8.6480736454e+01   2.7668951257e+01     0.221216    0.1413079 -52.60 0.0006130065    1.690    0.408
       426 -10.0130    123.6367     91.4539   9.8858987550e+01   4.0447576763e+01    0.5923132    0.4055273  28.87  0.001549557    1.654    0.395
       427  -9.4496     46.3287     92.5793   1.2336471640e+02   5.2830228079e+01    0.3967213    0.2089168   8.44  0.001760738    2.819    0.645
       428  -8.7449     29.8521     92.2212   1.2876617145e+02   5.4465741469e+01    0.2382923    0.1329414 -73.22  0.001184779    2.072    0.517
       429  -9.6395      5.2976     92.4677   1.3677936352e+02   5.6077208196e+01    0.3013082    0.1634376  46.29  0.001314328    2.517    0.603
       430  -8.9077     43.3611    109.4192   1.2794917154e+02   4.9370942384e+01    0.2363355    0.1223343   3.15 0.0009544967    3.471    0.712
       431  -9.4890     34.7155     90.0005   1.2666593231e+02   5.4527129369e+01    0.4062206    0.2464526 -85.67  0.001870207    2.692    0.629
       432  -7.8598    189.3711    108.1942   8.7662590253e+01   2.1604278128e+01    0.2265743    0.1399374 -51.54 0.0006134511    1.706    0.414
       433  -9.1847     23.0906     90.2545   1.3060271432e+02   5.5424397855e+01    0.2376113    0.1892126 -18.08  0.001139958    1.351    0.260
       434  -8.9711    151.0527     89.4446   9.1186369226e+01   3.4570717893e+01    0.2418477    0.2059949 -43.56 0.0004576211    1.211    0.174
       435 -10.1076     86.4923     85.7583   1.0830350782e+02   4.8782747731e+01    0.7106307    0.4030736 -41.62  0.002052739    1.691    0.409
       436  -9.9376     48.4104     84.2956   1.2064078099e+02   5.4381441678e+01    0.4288675    0.3039991  83.62  0.001841037    2.447    0.591
       437  -9.7351    104.8251     83.2704   1.0188666178e+02   4.5950995642e+01     0.435657    0.3227908 -67.55  0.001172491    1.849    0.459
       438  -9.1983    105.7575     76.9132   9.9689274267e+01   4.6994559167e+01    0.3920767    0.1864953  33.26  0.001490794    2.434    0.589
       439  -8.0603    158.0127     83.9847   8.8015286084e+01   3.3916183852e+01    0.2361342    0.1844317 -74.85 0.0004673777    1.566    0.361
       440  -8.9160    140.7943     83.1012   9.1902498001e+01   3.8206554559e+01    0.3039511     0.205945 -52.73 0.0006447346    1.662    0.398
       441  -8.6637    127.9894     83.6118   9.5389397004e+01   4.1035441784e+01    0.3635466    0.1795121  34.96  0.001324074    2.417    0.586
       442  -9.7652     10.2439     81.5269   1.3318536576e+02   5.8127425294e+01    0.3529719    0.2127285  71.17  0.001823485    2.911    0.656
       443  -9.6769     24.5485     80.4494   1.2802225168e+02   5.7400598678e+01    0.3792399     0.236995 -83.66  0.001418007    2.393    0.582
       444  -8.3536    150.4599     80.9538   8.8917673188e+01   3.6306958557e+01    0.2269389    0.1520788 -41.57  0.001010334    1.550    0.355
       445  -8.6797    119.1708     79.9650   9.6729476882e+01   4.3653844429e+01    0.3398699    0.2260111 -64.03 0.0009854812    2.184    0.542
       446  -8.6561     74.6865     80.8072   1.1073215393e+02   5.1675364540e+01    0.2506282    0.1820893 -60.08  0.001071458    1.626    0.385
       447  -8.2277    166.5578     79.9280   8.4983336058e+01   3.2549086579e+01    0.2213164    0.1528716 -37.76 0.0004555235    1.518    0.341
       448  -8.4916    183.9083     78.6828   8.1104247365e+01   2.8444173425e+01    0.2470931    0.2165529 -16.36 0.0007152593    1.346    0.257
       449  -9.0293     65.0000     78.0099   1.1320970067e+02   5.3634148689e+01    0.3551264    0.1944489 -50.82   0.00121127    1.774    0.436
       450  -9.9056     63.3959     73.6343   1.1249472497e+02   5.4722479822e+01    0.4201094    0.2283748 -57.04  0.001482733    2.186    0.543
       451  -8.3782    157.3646     77.0941   8.6215272874e+01   3.5322030470e+01    0.2179391    0.1370349 -50.66 0.0008040867    1.761    0.432
       452  -9.1846    128.0740     75.2983   9.2885036131e+01   4.2564852878e+01    0.3352796    0.2301602 -54.15 0.0006288939    1.725    0.420
       453  -8.5413    140.4068     75.2661   8.9701754942e+01   3.9731279879e+01    0.2095213    0.1425334 -49.27 0.0009423623    1.618    0.382
       454  -8.6874    163.3643     73.7097   8.3934269728e+01   3.4432457375e+01    0.2645677    0.2287038 -81.72 0.0007656716    1.261    0.207
       455  -7.9342    151.4700     73.5256   8.6537302874e+01   3.7388367267e+01    0.1521533    0.1442412  67.73 0.0008089493    1.045    0.043
       456  -8.7109    115.7088     72.9364   9.5563242294e+01   4.5690689838e+01    0.2591331    0.2010228 -55.38 0.0007830916    1.519    0.341
       457  -9.3085     95.3091     71.5198   1.0121531139e+02   5.0002616590e+01    0.3643753    0.2441598 -58.57  0.001058802    2.009    0.502
       458  -8.1130     42.5977     72.8158   1.1968324904e+02   5.7360056845e+01    0.1725188    0.1125695 -61.66 0.0005869985    1.711    0.416
       459  -9.6714     82.3833     72.7647   1.0576681941e+02   5.2034949389e+01     0.368616    0.2598848 -60.95 0.0009840145    1.892    0.471
       460  -8.9283    105.8157     71.9127   9.8124145569e+01   4.7910303660e+01    0.2506369    0.1985231 -59.55 0.0005842219    1.569    0.363
       461  -9.5663     51.4459     69.8038   1.1562771349e+02   5.6982142639e+01    0.4240509    0.2502402 -66.95  0.001621776    2.692    0.629
       462  -8.6016     28.4660     70.6995   1.2429166442e+02   5.9090745309e+01     0.233511    0.1286693 -20.78 0.0007016007    2.100    0.524
       463  -8.3319     32.4741     68.0031   1.2210673555e+02   5.9285685292e+01     0.205538    0.1505273  -8.91 0.0006235166    1.403    0.287
       464  -8.8708     16.7037     70.3420   1.2852118829e+02   6.0031295675e+01    0.2143985    0.1771134  79.26 0.0008775711    1.707    0.414
       465  -9.9800    238.2544     68.2708   6.9868794816e+01   1.7110412614e+01    0.2362833    0.2187485 -69.11 0.0002563446    1.111    0.100
       466  -8.7833    147.0936     68.3786   8.6047943319e+01   3.9329245130e+01    0.2735559    0.2164617 -48.59 0.0005216139    1.365    0.267
       467  -8.8536    138.6562     66.4496   8.7492560815e+01   4.1666299949e+01    0.2826262    0.2164436 -68.31 0.0007337444    1.683    0.406
       468  -8.8514    121.7157     66.1645   9.1782334717e+01   4.5582031350e+01    0.3089197    0.2180329 -58.27 0.0007355811    1.842    0.457
       469  -8.7943     37.4078     64.5548   1.1930863431e+02   5.9502131721e+01     0.238498    0.1910168 -88.78 0.0009593184    2.004    0.501
       470  -9.0160    110.0533     63.8316   9.4312621241e+01   4.8470182730e+01    0.2374281     0.204522 -35.79 0.0005971871    1.218    0.179
       471  -8.6544     64.0246     63.7983   1.0926872423e+02   5.6509048605e+01    0.2278616    0.1413063  -4.22  0.001081916    2.134    0.531
       472  -8.1335    158.1620     62.0977   8.1734905104e+01   3.7646555827e+01    0.2015269    0.1714462 -77.69  0.000390418    1.310    0.237
       473  -9.3888     97.5804     60.8211   9.7064482246e+01   5.1466011996e+01    0.3107672     0.261861 -39.37  0.001113342    1.273    0.214
       474  -9.6020     73.2807     59.5502   1.0462937635e+02   5.5908128042e+01    0.3658695    0.2218893 -49.89  0.001112595    1.904    0.475
       475  -7.8326    164.4090     59.8002   7.9779624288e+01   3.6452847495e+01    0.1856775    0.1471467 -17.33 0.0003063028    1.521    0.343
       476  -7.8424     88.7448     59.3805   9.9381737716e+01   5.3347449176e+01    0.1289532    0.1092358 -67.73 0.0005236213    1.662    0.398
       477  -9.9256     23.4317     56.5416   1.2242986920e+02   6.2241929068e+01    0.3848116    0.2643327 -82.23  0.002105537    2.658    0.624
       478  -8.2091    130.9082     57.9862   8.6807392956e+01   4.4844401810e+01    0.2183461    0.1764379 -78.92 0.0005426151    1.632    0.387
       479  -9.4483      7.3612     57.1614   1.2890147442e+02   6.3180310469e+01    0.2525335    0.1850186 -74.36 0.0009892568    1.691    0.409
       480  -8.9229    119.3002     56.0499   8.9211440949e+01   4.7762742569e+01    0.2782188    0.2124063 -59.14 0.0008222926    1.699    0.411
       481  -9.5226     54.2626     55.6433   1.1021524637e+02   5.9276096798e+01    0.3119451    0.2042182 -51.96  0.001124435    1.752    0.429
       482  -8.3881    140.0074     56.2777   8.4064165996e+01   4.2974224093e+01    0.2043476    0.1877328  56.40 0.0005031191    1.052    0.050
       483  -8.7876     44.0059     55.4822   1.1406535990e+02   6.0515738854e+01    0.2239947    0.1635929 -56.04 0.0009217883    1.641    0.391
       484  -8.0407    152.6304     53.7841   8.0482439342e+01   4.0290724225e+01    0.1973087    0.1343473 -45.38 0.0009372195    1.607    0.378
       485  -8.7602    105.8058     53.3101   9.2092485528e+01   5.1053237124e+01    0.2288334    0.1867441 -41.97 0.0005902629    1.371    0.271
       486  -9.4656     92.3701     50.6343   9.5256367280e+01   5.4102636150e+01    0.3493855    0.2215251 -48.40  0.001137305    1.969    0.492
       487  -8.4582    144.5877     49.2977   8.0882717323e+01   4.2907287844e+01    0.2547204    0.1357292 -38.75 0.0005984688    2.023    0.506
       488  -8.1900    130.1232     49.1630   8.4210136749e+01   4.6353122213e+01    0.1907576    0.1702662 -81.87 0.0004283486    1.339    0.253
       489  -8.0502    163.5512     48.4934   7.6728356875e+01   3.8347224912e+01    0.1454705    0.1322058  61.68 0.0002942941    1.023    0.022
       490  -8.7812    120.9061     47.5927   8.6027136772e+01   4.8672903888e+01    0.2394758    0.2016436 -36.05 0.0005093127    1.302    0.232
       491  -8.5727    112.1542     46.8120   8.8108090001e+01   5.0696287929e+01    0.2292017    0.1848289 -41.88 0.0006843809    1.409    0.290
       492  -9.2306     81.9978     46.1547   9.7049071185e+01   5.6664158924e+01    0.2768939    0.1830788 -41.92 0.0007660615    1.682    0.406
       493  -8.6093     45.0777     44.7333   1.1007917060e+02   6.2255198816e+01    0.1967115    0.1514101 -42.42 0.0005668658    1.389    0.280
       494  -9.1790     16.6429     44.6524   1.2172134086e+02   6.4911021738e+01     0.201239    0.1581787 -57.76  0.000759993    1.505    0.336
       495  -8.7932    132.9858     43.7396   8.1795412949e+01   4.6446440978e+01    0.2417777    0.1915625 -67.41 0.0007619568    1.619    0.382
       496  -8.6520     92.6603     43.1435   9.2544613391e+01   5.5165995515e+01    0.2841538    0.1581748  -5.88  0.001145526    2.927    0.658
       497  -8.8991     58.1278     42.7160   1.0430414692e+02   6.0923469935e+01    0.2581431    0.1687182 -50.94 0.0009300414    2.032    0.508
       498  -7.8040    101.3010     43.3452   9.0005672394e+01   5.3444237271e+01    0.1430474     0.097657  13.90 0.0007038083    1.681    0.405
       499  -9.3073     69.5352     41.8667   9.9803022930e+01   5.9372290240e+01    0.3107429    0.2134718 -47.04  0.001053403    1.825    0.452
       500  -9.6810      5.2428     42.2058   1.2581321134e+02   6.6057051825e+01     0.250873    0.1740633 -68.22  0.001496711    1.854    0.461
       501  -8.6202    105.9865     41.3841   8.7975246518e+01   5.2757690008e+01    0.2347364     0.185297 -47.68 0.0005790318    1.557    0.358
       502  -7.8789    206.4442     41.4609   6.7903503023e+01   2.8603794999e+01    0.1381998    0.1221067  85.18 0.0002829314    1.044    0.043
       503  -7.8407    140.4424     41.5277   7.9406401071e+01   4.4975803887e+01    0.1413683    0.1286761  56.01 0.0001789377    1.038    0.036
       504  -8.5100     36.7930     40.8714   1.1208094527e+02   6.3802626511e+01    0.1933758    0.1544725 -48.78 0.0006178004    1.534    0.348
       505  -8.5847     95.1810     38.2307   9.0020648224e+01   5.5363735160e+01    0.2235176     0.171634 -59.27 0.0009179077    1.952    0.488
       506  -8.0840     80.6306     36.8152   9.4116524212e+01   5.8255587843e+01    0.1687057    0.1155328 -39.56 0.0003690172    1.663    0.399
       507  -9.5382     26.1556     35.6100   1.1471812321e+02   6.5688369081e+01    0.2619199    0.2009539 -54.01 0.0009343557    1.704    0.413
       508  -8.3282    200.8541     35.8205   6.7292384791e+01   3.0729295926e+01    0.1983949     0.170623  65.24 0.0004640138    1.161    0.138
       509  -8.0954    126.0014     35.9340   8.0925649228e+01   4.9085022269e+01    0.1627096    0.1501717  30.98 0.0004359498    1.062    0.058
       510  -8.6827    111.7102     34.8152   8.4138538948e+01   5.2406908276e+01    0.2306315    0.1784506 -46.04 0.0007261451    1.577    0.366
       511  -8.6194    119.2431     33.5729   8.1784822139e+01   5.0906983419e+01     0.235188    0.1582697 -41.52 0.0007529834    1.735    0.424
       512  -7.7489     88.3272     34.6729   9.0839096788e+01   5.7147605449e+01    0.1196875    0.1067649 -82.38 0.0007050309    1.701    0.412
       513  -8.9373     48.6177     33.6138   1.0462665585e+02   6.3569657147e+01    0.2108223     0.183511 -15.10 0.0006823786    1.223    0.183
       514  -8.5493     60.5208     32.6685   9.9655769247e+01   6.2075240211e+01    0.1920793    0.1658105 -35.19 0.0006143932    1.437    0.304
       515  -9.0068     72.1422     31.2420   9.4904008271e+01   6.0454807918e+01    0.2018883    0.1599354 -54.34 0.0004539299    1.950    0.487
       516  -9.3129     12.9774     30.2360   1.1866448767e+02   6.7611001070e+01    0.2423112    0.1418402 -55.52  0.001023162    2.017    0.504
       517  -8.1643    101.4229     29.2709   8.4983792522e+01   5.5250311561e+01     0.169506    0.1222439 -37.66 0.0007491293    1.613    0.380
       518  -7.5173    215.2829     33.6802   6.4933149761e+01   2.7497326869e+01    0.1399697   0.08963154 -69.54 0.0003893065    1.587    0.370
       519  -8.3928    208.7779     27.6344   6.4315988184e+01   2.9831724220e+01    0.2009392    0.1450229  61.18 0.0006322158    1.343    0.255
       520  -8.7451     81.3825     27.5089   9.0367592969e+01   5.9332630312e+01    0.2273287    0.1988726  88.26 0.0007523173    1.859    0.462
       521  -9.1678      3.3221     27.2361   1.2206389457e+02   6.8713193363e+01    0.2464196    0.1529879 -64.01    0.0014081    2.323    0.570
       522  -8.8150     91.9026     26.5524   8.6737176283e+01   5.7475034232e+01     0.221909    0.1728604 -42.34 0.0007217829    1.620    0.383
       523  -8.8124    183.7394     23.8675   6.6660203692e+01   3.6436707260e+01    0.2740449     0.157941 -83.94  0.001233034    2.117    0.528
       524  -8.5976     34.2292     23.2025   1.0655117458e+02   6.6767911221e+01    0.1421545    0.1261614 -13.27 0.0005479965    1.370    0.270
       525  -8.8949     63.6341     21.1897   9.3966209985e+01   6.3096186223e+01    0.2506723     0.173026 -38.51  0.001135772    1.776    0.437
       526  -8.7155     48.3204     21.7327   1.0005367150e+02   6.5256151070e+01    0.1829626    0.1583249 -10.07 0.0006163453    1.268    0.212
       527  -9.8183    248.5884    242.5654   1.0440630213e+02  -1.3612201227e+01    0.2609968    0.2209981 -43.43  0.001213901    1.744    0.427
       528  -7.6661    120.5310     21.0337   7.7248732820e+01   5.2036860553e+01    0.1720805    0.1045202 -53.16 0.0008075485    2.386    0.581
       529  -8.4804     19.5123     21.5317   1.1248508789e+02   6.8444314527e+01    0.1107892   0.08405665 -16.07 0.0001056251    1.054    0.052
       530  -8.7361     74.1593     19.6005   8.9656558958e+01   6.1538953568e+01    0.2154809    0.1821718 -47.97 0.0007627389    1.727    0.421
       531  -8.1942     87.8033     17.8094   8.4650428802e+01   5.9237567257e+01    0.1518059    0.1455924 -19.16 0.0004019603    1.326    0.246
       532  -8.1614     39.2680     18.6628   1.0252808967e+02   6.6802809855e+01   0.09661318   0.08833491 -28.33 0.0003335813    1.595    0.373
       533  -7.7823    112.5818     16.5596   7.7575337199e+01   5.4255334858e+01    0.1298582    0.1101786  41.21 8.498086e-05    1.017    0.016
       534  -8.1289     30.1839     16.2294   1.0547187488e+02   6.8155273870e+01    0.1381357    0.1194545 -12.08 0.0007362312    1.364    0.267
       535  -8.4942      7.5870     15.7335   1.1588830847e+02   7.0221999103e+01    0.1334038   0.08771524 -44.57 0.0006457961    1.578    0.366
       536  -8.3842    218.7141    248.3664   1.1094744994e+02  -9.8879560016e+00    0.1933035    0.1484163 -42.50 0.0006499781    1.679    0.404
       537  -7.8128     16.9914     14.4751   1.1084196368e+02   6.9667590067e+01    0.1221452   0.08742376  40.76 0.0007348413    2.334    0.572
       538  -7.4896    119.6778     11.3327   7.4165789812e+01   5.3170723451e+01    0.1243502   0.09802198 -76.31 0.0007050011    1.702    0.413
       539  -7.9056    191.3601    249.6952   1.1645530766e+02  -5.6213404360e+00    0.1251103   0.09331885  59.44 0.0007039086    1.728    0.421
       540  -7.8075     47.7078     10.3568   9.5478080790e+01   6.6709474539e+01    0.0972873   0.09080966 -31.25 0.0007029496    1.689    0.408
       541  -8.6197    156.0080    248.3283   1.2327080959e+02   6.6122882700e-01    0.2193054    0.1703254  73.50 0.0005312545    1.589    0.371
       542  -7.9060    113.3442    249.1096   1.3183443802e+02   7.7943900065e+00    0.1699127    0.1117281 -82.22 0.0009364731    1.852    0.460
       543  -9.2976     21.6914    248.3526   1.4843186165e+02   2.0789924939e+01    0.1938595    0.1454869  74.67 0.0004826176    1.107    0.096
       544  -8.7158    175.6704    247.5298   1.1922748005e+02  -2.6180350076e+00    0.2881261    0.1985031  68.30  0.001180321    2.180    0.541
       545  -8.6413    132.0090    247.9820   1.2801534095e+02   4.8635723992e+00    0.2019397    0.1368624  67.39 0.0005299863    1.626    0.385
       546  -8.8872    103.7138    246.9842   1.3347196523e+02   9.7530709719e+00    0.3330686    0.1653245 -78.74  0.001487788    2.968    0.663
       547  -8.8746     34.8711    248.1229   1.4621091754e+02   1.9298368962e+01    0.1799666    0.1101024  69.07 0.0005173296    1.257    0.204
       548  -8.6535    242.8222    246.9252   1.0620295042e+02  -1.3342034253e+01     0.203564    0.1494362 -24.50  0.001333107    1.407    0.289
       549  -9.9957    224.1972    244.3213   1.0923255963e+02  -1.0192024760e+01    0.3928176    0.2476716 -43.51  0.002229174    2.005    0.501
