#   1 NUMBER                 Running object number                                     
#   2 MAG_AUTO               Kron-like elliptical aperture magnitude                    [mag]
#   3 X_IMAGE                Object position along x                                    [pixel]
#   4 Y_IMAGE                Object position along y                                    [pixel]
#   5 X_WORLD                Barycenter position along world x axis                     [deg]
#   6 Y_WORLD                Barycenter position along world y axis                     [deg]
#   7 A_WORLD                Profile RMS along major axis (world units)                 [deg]
#   8 B_WORLD                Profile RMS along minor axis (world units)                 [deg]
#   9 THETA_WORLD            Position angle (CCW/world-x)                               [deg]
#  10 FWHM_WORLD             FWHM assuming a gaussian core                              [deg]
#  11 ELONGATION             A_IMAGE/B_IMAGE                                           
#  12 ELLIPTICITY            1 - B_IMAGE/A_IMAGE                                       
         1 -10.8263     39.4232      8.2935   4.8165123856e+01   6.9258984613e+01    0.4376288    0.2670257 -16.99  0.002570721    1.937    0.484
         2 -11.5801     49.8004     36.7573   5.6425964708e+01   6.3880228326e+01    0.9075247    0.6244523 -87.40  0.003577092    4.432    0.774
         3 -13.0246     44.9145     23.3300   5.2818637730e+01   6.6569536589e+01     0.991872    0.7472599 -51.50  0.005927412    1.897    0.473
         4 -11.7188     76.3117     24.3750   4.2091250172e+01   6.0161544228e+01    0.6182048    0.3203253 -14.69  0.002801507    2.989    0.665
         5 -11.9903     78.0305     13.9251   3.7657674351e+01   6.0856183997e+01    0.4200571    0.3044141   1.86  0.002532125    1.784    0.439
         6 -11.8352    178.2724     23.7629   2.4667715934e+01   3.7732619269e+01    0.3916425    0.3140227 -69.69  0.002791871    1.079    0.073
         7 -10.1959    116.5304     17.3297   3.0818416539e+01   5.1898476586e+01     0.287061    0.1403924 -55.74  0.001361165    2.552    0.608
         8 -11.1373    227.1681     15.9870   1.9444097706e+01   2.9327381203e+01    0.3831305    0.2167666 -81.88  0.002662743    1.530    0.346
         9 -12.6949    177.2834      4.5485   2.0612249960e+01   3.9895507792e+01    0.6590471    0.4016845 -83.48   0.00432458    1.371    0.270
        10 -12.4478    156.2817     12.0315   2.4177875974e+01   4.3576269351e+01     0.492926    0.3209018  85.04  0.002827105    1.296    0.229
        11 -12.6538    158.4519      3.9595   2.2060671913e+01   4.3865849984e+01    0.7572199      0.31672  65.81  0.004058811    2.038    0.509
        12 -12.2065    169.5001      2.6766   2.0821584962e+01   4.1664233420e+01    0.5344783    0.3138613 -88.83  0.003062911    1.429    0.300
        13 -11.0924    232.2272      9.3882   1.8026020169e+01   2.9156459212e+01    0.3542341    0.1908676 -82.00  0.002482401    1.588    0.370
        14 -13.2114    166.7674     10.9003   2.2893578134e+01   4.1458479989e+01      0.77415    0.4015917  70.09  0.004547116    1.675    0.403
        15 -11.8349    141.7915      1.6168   2.3115475801e+01   4.7665855851e+01    0.5173298    0.3070467 -50.37  0.003202694    1.696    0.410
        16 -10.7617     71.2820      5.8700   3.6277545717e+01   6.3029857266e+01     0.405335    0.1781865  62.59  0.001988076    1.923    0.480
        17 -10.4240    208.2435      4.5859   1.8520499872e+01   3.3886930520e+01    0.2001514    0.1502746  88.06  0.000832748    1.229    0.186
        18 -10.8328    204.6685      4.6797   1.8754066407e+01   3.4541215407e+01    0.2823836    0.1113421  77.40  0.001600034    2.256    0.557
        19 -11.1011    131.3763      3.8155   2.4858434039e+01   4.9779582543e+01     0.574219     0.176322  60.65  0.002590163    2.565    0.610
        20 -10.8550    121.3736      4.4075   2.6298325104e+01   5.1966573211e+01     0.395063    0.2816425  77.49  0.002564758    1.141    0.124
        21 -11.7954     83.9425      3.6647   3.2434279898e+01   6.0434053568e+01    0.7902414    0.2607514  65.26  0.003407715    2.489    0.598
        22 -10.6729     60.9790      2.0859   3.7560122650e+01   6.5527592760e+01    0.4216932    0.1552121  50.62  0.002018119    2.025    0.506
        23  -9.6103    217.9568      2.0000   1.7504939169e+01   3.2380277002e+01    0.1548316   0.04847223  78.02  0.000797262    2.907    0.656
        24  -8.9526     17.5130      1.5251   5.5649116387e+01   7.3682366661e+01    0.1182359   0.08967549  22.41  0.000810009    1.005    0.005
        25 -13.4987    240.9010    125.3648   3.7749130260e+01   1.2107346520e+01     1.024912    0.8619389  82.23  0.007490393    1.519    0.342
        26 -13.5506    245.1225    110.4906   3.4638555570e+01   1.3837609551e+01     1.318465    0.7720212 -57.32  0.008142977    1.590    0.371
        27 -10.1365     18.2556    127.9688   9.5405495644e+01   4.7718783835e+01    0.1951443     0.118182 -68.90 0.0006548804    1.565    0.361
        28 -10.6870      4.2180    124.4091   1.0030022529e+02   4.9642541182e+01    0.2762907    0.1943721  54.04  0.001297675    1.627    0.385
        29  -9.3774    208.8003    123.2150   4.1638245365e+01   1.7293238614e+01    0.1683371    0.1363817 -27.83 0.0005905417    1.316    0.240
        30 -11.8068     10.4168    121.8137   9.7539800445e+01   4.9942298536e+01     0.417939    0.2488045  36.77  0.001966095    1.822    0.451
        31 -11.5318    189.1304    116.1724   4.3274581873e+01   2.1886164464e+01    0.4954102    0.3402204 -17.84  0.002474223    2.136    0.532
        32 -10.0568    154.4829    120.5150   5.0697769759e+01   2.7535253423e+01    0.1424516    0.1341795 -54.44  0.000119435    1.010    0.010
        33 -11.0901    212.7224    112.9902   3.9086325521e+01   1.8396765978e+01    0.4735115     0.242427 -41.17  0.002454425    1.682    0.405
        34 -10.1801    224.4572    111.2940   3.7216398377e+01   1.6796123049e+01     0.401393    0.1336418 -50.89  0.001650004    2.905    0.656
        35 -10.4039    220.4843    107.5135   3.7005953797e+01   1.8038208310e+01    0.2399559    0.2046947 -61.06  0.001665994    1.093    0.085
        36 -10.5811    223.9733    106.4933   3.6375567348e+01   1.7645106374e+01    0.2396433    0.1536798  60.88   0.00145356    1.895    0.472
        37  -9.9747    148.5328    111.3212   4.9837821673e+01   3.0538174084e+01    0.2730848    0.1336327 -49.03 0.0008782606    2.009    0.502
        38 -11.0168     18.6913    105.5245   9.1450773698e+01   5.3578453889e+01     0.811403    0.3877389  54.55  0.002930897    3.341    0.701
        39  -9.8241    156.0173    108.7449   4.7671163001e+01   2.9543008473e+01    0.1828429    0.1213809  50.82 0.0008925275    1.580    0.367
        40 -10.0377     30.6762    101.9685   8.5588861814e+01   5.3349965325e+01    0.2810873    0.1872722 -21.20  0.001323762    1.617    0.382
        41  -9.1096    164.9865    134.4971   5.1608283862e+01   2.2749455353e+01    0.1830845    0.1241632  73.40 0.0007551898    2.308    0.567
        42  -9.9573    178.6259     92.6410   3.9921858680e+01   2.7976466317e+01     0.267186    0.2165802 -68.33  0.001593518    1.188    0.158
        43 -11.1544     13.2705     89.8784   9.0760936001e+01   5.7917320017e+01    0.2774491    0.1981493  -3.41  0.001469902    1.407    0.289
        44 -12.6071      4.6524     75.5550   9.1867906246e+01   6.1923806631e+01    0.7541201    0.5326003  84.28  0.003942607    1.986    0.496
        45 -13.1955     14.9620     73.2536   8.6068747656e+01   6.1687232837e+01    0.9940509    0.6541103  25.12  0.005279539    1.542    0.351
        46 -11.0457      2.7842     83.4670   9.4446181280e+01   6.0165787220e+01    0.4004776    0.2282557 -61.91   0.00140515    1.604    0.376
        47  -9.5085    208.8150     94.2037   3.5914097136e+01   2.2136892104e+01    0.1608012    0.1377917 -33.22  0.000736334    1.318    0.241
        48 -10.5215    192.2983     86.9624   3.6648390517e+01   2.6292693209e+01     0.477894    0.1871595  56.65  0.002112484    2.767    0.639
        49 -12.6044     43.0084     80.8696   7.4832969859e+01   5.6829674355e+01     1.152094    0.7410147  -0.94  0.005267789    1.891    0.471
        50  -9.0466    100.6782     83.6509   5.4584397263e+01   4.5910641706e+01      0.15019    0.1154889   4.72 0.0007048873    1.743    0.426
        51  -9.3346    145.4832     81.4937   4.3179137655e+01   3.6691814130e+01    0.1369508    0.1283294 -84.86 0.0002091912    1.008    0.008
        52  -9.8745    215.1447     79.7045   3.2300088504e+01   2.3274082838e+01    0.2234244    0.1338956 -53.49  0.001321852    1.403    0.287
        53  -9.8435    221.1745     78.0986   3.1328146096e+01   2.2473427638e+01    0.2205133    0.1303402 -77.05  0.001159789    2.058    0.514
        54 -10.0195    169.6139     76.4506   3.7692885600e+01   3.2447933700e+01    0.2661279    0.2076893 -83.46  0.001556534    1.302    0.232
        55  -9.7587    227.1442     71.7068   2.9516615653e+01   2.2386657700e+01    0.1850605    0.1242289 -75.35  0.001203694    1.483    0.326
        56  -9.7051    218.5159     71.4926   3.0350911246e+01   2.3889263690e+01    0.1182548   0.09291792 -61.72 7.635457e-05    1.018    0.017
        57 -10.4940     75.0903     69.3245   5.8404227918e+01   5.3776917782e+01    0.3925352    0.2684402  28.30  0.001656241    1.514    0.340
        58 -11.7230    214.4131     67.3568   2.9983568745e+01   2.5200029883e+01    0.2778275    0.2136259 -41.66  0.001886407    1.326    0.246
        59  -9.8352     83.6220     68.9097   5.5377258888e+01   5.2159781663e+01    0.2627791    0.1913345  33.76  0.001337305    1.351    0.260
        60 -10.9278     25.5204     64.9749   7.8350368146e+01   6.2441480819e+01    0.3936631    0.2508508 -53.51   0.00203016    1.641    0.391
        61  -9.6060    179.2590     66.5552   3.4026881482e+01   3.2001222868e+01    0.2346401    0.1189276  69.19  0.001137255    2.127    0.530
        62 -11.0292    233.0302     64.0108   2.7558261300e+01   2.2476334128e+01    0.2113249    0.1461932  75.65  0.001479319    1.571    0.364
        63  -9.1953    132.4889     63.5169   4.1074469564e+01   4.2462781552e+01    0.1352667    0.1245198  78.40  0.000810312    1.013    0.013
        64 -10.4822    218.8917     61.8489   2.8474608563e+01   2.5177395892e+01    0.1656077    0.1480439 -54.30  0.001238893    1.265    0.209
        65  -9.6731    200.0208     63.7203   3.0828590218e+01   2.8353186562e+01    0.1692595    0.1395929 -75.11 0.0008986875    1.061    0.058
        66  -9.2336     76.3524     59.3049   5.4657478284e+01   5.5291220457e+01    0.1451296    0.1041437  15.68 0.0007041204    1.708    0.415
        67 -11.1106      2.3638     88.4753   9.5596364322e+01   5.8974969463e+01    0.3774015    0.2869473 -86.89  0.002089152    1.537    0.349
        68 -11.1513    197.9783     53.3967   2.8936114672e+01   3.0169033874e+01    0.4854106    0.3158404 -13.78  0.002424104    3.187    0.686
        69 -11.9816    215.0694     51.7894   2.6918470813e+01   2.7207770551e+01     0.356847    0.2850775 -22.45  0.002432921    1.821    0.451
        70  -9.7389     35.1758     52.7985   6.9411769754e+01   6.3605143344e+01    0.1952542    0.1444301  -2.76   0.00107813    1.358    0.264
        71 -10.9820     85.1107     48.0044   4.7999417303e+01   5.5246935295e+01    0.4601865    0.3321557  52.59  0.002517487    1.256    0.204
        72 -11.8038     81.7724     39.8021   4.6140725946e+01   5.7105884211e+01    0.6423721    0.3675812 -41.74  0.003215852    2.006    0.501
        73  -9.3557    138.6425     55.6949   3.7788106063e+01   4.2261366674e+01    0.1323694   0.09985295  33.38 0.0007040166    1.722    0.419
        74 -11.5181      3.5926     41.3637   8.3010745425e+01   6.9271489550e+01    0.4762662    0.3583086  17.84  0.002899132    1.316    0.240
        75 -11.4716    185.4044     40.2044   2.7504607110e+01   3.4351115237e+01    0.4098999    0.1661805 -56.68  0.001906196    2.537    0.606
        76 -11.6616    240.1094    228.7637   5.5257239307e+01  -4.2732120440e+00    0.3649685    0.2659904  44.90  0.002404928    2.500    0.600
        77 -11.6675    248.3852    224.7982   5.3358399623e+01  -4.4266761197e+00    0.5286389    0.2460076 -33.20  0.003177145    1.616    0.381
        78 -11.7341     40.0769     29.3322   5.7645455747e+01   6.6632094953e+01    0.4601044    0.3043261 -34.40  0.002176918    1.685    0.407
        79 -10.7247      4.1001    230.2742   1.0903087272e+02   2.2245115455e+01     0.329844    0.1670029  19.69  0.001631956    2.033    0.508
        80 -10.1789    164.6916     53.7445   3.3110875460e+01   3.6860420694e+01    0.2078894    0.2029863  55.65  0.001418985    1.288    0.223
        81 -11.2969    190.9736     37.4051   2.6342331963e+01   3.3586988149e+01    0.3262772    0.1319048 -55.86  0.001575623    2.398    0.583
        82  -9.8041     97.2961     36.6569   4.0856598683e+01   5.4114588913e+01    0.1305996    0.0981288 -78.80 0.0007032544    1.665    0.400
        83 -10.9494      6.0749     35.4235   7.9292703992e+01   7.0165621809e+01    0.3593584    0.1898409  27.65  0.001923073    1.826    0.452
        84 -10.0732    198.1647     34.1845   2.5002664974e+01   3.2573190683e+01    0.1698582    0.1088266 -68.77 0.0009331291    1.351    0.260
        85 -10.3418     90.0610     28.0241   3.9719183271e+01   5.6750626810e+01    0.3046167    0.2374284  34.29  0.001745128    1.347    0.258
        86 -10.4077     66.9950     29.2744   4.6885770593e+01   6.1550683911e+01    0.2562832    0.1560385   4.78  0.001182416    2.663    0.624
        87  -9.5382    111.3179    228.6777   8.1703122071e+01   1.0645626705e+01    0.1386509    0.1035842  55.02 0.0007043413    1.667    0.400
        88  -9.8578     31.7915    227.3811   1.0197255656e+02   2.0401369957e+01    0.1842736    0.1232421  10.68 0.0009480042    1.666    0.400
        89  -9.6949    144.4096     27.2056   2.9369123578e+01   4.4597905580e+01    0.1722066    0.1016654 -49.68 0.0009537213    1.711    0.416
        90 -12.6463    209.2691    215.7464   5.8383952710e+01   8.7081213747e-01    0.8084366    0.4214051  -8.21   0.00375223    2.731    0.634
        91 -11.6144    173.3106     20.8639   2.4508943155e+01   3.9071503135e+01    0.3221129    0.1983839  73.98   0.00130396    1.442    0.306
        92  -9.9405    224.7983     23.0484   2.0837243358e+01   2.8966332502e+01    0.2112934    0.1284559 -61.86  0.001128834    1.260    0.206
        93 -10.0152    187.3183     19.6023   2.2965066953e+01   3.6357722432e+01    0.2041161    0.1248454  81.51  0.001165318    1.441    0.306
        94 -10.3237    128.5665     18.5768   2.9296517205e+01   4.9053194920e+01    0.3087991    0.1979965  66.74  0.001766983    1.318    0.241
        95 -13.2312    183.9861    216.8509   6.3369165853e+01   3.6171645193e+00    0.8535239    0.5050032 -28.84  0.004554376    1.559    0.358
        96 -10.9813     50.2310    218.2817   9.6326058117e+01   2.0625377445e+01    0.3496478    0.2294204  14.86  0.001723833    1.605    0.377
        97  -9.8071    247.4268     16.2203   1.8363431565e+01   2.5935025267e+01    0.1466855   0.06165028 -50.71 0.0009512381    1.690    0.408
        98  -9.6397     64.3959     16.2120   4.2477240629e+01   6.3544894058e+01    0.1529367    0.1162695 -41.31 0.0007272154    1.627    0.386
        99  -9.6488     20.3795     15.3824   6.1410036852e+01   7.1611795349e+01    0.2395182   0.08774326  26.84 0.0009452016    3.208    0.688
       100 -11.3828    158.4978    225.4752   7.0134813862e+01   5.1763449834e+00    0.2403653    0.1956399 -44.41  0.001173633    1.348    0.258
       101 -12.7634    247.5311    184.4852   4.7029998541e+01   1.8071533935e+00     1.181448    0.3739039 -45.46  0.005398436    2.635    0.620
       102 -12.7383    244.0622    200.9149   5.0227009476e+01  -4.0990854257e-01    0.7835045    0.5210879 -33.71  0.004750021    1.133    0.117
       103  -9.8833    129.6976     12.9597   2.7574508526e+01   4.9342498536e+01    0.2314311    0.1407156  52.06  0.001248388    1.659    0.397
       104  -9.7787     94.2858     17.1269   3.4970268067e+01   5.6949649951e+01    0.2453594    0.1481774  89.43  0.001210309    2.165    0.538
       105  -9.7676    141.3793    206.2241   7.0890682773e+01   1.1339920518e+01    0.1918686    0.1348259 -57.99  0.000953398    1.659    0.397
       106  -9.8534    123.9707    206.0029   7.5102149393e+01   1.3866342277e+01    0.1995243     0.182694  -2.39 -0.005334738    1.012    0.011
       107 -11.0180    203.7914    192.6522   5.5446071994e+01   5.5304739845e+00    0.3301489    0.2190274  -6.01    0.0018314    1.718    0.418
       108 -11.1307    195.8731    185.0475   5.5542628827e+01   7.9484335620e+00    0.3972988    0.2510362 -50.89  0.002117911    1.642    0.391
       109  -9.9115     37.5027    185.5041   9.6400959501e+01   3.0343621331e+01    0.2561867    0.1419395   3.79  0.001032458    2.344    0.573
       110  -9.7844     26.5209    180.5099   9.9171780949e+01   3.2759333631e+01    0.1427539    0.1335824  73.89 -2.695807e-05    1.036    0.035
       111 -11.0020    219.2042    155.7778   4.6225657653e+01   1.0041297252e+01    0.3862522    0.2465723  46.50  0.002248645    1.982    0.495
       112  -9.9757     20.7620    155.5883   9.8214933611e+01   4.0014124253e+01    0.2025189    0.1279984  33.91 0.0007651733    1.611    0.379
       113  -9.9542    162.7944    152.3925   5.5834638855e+01   1.9464668129e+01    0.2858669    0.1075297 -49.11  0.001035579    2.564    0.610
       114  -9.2789    173.5058    144.5204   5.2010388509e+01   1.9235013851e+01    0.1393955    0.1261438 -40.69 0.0001055068    1.017    0.016
       115  -9.7673     53.8574    143.3588   8.4927523466e+01   3.9807010405e+01     0.269601     0.211747 -74.70  0.001290177    1.364    0.267
       116 -11.9786     11.0618    139.8638   9.9682398911e+01   4.5047130121e+01    0.4894315    0.3123505  56.73  0.002311257    1.788    0.441
