#   1 NUMBER                 Running object number                                     
#   2 MAG_AUTO               Kron-like elliptical aperture magnitude                    [mag]
#   3 X_IMAGE                Object position along x                                    [pixel]
#   4 Y_IMAGE                Object position along y                                    [pixel]
#   5 X_WORLD                Barycenter position along world x axis                     [deg]
#   6 Y_WORLD                Barycenter position along world y axis                     [deg]
#   7 A_WORLD                Profile RMS along major axis (world units)                 [deg]
#   8 B_WORLD                Profile RMS along minor axis (world units)                 [deg]
#   9 THETA_WORLD            Position angle (CCW/world-x)                               [deg]
#  10 FWHM_WORLD             FWHM assuming a gaussian core                              [deg]
#  11 ELONGATION             A_IMAGE/B_IMAGE                                           
#  12 ELLIPTICITY            1 - B_IMAGE/A_IMAGE                                       
         1 -13.1526    199.9413     33.4435   5.9766556569e+01   3.0827595420e+01    0.9778103    0.7694896  43.09   0.00459524    1.352    0.261
         2 -13.8350    216.5033     15.5729   5.2827749522e+01   2.8708704654e+01     1.311601    0.9204594  36.85  0.006046306    1.732    0.423
         3 -12.1963      2.3222     15.0524   1.1380847282e+02   7.1459415696e+01    0.7547287    0.1383465 -55.69  0.003032034    3.638    0.725
         4 -12.2180      2.4278      4.2887   1.0951683240e+02   7.3343051045e+01     0.528697    0.3683936  -8.19  0.003900891    1.394    0.283
         5 -10.6583     73.9353    243.8441   1.2845498605e+02   1.7556460404e+01    0.3079208    0.2193506 -64.87   0.00229394    1.738    0.425
         6 -11.9074    185.2808    249.4712   1.0976261502e+02   4.1580853907e-01    0.4737369    0.2101951  41.78  0.002627489    1.710    0.415
         7 -11.2272    169.1292    249.2172   1.1251314996e+02   2.9312431588e+00    0.2809289    0.1917164  18.61 0.0003512966    1.703    0.413
         8 -11.9110    165.7890    242.4289   1.1226198607e+02   4.3231755851e+00    0.4764471    0.1472868  47.00  0.001753166    2.819    0.645
         9 -11.0378    162.1373    250.2731   1.1384874506e+02   3.8726831946e+00    0.3835112    0.1418172  41.18  0.001214919    2.032    0.508
        10 -12.0904    150.0249    247.9207   1.1568084425e+02   6.0398726052e+00    0.4540058    0.4093079 -44.36  0.003563939    1.472    0.320
        11 -10.5440    143.6590    249.3992   1.1695310139e+02   6.8110517733e+00     0.292886    0.1733992  55.52  0.001436436    1.599    0.375
        12 -11.5832    100.4132    248.0913   1.2429583383e+02   1.3336735424e+01    0.5723817    0.2773745  46.35  0.003479277    1.540    0.351
        13 -10.9096     84.1614    240.7368   1.2647031535e+02   1.6707387568e+01    0.3855564    0.2393935  66.95  0.001914658    1.444    0.308
        14 -12.9789    136.0316    234.1527   1.1659792351e+02   1.0160762940e+01     1.346425    0.6950203 -64.12  0.007238946    2.789    0.641
        15 -11.4511     97.6029    222.0991   1.2237370598e+02   1.7911909232e+01     0.643829    0.2820919  58.72  0.003121476    2.428    0.588
        16 -12.0890    133.6806    248.8805   1.1863059702e+02   8.3884166968e+00    0.9142324    0.2556859  43.80  0.004097025    2.640    0.621
        17 -11.2811     97.0867    239.1814   1.2408727679e+02   1.5179003831e+01    0.2447748    0.1797241  60.10 0.0007840962    1.090    0.083
        18 -11.8075     85.8715    232.6078   1.2549002433e+02   1.7796521156e+01    0.7927747     0.389948  83.38  0.003591398    3.082    0.676
        19 -11.4668    113.3741    230.8461   1.2036178574e+02   1.4141898137e+01    0.3126439    0.2988044 -24.45  0.001528068    1.466    0.318
        20 -11.8656    105.4759    227.9521   1.2150906615e+02   1.5782837095e+01    0.4277506    0.2911026  56.86  0.002042423    1.212    0.175
        21 -11.2305    115.7198    249.8603   1.2183174161e+02   1.0896833000e+01    0.4443428    0.3376658  46.56  0.002478921    1.105    0.095
        22 -11.4043    109.6654    247.1574   1.2262254865e+02   1.2166899580e+01    0.4428616    0.3229878 -89.57   0.00309238    1.590    0.371
        23 -11.3896    122.0528    246.1389   1.2037454339e+02   1.0512636481e+01    0.5216163    0.2795225 -70.74  0.001498459    2.701    0.630
        24 -11.9197    125.4091    242.3967   1.1940423024e+02   1.0561809542e+01    0.4371772    0.3552897  76.25  0.001094707    1.333    0.250
        25  -9.8614     90.9443    250.3233   1.2608767749e+02   1.4301397320e+01    0.2085581    0.1544839  44.78  0.001092803    1.246    0.197
        26 -11.5155     86.6239    248.1770   1.2664480339e+02   1.5210744988e+01    0.3436874    0.2358918  36.58 0.0008170226    1.539    0.350
        27 -10.3009     81.4358    247.2218   1.2744463230e+02   1.6047757910e+01    0.2429895    0.1447808  81.60  0.001583677    1.813    0.448
        28 -13.1180      7.9591    214.0889   1.3780853881e+02   2.9976926015e+01     1.115718    0.8745752 -88.96  0.009480224    1.300    0.231
        29 -12.4921     11.6632    206.1013   1.3680002921e+02   3.1082858202e+01     1.051054     0.559588  18.29  0.005823622    3.769    0.735
        30 -12.8364     41.6508    206.8383   1.3146965941e+02   2.7893997418e+01     1.510573    0.5771029  69.33  0.006957362    3.168    0.684
        31 -13.4122     40.4488    243.1179   1.3392791815e+02   2.1701540385e+01    0.9730709    0.6413889  72.18  0.002465819    1.171    0.146
        32 -13.6150      5.8517    246.1655   1.3941031115e+02   2.4762411289e+01      1.18484    0.5046273  77.08  0.008120092    1.910    0.477
        33 -13.4341     13.7638    239.4675   1.3795953406e+02   2.5086600946e+01     1.038895    0.5061225  74.36  0.004855507    1.619    0.382
        34 -12.7657     27.9135    226.2611   1.3507168696e+02   2.5884271292e+01    0.2957672    0.2446758  63.46 0.0007736225    1.275    0.216
        35 -14.2586     34.3533    218.5429   1.3353909038e+02   2.6558257374e+01     1.037492    0.9222173  56.05  0.008673615    1.406    0.289
        36 -11.3953    159.3766    244.2535   1.1361457703e+02   5.0847188335e+00    0.2677949    0.1629532  57.44  0.001062846    1.795    0.443
        37 -13.2272     28.0261    246.9259   1.3607941580e+02   2.2434332763e+01    0.9804209    0.5250461  47.84  0.007262009    1.454    0.312
        38 -11.2809    244.6574    242.0772   9.8787029560e+01  -7.6131053100e+00    0.2053356    0.1295857 -36.70  0.001358859    2.173    0.540
        39 -11.3246    128.5614    234.8597   1.1803230320e+02   1.1211044975e+01    0.3575857     0.195926  58.66  0.001966363    1.872    0.466
        40 -11.4617    116.7560    238.3794   1.2052754244e+02   1.2458526100e+01    0.3517232    0.2553937 -30.69  0.001945361    2.335    0.572
        41  -9.9164     53.8575    240.8271   1.3160593177e+02   2.0530099222e+01    0.1459963    0.1175271  63.83 0.0005913562    1.183    0.155
        42  -9.3329     66.6754    239.4457   1.2936435214e+02   1.9189066120e+01    0.2089192    0.1093639  65.06 0.0007535651    1.693    0.409
        43 -11.2550    122.0584    233.6955   1.1908381387e+02   1.2383496721e+01    0.3180526    0.2731107  49.32  0.002346033    1.131    0.115
        44  -9.4074     66.7206    243.8419   1.2966574228e+02   1.8472838901e+01    0.1880483    0.1329291  33.10 0.0007362761    1.736    0.424
        45 -10.1855    173.0858    235.9174   1.1013072657e+02   4.0262334694e+00    0.1703313    0.1357046  49.68  0.001175551    1.233    0.189
        46 -10.6953    168.6857    233.5416   1.1060566834e+02   5.0516145508e+00    0.3402115    0.1672907  32.71  0.001209387    1.915    0.478
        47  -9.6472     54.8568    235.6504   1.3110508289e+02   2.1265463642e+01    0.1981476    0.1202991  65.28 0.0008773251    1.300    0.231
        48 -11.6114     92.1296    241.5173   1.2515679975e+02   1.5499971487e+01    0.3156801    0.2432141  73.17  0.001836923    1.203    0.168
        49 -11.1401     98.2802    231.2184   1.2314001562e+02   1.6290762414e+01    0.2493376     0.199855  11.40  0.001545854    2.006    0.501
        50 -10.1845    156.7940    232.1435   1.1257724673e+02   7.1607965442e+00    0.1986693    0.1662263 -35.52 0.0005583037    1.528    0.346
        51  -8.8354     70.5417    235.4525   1.2840918360e+02   1.9354847611e+01    0.1089695   0.08227936  61.17 0.0003150629    1.032    0.031
        52 -10.5701    249.6817    230.4942   9.6175096985e+01  -7.1772577085e+00    0.1779922   0.09473892 -25.56  0.001056751    2.002    0.501
        53  -8.6124     57.3025    231.2741   1.3039210238e+02   2.1707321361e+01      0.08628   0.08221426  46.31 0.0006951274    1.538    0.350
        54  -9.4218     45.6453    231.1176   1.3237249545e+02   2.3108817483e+01     0.164067    0.0973943  73.81 0.0009580647    1.415    0.293
        55 -10.4121     70.6238    219.0367   1.2708445342e+02   2.2158643670e+01    0.4653836     0.261751  76.06  0.002767022    1.845    0.458
        56 -10.4378     79.3888    225.8451   1.2606830758e+02   1.9812724284e+01    0.3729227    0.2246848 -76.24  0.001915213    1.789    0.441
        57  -9.4336     77.2676    220.9068   1.2602545751e+02   2.0952541942e+01     0.176543    0.1204162  64.33 0.0004886423    1.215    0.177
        58 -10.6881    117.0292    224.5810   1.1901303944e+02   1.4600870402e+01    0.2893568     0.207938  37.14 0.0008896194    1.341    0.254
        59 -10.1258     92.6208    225.9983   1.2367391949e+02   1.7962895108e+01    0.2234444    0.1347686  51.44 0.0007191051    1.313    0.238
        60  -9.6993     51.7078    225.2767   1.3094904560e+02   2.3408732225e+01    0.1556303    0.1410716  73.74 0.0003651446    1.356    0.263
        61  -9.4279     64.9826    224.5186   1.2854918525e+02   2.1918263069e+01    0.1846925    0.1401785 -59.36  0.001239323    1.711    0.416
        62  -9.2640    164.2928    223.9972   1.1012250273e+02   7.1076243456e+00    0.1589204    0.1411423  38.83 0.0003818807    1.110    0.099
        63 -10.0471     87.6334    223.3388   1.2433954884e+02   1.9115355935e+01    0.2134329    0.1426303  63.47  0.001059779    1.284    0.221
        64 -11.0263    142.0690    219.8598   1.1373415269e+02   1.1391254829e+01    0.3188561    0.2828201 -82.06   0.00189098    1.342    0.255
        65  -9.4178    111.0000    221.0057   1.1974870449e+02   1.6111335483e+01    0.2777392   0.06750061 -58.40  0.001043628    4.865    0.794
        66  -9.5012    109.4877    217.4582   1.1964321882e+02   1.6941577526e+01    0.1788005    0.1166672 -63.76 -6.766203e-05    1.768    0.434
        67 -10.4300    245.6771    220.8657   9.5266347253e+01  -5.5860330979e+00    0.2153132   0.09615228 -21.93  0.001099862    2.571    0.611
        68  -8.7279     89.2952    218.6524   1.2358526776e+02   1.9694716291e+01    0.1224789   0.07282513  67.59 0.0006380356    1.674    0.403
        69  -8.8312     80.6159    216.7841   1.2503332420e+02   2.1227980433e+01     0.145408   0.09540886  87.44  0.000250258    1.569    0.363
        70  -9.5104     88.1411    212.7982   1.2322580398e+02   2.0894810618e+01    0.2192349    0.1434148 -89.99 0.0009831932    1.653    0.395
        71 -10.6497     63.0034    209.4994   1.2769575410e+02   2.4861652956e+01    0.3684935    0.2797908 -62.63  0.001860185    1.571    0.363
        72 -11.2347     55.2892    208.0077   1.2902277721e+02   2.6090286620e+01    0.5669748    0.2975916  83.69  0.002371473    1.994    0.499
        73  -9.1495    130.9624    211.3275   1.1476395967e+02   1.4595286835e+01    0.1739758    0.1323493  46.84 0.0003545814    1.091    0.083
        74 -10.0661    156.1167    208.1384   1.0942590930e+02   1.0896249602e+01    0.1831838    0.1684237  43.65   0.00030916    1.103    0.093
        75  -9.1722     90.5271    208.9398   1.2237074400e+02   2.1251626337e+01    0.1556966     0.111514 -73.06 0.0003364027    1.488    0.328
        76  -9.3147    134.3899    207.7546   1.1362155332e+02   1.4634222737e+01    0.1552519    0.1186528 -39.88 0.0007998273    1.664    0.399
        77 -10.4454    111.3779    206.4803   1.1800262929e+02   1.8568340877e+01    0.3214289    0.2018297 -88.94  0.001037405    2.126    0.530
        78  -8.9995     74.4380    208.4802   1.2543130281e+02   2.3566325515e+01    0.1182919   0.09166081  66.39 0.0001680705    1.037    0.036
        79  -9.0003     69.8681    207.9027   1.2625309183e+02   2.4276688754e+01      0.15633    0.1065767  67.75 0.0002636355    1.255    0.203
        80 -12.3579    103.5534    239.1437   1.2294523991e+02   1.4267428930e+01    0.7936274    0.5562761 -15.12  0.004157386    3.803    0.737
        81  -9.8297     91.2787    205.0407   1.2180904623e+02   2.1857416506e+01    0.2916461    0.1501572  34.14  0.001498802    2.094    0.522
        82 -10.6201    250.1442    201.1272   9.1133814846e+01  -4.0577873630e+00    0.2963132    0.1401706 -12.09  0.001333715    2.946    0.661
        83 -10.8164     83.8748    201.6483   1.2291172824e+02   2.3546797383e+01    0.2029487    0.1653186  78.61 0.0002641962    1.111    0.100
        84  -9.9386      2.1492    202.0855   1.3825949725e+02   3.2666555552e+01    0.2638428    0.1416517 -82.13 0.0009996071    1.561    0.359
        85  -9.6722      3.1135    197.6592   1.3788879786e+02   3.3405297124e+01    0.2332748   0.08717022  43.22  0.000891913    2.207    0.547
        86 -10.6699      2.7375    193.7275   1.3776927617e+02   3.4175774294e+01    0.4209984    0.1737837  68.79  0.002479462    2.058    0.514
        87  -9.9265     42.9389    200.3711   1.3075847239e+02   2.8970160460e+01    0.2432233    0.1621759 -53.37  0.001098003    2.004    0.501
        88 -11.9897     56.2603    194.2530   1.2767538053e+02   2.8595821643e+01     0.414587    0.2733572 -52.24  0.001196043    1.961    0.490
        89 -10.9235    102.8048    195.9904   1.1844513064e+02   2.1824005287e+01    0.2486965    0.2271785  -3.03 0.0004381109    1.525    0.344
        90 -11.0459     27.9018    194.9001   1.3321255319e+02   3.1624671457e+01    0.3788166    0.2631764  73.08  0.001354337    1.113    0.102
        91 -10.8504     20.9658    194.4458   1.3448176775e+02   3.2396539189e+01    0.3000469    0.1736614 -75.40 0.0008631911    1.564    0.361
        92  -9.4753     31.1978    190.0006   1.3224600518e+02   3.2241827984e+01    0.2857545   0.08809681  44.50 0.0009946172    2.597    0.615
        93 -10.4224    249.4943    194.2606   8.9998184926e+01  -3.1465721066e+00    0.2847423    0.1746861  27.43  0.001664201    1.427    0.299
        94  -9.2062    112.3854    192.7766   1.1605831101e+02   2.0920861267e+01    0.3034341   0.09642316 -47.45 0.0008300034    4.202    0.762
        95  -8.6188     77.9382    193.9922   1.2329422041e+02   2.5837974267e+01     0.144104    0.1140768  58.76 0.0002968172    1.083    0.076
        96  -9.7070    191.5016    191.4639   9.9876224360e+01   7.2197532222e+00    0.2254423    0.1940598  27.27 0.0006323197    1.012    0.012
        97  -8.5632     72.6267    192.7376   1.2424267364e+02   2.6803248386e+01    0.1047622   0.09504776  -1.36 0.0006982046    1.661    0.398
        98  -8.7238     38.5153    192.4323   1.3100736712e+02   3.0992505445e+01    0.1484464   0.09148903 -69.14 0.0001481119    1.597    0.374
        99  -9.3101     40.7260    189.1412   1.3031831412e+02   3.1398880784e+01    0.1698974    0.1298558  77.80  0.001210867    1.036    0.034
       100 -11.0651      3.5337    179.1341   1.3687794944e+02   3.6925157823e+01    0.3302984    0.1818377 -67.44  0.002128875    1.751    0.429
       101 -10.4351     10.4301    188.2174   1.3607881577e+02   3.4568403934e+01    0.2106628    0.1205282  66.24 0.0008525723    1.398    0.285
       102 -11.5975      4.6610    186.2140   1.3704300503e+02   3.5450815293e+01    0.3478984    0.2454889  55.23  0.001384256    1.289    0.224
       103  -8.9651     76.9797    188.4955   1.2289627419e+02   2.7049203637e+01    0.1677263     0.107635  43.77 0.0009814353    1.441    0.306
       104  -8.2826    145.6862    187.3237   1.0833647429e+02   1.6247161319e+01    0.1340287   0.09843782  71.31 0.0006842241    1.661    0.398
       105 -10.4196     83.6657    186.6852   1.2129471109e+02   2.6472580124e+01    0.2135976    0.1772406  71.15 0.0002877983    1.031    0.030
       106 -10.6457     71.7878    186.6290   1.2377250069e+02   2.8124374990e+01    0.3189619     0.261162   6.93  0.001295282    1.928    0.481
       107 -11.7055     63.0267    186.2605   1.2555063025e+02   2.9338545319e+01    0.2362504    0.2187505 -62.09  0.000488362    1.385    0.278
       108  -8.5222     65.6745    181.7318   1.2453097079e+02   2.9915058288e+01    0.1038945   0.09561288 -26.87 0.0001905635    1.572    0.364
       109  -9.4612     29.5236    184.3670   1.3216555919e+02   3.3526709014e+01    0.2381716    0.1507798 -41.57   0.00102484    2.670    0.625
       110  -9.4102     24.1291    184.0562   1.3320338701e+02   3.4121221043e+01    0.1562998    0.1295422 -86.17 0.0006639528    1.220    0.181
       111  -9.0657     36.3479    182.8908   1.3069230421e+02   3.3117935478e+01    0.1610093   0.08477537 -65.20 0.0009424557    1.844    0.458
       112  -8.5446    127.4387    182.5010   1.1141701237e+02   2.0352294794e+01    0.1345419    0.1154477  61.72 0.0001661359    1.086    0.079
       113  -8.6404    107.5371    182.4667   1.1567506536e+02   2.3684140452e+01    0.1311163    0.1120663  64.20 0.0003111308    1.036    0.034
       114 -10.4471    250.1478    187.7405   8.8680521706e+01  -2.4617804385e+00    0.2841285    0.1462018 -17.37  0.001420071    2.140    0.533
       115  -9.1556     47.5435    179.6979   1.2812835695e+02   3.2534685445e+01    0.1874143   0.09709638  37.72 0.0007340202    1.933    0.483
       116  -8.3405     92.6732    178.2790   1.1832198825e+02   2.6839481986e+01    0.1327737   0.08629973  67.03 0.0001797645    1.594    0.373
       117 -12.2909    248.4372    172.4734   8.6022271354e+01  -2.4596499556e-01     0.728712    0.3978913 -30.31  0.003822999    1.788    0.441
       118 -11.9069    240.1252    150.9883   8.3007120625e+01   4.1788891025e+00    0.5338408    0.3898522 -22.29  0.003010309    1.294    0.227
       119 -11.6934    245.1395    162.2956   8.4524033521e+01   1.6853671062e+00    0.4296866    0.2418395 -31.84   0.00220866    1.732    0.423
       120 -10.7636    249.5833    161.3053   8.3584375983e+01   1.0355489299e+00    0.3971134    0.2350031 -34.15  0.002103522    1.688    0.407
       121 -11.5422    247.6964    157.3749   8.3084847115e+01   1.9026493794e+00    0.7127443    0.3435057  54.49  0.003074603    2.847    0.649
       122 -11.3521     65.2397    175.3949   1.2393640030e+02   3.1273061339e+01    0.2805291    0.2086674  52.55 0.0001714928    1.235    0.191
       123 -12.1170     60.2083    172.2545   1.2468402549e+02   3.2564326803e+01    0.5036147    0.2940692 -40.14  0.001547145    2.824    0.646
       124 -10.9770     68.4354    166.2990   1.2217057651e+02   3.2767883960e+01    0.2359061    0.1950804  84.77  0.000334025    1.060    0.057
       125  -9.2084    103.0098    176.0312   1.1575124161e+02   2.5691430224e+01    0.1909637    0.1688483  70.01  0.001202974    1.019    0.019
       126 -11.4019     19.5150    174.7057   1.3346968524e+02   3.6433512733e+01    0.2931427    0.1683127  78.96 -7.874751e-05    1.484    0.326
       127 -10.8567     73.8740    174.2654   1.2192554209e+02   3.0364472978e+01    0.2122023    0.1842661 -85.69 0.0003481991    1.119    0.107
       128 -10.5432     12.3511    172.9540   1.3479003105e+02   3.7423112649e+01    0.2751063    0.1551989 -76.34  0.001523896    1.496    0.332
       129  -9.4339     45.9868    172.6447   1.2779582709e+02   3.4165869802e+01    0.1609096    0.1287378  67.14 0.0004680385    1.095    0.087
       130 -11.5668      1.8915    170.8889   1.3673919450e+02   3.8693556589e+01    0.4400071    0.2061524  85.93 0.0004390359    1.775    0.437
       131 -11.1859     14.2905    167.4778   1.3402954099e+02   3.8372716276e+01    0.2872749    0.2355344  47.49  0.001418188    1.369    0.270
       132 -11.6659      8.2212    165.9467   1.3517132493e+02   3.9192523403e+01    0.3109675    0.2610679 -48.97  0.002010001    1.630    0.387
       133  -9.8662     27.7239    171.4286   1.3154317252e+02   3.6330065593e+01    0.2998136    0.1534556 -50.46  0.001301201    2.589    0.614
       134  -9.3470     51.7899    171.0286   1.2638619028e+02   3.3837878560e+01    0.1935406    0.1499461  54.09  0.000533498    1.221    0.181
       135  -9.1313    166.8475    170.2243   1.0094892984e+02   1.5359369596e+01    0.1810893    0.1525762  15.24 0.0004294791    1.275    0.215
       136 -11.8488     81.9446    166.0280   1.1907437029e+02   3.0964260367e+01     0.603301    0.4004392  38.88  0.003379137    1.530    0.346
       137 -10.8563     45.2639    164.7747   1.2717894858e+02   3.5902218723e+01    0.3719445    0.2044945 -45.30  0.001915725    2.588    0.614
       138  -9.7739     43.1845    161.0502   1.2726277987e+02   3.6924851542e+01    0.2372265    0.1539425  67.87 0.0004160727    1.434    0.303
       139 -10.8679     82.6131    157.5701   1.1773607213e+02   3.2678356981e+01     0.428312     0.281373 -47.92  0.002291332    1.746    0.427
       140 -10.3907     31.3128    163.1355   1.3008313541e+02   3.7710328332e+01    0.2183322    0.1732721  73.22 0.0002720217    1.081    0.075
       141  -9.5849     37.5544    162.8900   1.2869468575e+02   3.7130521897e+01    0.2459902    0.1143528  53.05   0.00129797    2.041    0.510
       142  -9.1907     24.1479    161.8523   1.3152540413e+02   3.8664789214e+01     0.141263    0.1211767 -68.77 0.0004001523    1.319    0.242
       143 -11.5343     10.8976    157.9872   1.3407013435e+02   4.0621727305e+01    0.3258811    0.1588327  72.24  0.001335062    1.930    0.482
       144 -11.3329     12.3700    154.2062   1.3347392989e+02   4.1296393156e+01    0.3821887    0.1514657  89.74   0.00186926    2.471    0.595
       145  -8.5036    119.3062    158.6852   1.0932526394e+02   2.6506958149e+01    0.1414213    0.1029208  75.30 0.0006410367    1.624    0.384
       146  -8.8775    228.3661    155.2682   8.5949295916e+01   5.7739559700e+00    0.1819134    0.1209921 -39.05 0.0004913321    1.611    0.379
       147 -11.2057     24.2366    154.9850   1.3092238527e+02   4.0112615955e+01    0.3855602    0.1381143  34.24  0.001921174    2.811    0.644
       148  -9.9166     32.8132    153.8858   1.2888898768e+02   3.9538229712e+01    0.1706367    0.1400095 -72.08 0.0005471068    1.211    0.175
       149 -13.3115    247.5820    100.8578   7.0482325616e+01   1.0044158515e+01     2.011886    0.9140235 -19.37  0.007495938    2.921    0.658
       150 -13.1577    248.2272    134.2667   7.8042537360e+01   5.0510104644e+00      1.45689    0.7179983 -28.06  0.006644129    1.937    0.484
       151 -10.4906    249.7118    117.9227   7.4132911159e+01   7.1243280542e+00    0.4004519    0.2694806  -8.36  0.001299115    1.647    0.393
       152 -12.0367    248.3152    112.9272   7.3196778604e+01   8.1299348090e+00    0.7745601    0.5189922   5.30  0.003778231    1.879    0.468
       153 -13.3926      8.6316    143.5136   1.3347906373e+02   4.3859336217e+01    0.7189079    0.5668085 -63.46    0.0048905    1.342    0.255
       154 -10.5482     95.4139    150.3495   1.1355855391e+02   3.2299157853e+01    0.3178115    0.2363546  60.00  0.001062677    1.329    0.248
       155 -11.0979     21.5200    149.2197   1.3102511037e+02   4.1591077154e+01    0.3190681    0.2003476  48.68  0.001575804    1.572    0.364
       156  -9.9372     83.2045    149.5567   1.1639306793e+02   3.4339447218e+01    0.2238737    0.1930692 -55.22 0.0003302461    1.249    0.199
       157 -12.2887     68.3683    144.2264   1.1923180395e+02   3.7592227198e+01    0.6403092    0.4431608  80.96  0.002324432    1.531    0.347
       158  -9.8560    235.9490    146.0012   8.2645930762e+01   5.6924009406e+00    0.2169248    0.1498073   8.98  0.000509934    1.618    0.382
       159  -9.1460     98.5383    146.4707   1.1214090223e+02   3.2642269356e+01    0.1336815     0.127786  86.40 6.852685e-05    1.070    0.065
       160 -10.4575     41.8826    147.5967   1.2611565595e+02   3.9986005568e+01    0.3383075    0.1656381  45.80  0.001789261    2.000    0.500
       161  -9.8240    133.4187    140.6659   1.0257181540e+02   2.7631698714e+01    0.3473486    0.2344066 -58.02  0.001320317    1.611    0.379
       162 -11.0384     38.9273    141.7339   1.2615581246e+02   4.1587527786e+01      0.25303    0.1835409  68.06  0.001600256    1.312    0.238
       163 -11.4399     16.3984    140.1830   1.3139935694e+02   4.3975712807e+01    0.2619533    0.1722341  77.15  0.001212983    1.357    0.263
       164  -9.8702     31.4844    138.9722   1.2765937413e+02   4.2927982558e+01    0.1799985   0.09956334 -73.38  0.000359351    1.525    0.344
       165  -9.1865     25.6400    139.7000   1.2915270566e+02   4.3300958416e+01    0.1139978   0.08046155 -45.99 0.0004014383    1.715    0.417
       166  -9.9355    108.1218    136.1909   1.0786330978e+02   3.3274713378e+01    0.3959788     0.274591 -18.60  0.001625635    2.394    0.582
       167 -10.6646     47.4095    136.0898   1.2334913735e+02   4.1951890548e+01    0.2471765    0.1869994 -32.79  0.001472848    1.789    0.441
       168 -12.5763      2.1262    122.4737   1.3327863579e+02   4.8852321298e+01    0.8504884    0.2027724 -80.45  0.003126678    4.114    0.757
       169 -10.6200     44.7010    130.4506   1.2328732033e+02   4.3515036327e+01    0.2501262     0.175324  89.68 0.0008355736    1.359    0.264
       170 -10.6865     59.8305    136.3966   1.2023190555e+02   4.0438447823e+01    0.2798792    0.2011543 -81.86 0.0001762421    1.309    0.236
       171  -9.8220     55.9532    135.7464   1.2112838617e+02   4.1053753074e+01     0.192261    0.1679603 -85.58 0.0004959567    1.017    0.017
       172 -12.9806     13.7293    126.4106   1.3074106785e+02   4.7198015791e+01    0.5910422    0.3193133 -44.72  0.001817426    2.244    0.554
       173  -8.6741     48.4542    126.4655   1.2174115613e+02   4.4012957830e+01    0.1269799    0.1074112 -85.41 7.126891e-05    1.040    0.038
       174  -8.8453    209.7083    125.6837   8.2735664842e+01   1.4246349552e+01    0.1487517    0.1097632   9.45 0.0003004298    1.598    0.374
       175  -8.9721     56.3872    120.2444   1.1862929535e+02   4.4526047615e+01     0.122548   0.09623157 -26.87 0.0006938273    1.656    0.396
       176 -11.0478     30.8970    118.5378   1.2534683293e+02   4.7558998839e+01    0.2409834    0.1909153 -55.23  0.001508742    1.267    0.211
       177 -11.7770     16.7119    117.1557   1.2898571199e+02   4.9029200712e+01    0.3029418    0.2044567  14.77  0.001636682    2.014    0.504
       178 -10.5133    231.9255    116.3704   7.6608117670e+01   1.0986667255e+01    0.2429697    0.1862619 -39.16 0.0006087446    1.309    0.236
       179 -12.5384      9.0697    113.3218   1.3060070267e+02   5.0416826692e+01    0.4162104     0.251106  64.82  0.002382017    1.747    0.428
       180  -9.9611    167.7820    112.9423   8.8145543790e+01   2.5916529890e+01    0.3220205     0.259265  85.67  0.001109355    1.615    0.381
       181 -11.0752    249.5564    151.0009   8.1445346856e+01   2.4454617684e+00    0.4747149    0.2739726 -33.61  0.002439309    1.674    0.403
       182  -9.0163    203.4877    111.5261   8.0467511571e+01   1.8008162701e+01    0.1492236    0.1404732   6.13 4.533984e-05    1.028    0.027
       183  -9.6428     35.0358    107.1135   1.2254895834e+02   4.9775289392e+01    0.1798942    0.1549641 -72.01 0.0003452074    1.037    0.036
       184 -12.1682     14.5345    103.3276   1.2792370089e+02   5.2273765689e+01    0.3973714    0.1992943  47.40  0.002189614    2.269    0.559
       185 -11.3759      2.0098    102.4621   1.3136641204e+02   5.3244300239e+01    0.3499501    0.0839923 -67.40  0.001519429    2.759    0.637
       186  -8.6669     71.7499    100.0477   1.1031178456e+02   4.7160697292e+01    0.1662364    0.1076457 -58.80 0.0002801111    1.421    0.296
       187 -10.6021     20.8231     93.6757   1.2470919259e+02   5.3990103444e+01    0.2211263    0.1451311 -51.95 0.0002784992    1.372    0.271
       188 -10.8450     14.3207     94.0648   1.2674642809e+02   5.4357249714e+01     0.180355     0.155327 -35.85   0.00080513    1.341    0.254
       189 -11.1489      2.3136     90.6617   1.2991828031e+02   5.5824950407e+01    0.3393947   0.08749623 -74.55  0.001358559    3.233    0.691
       190 -11.9512    247.8812    142.2473   7.9845015465e+01   3.9780143607e+00    0.6489959    0.4603686  25.07  0.003591674    1.415    0.293
       191 -12.0579    178.5926    244.3932   1.1026609691e+02   2.0669824224e+00    0.3105322    0.3023944  18.78  0.001350359    1.315    0.240
       192 -12.2329    199.8668    246.0890   1.0682081934e+02  -1.4242003598e+00     0.508854    0.2066569  45.58  0.002605628    2.158    0.537
       193 -11.3503     19.1747     26.5138   1.0949708289e+02   6.8245654847e+01     0.363013    0.1669033  39.23  0.001850993    3.083    0.676
       194 -11.5444     60.0530    245.8645   1.3090567072e+02   1.8972411386e+01    0.3690255    0.2020602  53.33  0.001862809    1.338    0.253
