#   1 NUMBER                 Running object number                                     
#   2 MAG_AUTO               Kron-like elliptical aperture magnitude                    [mag]
#   3 X_IMAGE                Object position along x                                    [pixel]
#   4 Y_IMAGE                Object position along y                                    [pixel]
#   5 X_WORLD                Barycenter position along world x axis                     [deg]
#   6 Y_WORLD                Barycenter position along world y axis                     [deg]
#   7 A_WORLD                Profile RMS along major axis (world units)                 [deg]
#   8 B_WORLD                Profile RMS along minor axis (world units)                 [deg]
#   9 THETA_WORLD            Position angle (CCW/world-x)                               [deg]
#  10 FWHM_WORLD             FWHM assuming a gaussian core                              [deg]
#  11 ELONGATION             A_IMAGE/B_IMAGE                                           
#  12 ELLIPTICITY            1 - B_IMAGE/A_IMAGE                                       
         1 -16.3099    134.9032     23.3156   2.9037886545e+02   6.6646192493e+00    0.5393161    0.2933046 -86.85   0.04400862    3.093    0.677
         2 -18.4319    235.9086     48.8267   2.8936320097e+02   5.8311252043e+00    0.4028667    0.1514724 -58.49   0.03296027    2.495    0.599
         3 -15.0992    211.0410     69.7085   2.8977183133e+02   5.7312223789e+00   0.09044535   0.04131358  50.26   0.00726292    2.950    0.661
         4 -10.8304     92.3851      9.6346   2.9079009707e+02   7.0478353711e+00   0.01382797   0.01274303  82.89 0.0008888661    1.198    0.165
         5 -10.4729    203.9918     10.3149   2.8950556542e+02   6.4367823540e+00  0.008412298  0.006718083  19.85 0.0009704396    1.250    0.200
         6 -11.2461    233.8087      7.8829   2.8914765279e+02   6.3023406761e+00   0.01329389  0.008036509  -9.67   0.00122599    2.240    0.553
         7 -11.6754    227.1329      6.3393   2.8921553105e+02   6.3559015514e+00    0.0131039  0.006504665  14.61  0.001131896    2.374    0.579
         8 -10.4675    231.3507      4.1416   2.8915405432e+02   6.3576814821e+00  0.006115162  0.004346369   4.35 0.0002847523    1.558    0.358
         9 -10.5949    216.1395      2.1877   2.8931791582e+02   6.4621591255e+00  0.009537824  0.007251776 -31.45  0.001068391    1.371    0.271
        10  -9.7593    208.6184    186.0913   2.9047897703e+02   4.4350676807e+00   0.01051099  0.008855095  41.02 0.0005344754    1.229    0.186
        11 -12.2082    247.3043    247.9337   2.9039407150e+02   3.5302449898e+00   0.03921837   0.03182504 -39.32   0.00464274    1.222    0.182
        12 -12.1185    237.9127    248.9007   2.9050765933e+02   3.5700678647e+00   0.02725353   0.01870812  -3.22  0.002337209    1.706    0.414
        13 -13.7638     10.6685    240.7164   2.9307658767e+02   4.8847923802e+00   0.09075517   0.07294662  42.67   0.01068217    1.298    0.229
        14  -8.8585    143.0071    180.9657   2.9120481487e+02   4.8468541601e+00   0.01047469  0.007515984  59.39  0.001081754    1.681    0.405
        15  -8.9305    187.2519    178.9569   2.9068342009e+02   4.6307646616e+00  0.008531124  0.005541846 -62.82 0.0008814945    1.559    0.359
        16 -10.7572    230.1426    172.9153   2.9015446101e+02   4.4670099685e+00   0.03030954  0.008896999  30.16  0.001456491    3.066    0.674
        17 -10.8454    220.3898    175.1047   2.9027946338e+02   4.4950990868e+00   0.02340014   0.01177106 -75.18  0.001981311    2.643    0.622
        18 -10.9280    220.9892    170.2628   2.9024433866e+02   4.5463426948e+00   0.01558379   0.01130905  40.89  0.001730397    1.425    0.298
        19 -11.6552    214.4223    168.9612   2.9031233890e+02   4.5964862715e+00   0.02962567   0.01307271  33.69  0.002625882    2.170    0.539
        20 -12.5492    180.6642    165.4393   2.9068055218e+02   4.8184975788e+00   0.05831432   0.01628845  45.05  0.002241568    5.363    0.814
        21 -11.4725    192.3488    171.6964   2.9058242896e+02   4.6849673331e+00   0.02566906   0.00983154  43.58  0.001986321    2.986    0.665
        22 -10.4482    188.8945    169.9384   2.9061196755e+02   4.7234105972e+00   0.01594624   0.01082049  50.93 0.0007110964    1.678    0.404
        23  -9.3193    180.5205    174.5149   2.9073507351e+02   4.7171105920e+00   0.01285759  0.004820579  37.40  0.001030621    2.605    0.616
        24 -10.3384    230.1225    166.7171   2.9011854979e+02   4.5368560823e+00   0.01408514  0.009500447 -86.22  0.001043414    1.917    0.478
        25 -11.0029    195.3400    167.5714   2.9052394612e+02   4.7152393563e+00   0.01875348  0.009344893  39.02 0.0009221928    2.035    0.508
        26 -11.7751    203.4554    166.2434   2.9042275716e+02   4.6863400725e+00   0.01952709   0.01917696  48.58  0.001668139    1.075    0.070
        27 -11.3130    203.4872    160.8297   2.9039083259e+02   4.7470929703e+00   0.01497961   0.01223654  62.19  0.001013152    1.407    0.289
        28  -9.5043     60.7258    248.0207   2.9254208736e+02   4.5341044722e+00   0.00889755  0.008177871 -47.18 0.0001844862    1.072    0.067
        29 -14.3600     67.1182    148.1419   2.9188908726e+02   5.6250742050e+00   0.08665592   0.06009806 -28.27  0.003853084    1.591    0.371
        30 -12.0061    161.6364    146.2770   2.9078814789e+02   5.1369317311e+00   0.02031432   0.01698799 -46.43  0.002438809    1.170    0.146
        31 -11.1595    144.8060    147.3866   2.9098861697e+02   5.2152562419e+00   0.01901522   0.01197931  73.06  0.001767104    2.381    0.580
        32  -8.9408    127.7677    142.7726   2.9115820328e+02   5.3590811814e+00  0.008549166   0.00745662  63.77 0.0005044512    1.284    0.221
        33 -10.9442    133.9840    147.8575   2.9111612956e+02   5.2683145006e+00   0.04131733   0.01477381 -73.00  0.002546019    4.955    0.798
        34 -10.3078    157.1684    139.7041   2.9080134530e+02   5.2350402843e+00   0.01070773  0.008912155 -83.72 0.0006136667    1.355    0.262
        35 -11.5604    112.7794    105.0283   2.9111123956e+02   5.8648115673e+00   0.08161116   0.03919561 -59.63   0.00750639    2.022    0.505
        36 -12.1463    136.4674     94.0388   2.9077382742e+02   5.8607452023e+00   0.02886294   0.02100222  39.08  0.001553506    1.405    0.288
        37 -11.7292    126.6055    106.4688   2.9096009647e+02   5.7740545311e+00   0.03716032   0.01574838 -52.61  0.003242866    2.205    0.547
        38 -12.3943    121.5517    104.4990   2.9100692571e+02   5.8234796649e+00   0.05342652   0.02475323 -59.32  0.004833878    2.084    0.520
        39 -11.7651    134.8241    124.1726   2.9096847646e+02   5.5304434831e+00   0.05097247   0.02022235 -72.51  0.003636047    3.687    0.729
        40 -10.7326    129.0608    115.5267   2.9098456832e+02   5.6588535399e+00   0.02094165   0.01289606  87.37  0.001915965    2.448    0.592
        41 -12.0099    160.2207    128.7941   2.9070256692e+02   5.3413696843e+00   0.02243543   0.01808815 -32.55  0.001984329    1.260    0.206
        42 -11.3209    155.1855    159.5463   2.9093979293e+02   5.0223587939e+00   0.02912858   0.01424066  57.68  0.002061971    3.407    0.707
        43  -8.8940    125.3850    127.7174   2.9109800262e+02   5.5414355716e+00  0.008688251  0.005790792 -50.62 0.0003632401    1.456    0.313
        44 -10.9997    152.1332    121.1199   2.9075106921e+02   5.4714071992e+00   0.01838086    0.0114484 -66.97 0.0008025764    1.699    0.411
        45  -9.6172    140.2611    120.6998   2.9088552917e+02   5.5402060237e+00   0.01548582  0.007585952  60.25  0.001120286    3.780    0.735
        46  -8.9160     99.7700    130.1388   2.9140761228e+02   5.6521826802e+00  0.009082397   0.00724283 -27.23 0.0005413115    1.303    0.232
        47  -8.4893    146.6173    113.2727   2.9076892242e+02   5.5895033863e+00  0.006860571  0.004704095  53.74 0.0005009308    1.705    0.413
        48  -9.9130     97.3127    111.8929   2.9132973410e+02   5.8708578690e+00   0.01518901   0.01008002  83.02 0.0008497149    2.125    0.529
        49 -11.7983    152.5189     99.0887   2.9061812338e+02   5.7172666293e+00   0.02879828   0.01905904   8.54   0.00230413    1.680    0.405
        50  -9.7504    139.9475    106.0745   2.9080387804e+02   5.7065148840e+00   0.01377455   0.01046979 -20.41  0.001542426    1.433    0.302
        51 -10.6427    144.2813    103.4613   2.9073864637e+02   5.7125347146e+00   0.01569626   0.01207072  17.90 0.0008180178    1.310    0.237
        52 -10.4119    156.5004    103.9826   2.9060075854e+02   5.6406954725e+00    0.0179958   0.01114421  84.75  0.001641247    2.469    0.595
        53 -10.8263     41.8719    246.9023   2.9275282394e+02   4.6478648617e+00   0.01030088   0.00846662 -30.11 0.0004727209    1.238    0.192
        54 -11.5624    134.7876    109.2027   2.9088164104e+02   5.6991475572e+00   0.06231681   0.01041913 -61.77  0.003492009    5.472    0.817
        55 -11.6506    149.4144     90.0711   2.9060131320e+02   5.8354977525e+00   0.01502373     0.011988 -73.95 0.0006041245    1.362    0.266
        56 -11.3409    210.5014    178.5608   2.9041342514e+02   4.5096460078e+00   0.03607476   0.01793735  53.36  0.002391458    2.812    0.644
        57  -8.5421     31.5951     86.5167   2.9194093394e+02   6.5098802921e+00  0.006358424  0.006183466 -32.02 0.0001062432    1.025    0.025
        58 -10.2574    131.9529     98.8188   2.9085379451e+02   5.8313114667e+00   0.01334142   0.01192304  50.33 0.0008721156    1.196    0.164
        59 -10.7361     80.5993     79.9550   2.9133663155e+02   6.3203643344e+00   0.01837716   0.01147801 -77.75  0.001176396    1.961    0.490
        60 -11.5189    146.1651    157.6326   2.9103261719e+02   5.0925640285e+00   0.02597853   0.01700564  64.53  0.002569729    2.055    0.513
        61 -11.7297    197.2252     64.2333   2.8989905116e+02   5.8675858827e+00   0.01956245   0.01200643  43.87  0.001891564    1.742    0.426
        62 -12.2204     82.9415    144.5145   2.9168542009e+02   5.5808530002e+00   0.03889909   0.02459119 -87.13  0.002892003    2.177    0.541
        63  -9.6718    175.9044     52.2577   2.9007488544e+02   6.1176089661e+00   0.01346545  0.009409914 -89.70  0.001390921    1.851    0.460
        64 -12.1022    203.6975     26.7298   2.8960505781e+02   6.2540064802e+00   0.01952473   0.01320219  38.14  0.001890401    1.499    0.333
        65 -10.1698    205.8819     37.5267   2.8964306187e+02   6.1208656991e+00   0.01048751  0.008361236 -45.30 0.0008019621    1.230    0.187
        66 -12.0864    205.8494     33.0187   2.8961705581e+02   6.1716911411e+00   0.01427472  0.009194559 -58.36 0.0008932524    1.526    0.345
        67  -9.0200    171.1627     35.0687   2.9002907660e+02   6.3364815265e+00  0.008403668    0.0072783  87.67 0.0004860373    1.311    0.237
        68 -12.2597     56.2447    155.8704   2.9205945576e+02   5.5964351143e+00   0.01985496   0.01687584   1.07 0.0007901628    1.205    0.170
        69 -11.0809     92.0060     30.4738   2.9091620574e+02   6.8156003958e+00    0.0276533  0.009017564 -61.32  0.001995652    2.973    0.664
        70 -10.0680    190.0303     35.2630   2.8981258242e+02   6.2321682797e+00  0.008143365  0.007563749  12.10  0.001015033    1.065    0.061
        71  -9.8690     78.4877     28.9236   2.9106337670e+02   6.9058532759e+00   0.01473546  0.005447725 -55.82 0.0008629701    2.477    0.596
        72  -9.3414    177.5053     25.6124   2.8990058807e+02   6.4084246490e+00  0.006383135  0.006116803   3.82 -0.0001384141    1.028    0.027
        73 -11.6401    199.7775     21.5494   2.8961993290e+02   6.3334436697e+00   0.01103438  0.008105656 -44.03 0.0004745177    1.345    0.257
        74  -9.7186     78.9618     18.0018   2.9099412828e+02   7.0261024650e+00   0.01299287  0.008685861 -60.40 0.0008283297    1.490    0.329
        75  -9.3556    162.6234     16.8471   2.9002102538e+02   6.5874504824e+00   0.00976871  0.008451261 -17.16 0.0004472038    1.179    0.152
        76 -10.0399     90.1027     15.3543   2.9084989466e+02   6.9958452987e+00   0.01204379  0.009315322 -67.60 0.0005493694    1.354    0.261
        77 -11.1153    206.8009    177.5530   2.9045015070e+02   4.5409814326e+00   0.01815734  0.009521012  38.69  0.001287741    1.928    0.481
        78 -10.4347    192.2827    193.6955   2.9071131937e+02   4.4376963643e+00   0.04400184    0.0212166  87.81  0.002389671    7.158    0.860
        79  -9.7460    182.0624    196.2218   2.9084370106e+02   4.4644214813e+00   0.01010035  0.009063297 -64.27 0.0003611099    1.145    0.127
        80 -12.8737     21.8301    182.1061   2.9260871891e+02   5.4854901077e+00   0.07933637   0.03991871  55.43  0.006512799    2.925    0.658
        81 -13.8010     29.5595    168.2909   2.9243945223e+02   5.5997192782e+00    0.1255582   0.04943024  34.67  0.008953539    2.415    0.586
