#   1 NUMBER                 Running object number                                     
#   2 MAG_AUTO               Kron-like elliptical aperture magnitude                    [mag]
#   3 X_IMAGE                Object position along x                                    [pixel]
#   4 Y_IMAGE                Object position along y                                    [pixel]
#   5 X_WORLD                Barycenter position along world x axis                     [deg]
#   6 Y_WORLD                Barycenter position along world y axis                     [deg]
#   7 A_WORLD                Profile RMS along major axis (world units)                 [deg]
#   8 B_WORLD                Profile RMS along minor axis (world units)                 [deg]
#   9 THETA_WORLD            Position angle (CCW/world-x)                               [deg]
#  10 FWHM_WORLD             FWHM assuming a gaussian core                              [deg]
#  11 ELONGATION             A_IMAGE/B_IMAGE                                           
#  12 ELLIPTICITY            1 - B_IMAGE/A_IMAGE                                       
         1 -13.5491    169.5827     56.3866   6.1702985397e+01   3.5517466290e+01     2.118831     1.345206  23.66  0.006472944    2.302    0.566
         2 -13.2178    184.2173     41.4700   5.4582952956e+01   3.3944965893e+01    0.9989362    0.8577934 -42.31  0.003088229    1.173    0.147
         3 -12.7541    189.1996     35.1394   5.1951630323e+01   3.3508165900e+01    0.6146292    0.5967078 -11.19  0.001674926    1.139    0.122
         4 -13.8986    206.7036     10.8372   4.2979319803e+01   3.1919072662e+01     1.229239     1.064759  17.81  0.005516645    1.462    0.316
         5 -12.6456    234.1918      3.3451   3.8626689027e+01   2.6057477085e+01      1.85663    0.4006919  74.43  0.005960699    4.561    0.781
         6 -11.3687    191.5169     15.5262   4.5984133605e+01   3.5263924521e+01    0.6656673    0.2864239  75.02  0.002645198    2.362    0.577
         7 -10.0967     60.4963      2.5044   6.9660444691e+01   6.6961514365e+01    0.1245711    0.1001496   8.93 0.0008106678    1.004    0.004
         8  -9.4738     98.0460    214.9166   1.1309486253e+02   1.7733664007e+01    0.1804446    0.1562776   0.42  0.001135783    1.785    0.440
         9 -13.4375    246.2887    240.1991   8.8987270475e+01  -9.8534453305e+00     1.527689    0.6993595 -24.52    0.0084792    2.381    0.580
        10  -9.4451    204.5217    199.9965   8.9604223064e+01   1.9477074592e+00     0.180376    0.1078906 -10.13  0.000809001    2.463    0.594
        11 -10.2265     80.5850    194.7118   1.1435951121e+02   2.4355371642e+01    0.4737707    0.2042295  53.63  0.002149939    2.228    0.551
        12 -12.1996    149.5775    188.5405   9.8686569260e+01   1.4028749900e+01     0.452678    0.3932979  85.37  0.002038547    1.302    0.232
        13  -9.4182    156.5810    189.7179   9.7404500924e+01   1.2503357324e+01    0.1750226    0.1345263 -64.21 0.0009356513    1.560    0.359
        14 -11.5480     66.2513    194.0660   1.1728576747e+02   2.6485898265e+01    0.3348458    0.2334438 -45.92  0.001375678    1.998    0.499
        15  -9.1188     65.7254    187.2008   1.1666658166e+02   2.8009678650e+01    0.1398802    0.1298582  85.74 0.0001662647    1.231    0.188
        16 -19.4369     35.2071    146.2907   1.1904564490e+02   4.0807183972e+01     19.02876     5.136614 -73.66   0.06734114    3.670    0.727
        17 -12.2088     75.2535    248.7724   1.2046986504e+02   1.4965686042e+01    0.3445269    0.1465327 -61.02 0.0009347788    2.744    0.636
        18 -11.3835    151.0865    180.0992   9.6891789605e+01   1.5372996419e+01    0.4468222    0.3051555 -76.82  0.002068977    2.143    0.533
        19 -11.5320    145.2868    180.7403   9.8267762899e+01   1.6344690765e+01    0.3461336    0.3031667 -15.48  0.001077833    1.383    0.277
        20 -12.4155    142.0045    175.8129   9.8118539858e+01   1.7950414938e+01    0.7765675    0.5176052  87.23  0.003280128    2.401    0.584
        21 -11.8039     70.9259    207.2625   1.1766804730e+02   2.3155721141e+01    0.4604864    0.2848599  25.75  0.002461493    2.340    0.573
        22 -10.6857    188.7654    176.6843   8.8311527592e+01   8.7028306046e+00    0.5226832    0.3726414 -61.13  0.002349617    1.927    0.481
        23 -12.9329     10.6974    206.2532   1.2897498980e+02   3.0297632122e+01    0.4309998    0.1947043  40.64  0.002645333    2.066    0.516
        24  -9.4400    240.2989    169.3312   7.7076094942e+01   2.1830351319e-01    0.1387651   0.09396397   3.64   0.00027882    1.645    0.392
        25  -9.5964    230.6628    167.0040   7.8296543798e+01   2.3143164945e+00    0.2179762    0.1002144 -52.60  0.000705041    4.464    0.776
        26 -11.7208     61.3932    204.8452   1.1932577737e+02   2.4910558013e+01    0.2987818    0.2037931 -52.85  0.001479435    1.893    0.472
        27  -9.5258      3.8973    162.0274   1.2761570954e+02   4.0037988743e+01    0.1626602    0.1238921 -85.20 0.0005529039    1.107    0.097
        28 -10.8879     94.4567    156.7804   1.0592142600e+02   3.0561159128e+01    0.2650034     0.236357 -75.24 0.0004070188    1.084    0.077
        29 -12.0428     99.6363    150.5348   1.0356260224e+02   3.1142032391e+01     0.599752     0.459642 -33.14  0.003068984    1.675    0.403
        30  -9.1714    149.4296    156.1733   9.2673012950e+01   2.0545844228e+01    0.2117606     0.141348 -62.95 0.0009429861    1.796    0.443
        31  -9.2562      1.4501    155.8819   1.2771284136e+02   4.1559761400e+01    0.1566746   0.08559497 -78.37 0.0001215748    1.410    0.291
        32 -10.5815    134.2439    148.2553   9.4606013186e+01   2.5288020084e+01    0.7254547    0.2596897 -57.92  0.002157686    3.934    0.746
        33 -10.8167    133.6789    144.0074   9.3850256412e+01   2.6335107402e+01    0.9510138    0.2966836 -56.90  0.002513377    4.869    0.795
        34 -10.0796    187.6660    152.3199   8.3463195413e+01   1.3369247557e+01    0.2286718    0.1855218 -88.18 0.0006668605    1.720    0.419
        35  -9.8512    113.4130    151.4174   1.0031001613e+02   2.8534752886e+01    0.3187438    0.2047618  79.24  0.001113342    2.262    0.558
        36  -9.6884    174.8288    149.1267   8.5484810326e+01   1.6695102182e+01    0.2274246    0.2085975 -87.03 0.0006226972    1.253    0.202
        37 -10.1091    143.5704    145.7735   9.1852984849e+01   2.3948116894e+01    0.3512635    0.1433292 -56.28  0.001145858    3.131    0.681
        38 -10.4370    160.2650    205.7287   9.9288697007e+01   8.9608687969e+00    0.2429183    0.1460188  43.54 0.0009029093    1.446    0.308
        39  -9.0868    114.2077    142.7959   9.8426401901e+01   3.0352564935e+01    0.2514658    0.1550884  81.16 0.0009434383    2.765    0.638
        40 -11.2547    109.8796    137.3446   9.8418017479e+01   3.2398734084e+01    0.5813958     0.301395 -44.56  0.002379229    2.068    0.516
        41  -8.9591    127.9996    139.4657   9.4273541104e+01   2.8473221515e+01    0.2290808    0.1463137  42.80   0.00102021    1.561    0.359
        42 -11.6964     98.5240    136.4494   1.0119221616e+02   3.4607354360e+01    0.2817392    0.2720218  16.49 7.936406e-05    1.197    0.165
        43 -11.0836    105.9272    130.7808   9.8073778137e+01   3.4636700450e+01    0.3982584    0.3301651 -70.65  0.001157572    1.203    0.169
        44 -10.0333    136.0000    129.9782   9.0151099661e+01   2.8967320071e+01    0.4267326   0.08685295 -47.45  0.001049412    4.917    0.797
        45 -10.1716    161.1394    128.6145   8.3794852581e+01   2.3839620759e+01     0.487393    0.2956198  59.91  0.001967544    1.977    0.494
        46 -10.1950    116.3147    128.4554   9.4829280375e+01   3.3247010328e+01    0.2996922    0.2474031 -23.38 0.0007124678    1.472    0.320
        47 -10.5003    104.3151    123.9901   9.7024926968e+01   3.6509273799e+01    0.2922382    0.2324053 -33.29 0.0007923883    1.434    0.303
        48  -9.4933    120.5597    123.2255   9.2513597023e+01   3.3617378883e+01    0.2120481    0.1412694 -38.96 0.0007147126    1.617    0.382
        49  -9.4540    152.7816    119.6949   8.3549859083e+01   2.7575554505e+01    0.2677453    0.2113771 -30.89 0.0006737171    1.356    0.263
        50  -9.4870    111.0717    117.9851   9.3806671083e+01   3.6652949202e+01    0.2183528    0.2127929 -78.93 0.0003811825    1.022    0.022
        51  -9.8433    231.2648    113.7930   6.6199087284e+01   1.0925650145e+01      0.24715    0.2322897  22.86 0.0007486842    1.113    0.102
        52  -9.8818    167.4651    112.4285   7.8272534532e+01   2.5728617056e+01    0.3468077    0.2649456 -80.78  0.001529418    1.769    0.435
        53 -10.7444    134.6123    105.8120   8.4447602432e+01   3.4571022888e+01      0.57857    0.1498836 -44.80  0.001590238    3.804    0.737
        54 -11.1935    119.4815    110.6433   8.9714977539e+01   3.6680349371e+01    0.5432655    0.3586851  67.71  0.002258301    2.079    0.519
        55  -9.8284    205.3694    110.0931   6.9854531782e+01   1.7329793073e+01    0.3269536    0.2313363  46.02 0.0009873253    1.457    0.314
        56 -10.9122    192.9395    194.9313   9.0925365027e+01   4.8297131908e+00    0.8700376    0.4665244 -63.88    0.0027553    5.778    0.827
        57  -9.1531    186.8266    186.7759   9.0638395846e+01   7.3243089221e+00     0.207198    0.1689284  73.95  0.000568577    1.665    0.399
        58  -9.4523     87.6262    202.6059   1.1380121833e+02   2.1707947456e+01    0.2100247    0.1835825  13.01  0.001327009    1.651    0.394
        59 -10.2316    187.7573     87.7499   6.7311516263e+01   2.5584634931e+01    0.3886575    0.3132197 -82.62  0.001846827    1.495    0.331
        60  -9.1765    152.3326     82.3012   7.3344436092e+01   3.5298490592e+01     0.161168    0.1237498  15.05 0.0004793222    1.653    0.395
        61  -9.3186     75.0307     74.0133   9.2973777960e+01   5.2762366355e+01    0.2050545    0.1903393 -31.56 0.0004098538    1.035    0.034
        62 -10.6494     71.5274    243.0624   1.2067335976e+02   1.6430018998e+01    0.2146433    0.1485051  88.11 0.0006823081    1.390    0.280
        63  -9.4776     85.7242    239.8013   1.1789631648e+02   1.5045589789e+01    0.1694064    0.1244867  46.87 0.0002934156    1.235    0.190
        64  -9.0451    167.5248    228.8890   1.0135190292e+02   3.9566926901e+00    0.1574374     0.126074 -45.21 0.0006146426    1.524    0.344
        65 -12.0041     63.1907    221.2760   1.2042294801e+02   2.1463977384e+01    0.4117808     0.196025  73.79  0.001412924    2.395    0.583
        66  -9.8150     57.1418    225.3282   1.2185978810e+02   2.1479536632e+01   0.09479093   0.06838245 -70.29 0.0001585477    1.522    0.343
        67 -12.0268     58.2895    214.8090   1.2080197523e+02   2.3336887067e+01    0.2572989    0.1663384  61.46  0.001109253    1.255    0.204
