#   1 NUMBER                 Running object number                                     
#   2 MAG_AUTO               Kron-like elliptical aperture magnitude                    [mag]
#   3 X_IMAGE                Object position along x                                    [pixel]
#   4 Y_IMAGE                Object position along y                                    [pixel]
#   5 X_WORLD                Barycenter position along world x axis                     [deg]
#   6 Y_WORLD                Barycenter position along world y axis                     [deg]
#   7 A_WORLD                Profile RMS along major axis (world units)                 [deg]
#   8 B_WORLD                Profile RMS along minor axis (world units)                 [deg]
#   9 THETA_WORLD            Position angle (CCW/world-x)                               [deg]
#  10 FWHM_WORLD             FWHM assuming a gaussian core                              [deg]
#  11 ELONGATION             A_IMAGE/B_IMAGE                                           
#  12 ELLIPTICITY            1 - B_IMAGE/A_IMAGE                                       
         1 -13.3262     42.6512     45.7156   9.0160322217e+01   6.4897946053e+01     1.155902    0.6412711  49.49 0.0007877442    2.303    0.566
         2 -11.8010     26.3548     56.9917   1.0212052055e+02   6.4155381537e+01     1.419129    0.6143871 -47.48  0.006168005    2.117    0.528
         3 -12.7562    119.7115     37.8089   5.8405598157e+01   5.0343163926e+01     1.011758    0.7101923 -68.00  0.004088493    1.788    0.441
         4 -12.2450     61.3265     48.2961   8.2315745345e+01   6.1441918082e+01     1.345904    0.7346374 -58.31  0.005638603    2.200    0.545
         5 -11.6307      6.0934     33.9908   1.0740178831e+02   7.1084516753e+01     1.352835     0.493016 -54.89  0.001204683    2.089    0.521
         6 -10.5981     47.0340     18.9352   7.5417540047e+01   6.9486860858e+01    0.3730806    0.3362823 -25.01  0.001629281    1.094    0.086
         7 -10.1595     32.2544     12.3774   8.0182102006e+01   7.2961729612e+01    0.2107351    0.1964609  69.12 0.0006277472    1.463    0.317
         8 -11.9792     36.1732     18.9526   8.1552701161e+01   7.1223516657e+01    0.6646961    0.4440659 -46.01   0.00363323    1.487    0.327
         9 -12.7027     17.1709     12.7497   9.0968641641e+01   7.4782253033e+01    0.9828384    0.6318038 -31.91  0.004055542    1.441    0.306
        10 -10.7475    155.6648     42.1986   5.2644138858e+01   4.0363235693e+01    0.7950667    0.5717099  17.09   0.00364371    1.885    0.470
        11 -10.9052    146.9008     16.4203   4.5150313134e+01   4.5897300037e+01     1.154884    0.5915204 -89.53  0.003353726    2.430    0.589
        12 -11.7888    136.9103     22.5708   4.9002027444e+01   4.7870290433e+01     1.698761    0.5348807  62.96  0.005769773    2.812    0.644
        13 -12.2116    132.0981     15.2484   4.7034344662e+01   4.9985026575e+01     1.960535    0.7007505  77.68  0.006054512    3.706    0.730
        14  -9.8696    141.6099     12.2249   4.4393102054e+01   4.7753638081e+01    0.2359797    0.2071496  25.24 0.0005912816    1.286    0.222
        15 -11.7169    159.9636     29.7752   4.7833027451e+01   4.0883283229e+01    0.4935161    0.4458319 -28.27  0.001364146    1.162    0.140
        16 -11.8073    164.1496     27.8103   4.6584467729e+01   4.0027652329e+01    0.5266624     0.340311 -60.68 0.0003874861    1.649    0.393
        17 -11.0405    105.9088     20.7631   5.4699470736e+01   5.6223437374e+01    0.5102019    0.3631518 -41.65  0.001576341    1.475    0.322
        18 -12.2516    113.2913     25.5123   5.4967957070e+01   5.3720911882e+01     0.841354    0.4385826  51.18  0.003141067    1.815    0.449
        19 -10.8935    198.7156     28.8757   4.2760377377e+01   3.1185211539e+01     0.527072    0.3637407 -14.83  0.002499157    1.658    0.397
        20 -12.3086     48.3686     12.9435   7.1242840146e+01   7.0213001247e+01    0.8270805    0.3223715  44.08  0.003413697    2.537    0.606
        21 -11.8520     20.1897     22.0347   9.3482139176e+01   7.2617769719e+01     0.790273    0.2666446 -53.01  0.003285827    2.548    0.608
        22 -10.7497    214.8199     23.1648   3.9717869915e+01   2.8046691002e+01    0.4624098    0.3262885   5.97  0.002434597    1.975    0.494
        23 -10.7906     86.9935      7.3099   5.3193436748e+01   6.2518362525e+01    0.6306778    0.3626902  67.77   0.00257067    1.792    0.442
        24 -11.2457     90.8194     21.0887   5.8946802412e+01   5.9932087640e+01    0.6747907     0.459977 -23.42  0.003310051    1.553    0.356
        25 -11.3062     86.0903     14.1876   5.6976047797e+01   6.1954541994e+01    0.7762815    0.4778634  16.69  0.003082233    2.191    0.544
        26 -10.7705    178.8725     20.9396   4.2571583615e+01   3.7015945858e+01    0.5504141    0.2906461  37.20  0.002239282    2.680    0.627
        27 -11.9781     68.1581     18.0219   6.5201297371e+01   6.5530023713e+01    0.5312859     0.498894  27.24  0.001926783    1.045    0.043
        28 -12.3236    237.7187     15.8315   3.6217920564e+01   2.3808065549e+01    0.4804417    0.3920762  66.48  0.002328875    1.421    0.296
        29  -9.6303    120.1822     19.1260   5.0801074036e+01   5.2716035014e+01    0.4348287    0.1371876 -30.43  0.001484787    3.013    0.668
        30 -12.0428     22.9135     11.4804   8.5998491880e+01   7.4374057169e+01    0.6505753    0.4209196 -33.06  0.003694467    1.423    0.297
        31 -11.3140    165.0206     17.9530   4.3251718124e+01   4.0928482083e+01    0.4632955    0.2909002  41.63  0.001369975    1.871    0.465
        32 -10.6822    226.2694     15.4804   3.6889597799e+01   2.6298277420e+01    0.4133352    0.1979168 -40.18  0.001861091    1.697    0.411
        33  -9.6173    191.5700     16.6342   3.9991837417e+01   3.4290611593e+01    0.3236956    0.2200411   4.80  0.001590479    2.038    0.509
        34 -11.3599    192.5347      8.1986   3.7487389400e+01   3.4909026092e+01    0.6298541    0.4222476  15.93  0.002369961    2.148    0.535
        35 -12.2492    104.6247     12.9180   5.1478046125e+01   5.7477401722e+01    0.5427998    0.4168039 -25.40  0.002055003    1.371    0.271
        36 -11.4188    211.8386      9.5640   3.6389831122e+01   3.0154525614e+01    0.5830865    0.3302049   0.71  0.002061036    2.815    0.645
        37  -9.3455     94.3305     12.2616   5.3703187036e+01   6.0160817200e+01    0.1814457    0.1579119 -79.71 0.0006092703    1.294    0.227
        38  -9.5471      4.3934     12.5897   1.0105658163e+02   7.5890459183e+01    0.2470224    0.1450731  26.46  0.001411384    1.889    0.470
        39  -8.5871      5.3259      9.3245   9.8724215812e+01   7.6498105801e+01    0.2583613    0.1110165 -38.23 0.0009519404    2.110    0.526
        40 -12.0597    246.8979      6.6823   3.3571910891e+01   2.2834478562e+01    0.5359095    0.4278297  40.29  0.003475327    1.703    0.413
        41 -11.7031    241.7904      3.9494   3.3207873215e+01   2.4138444210e+01    0.5202903    0.3240437  76.44  0.003132215    1.723    0.420
        42 -11.4678    232.5488      7.2988   3.4496295520e+01   2.5757618516e+01    0.4797628    0.2822337  57.92  0.002302285    1.998    0.500
        43 -10.4504    228.6867      3.1614   3.3716527775e+01   2.6988935085e+01    0.3136421    0.2436252 -27.37   0.00199733    1.298    0.230
        44 -10.9921    218.8105      3.4597   3.4361337439e+01   2.9150089703e+01    0.3416862    0.2595513 -30.38 0.0009031887    1.282    0.220
        45 -10.4764    223.6311      1.8862   3.3686650916e+01   2.8219312791e+01    0.3159486     0.188588  81.22   0.00112458    1.696    0.410
        46  -9.5909    168.6890      9.8995   4.0224495008e+01   4.0801378694e+01    0.3370154    0.1595881  56.61   0.00144276    2.090    0.521
        47  -9.8443     65.9997     10.4530   6.1835347226e+01   6.7025478192e+01    0.2865105    0.1886426  60.17  0.001070898    1.640    0.390
        48 -10.0738     63.1721      6.5168   6.0626723274e+01   6.8126854392e+01     0.315635    0.2667517  20.57  0.001380413    1.124    0.110
        49  -9.4107      1.1397      7.3676   1.0143639062e+02   7.7169963326e+01    0.2586932   0.06631006 -61.57 0.0006882159    3.357    0.702
        50 -11.2719      2.8578      1.9361   9.6961407710e+01   7.8139507500e+01    0.4019365    0.1998311   4.51  0.002070189    2.357    0.576
        51 -10.3177    183.4877      4.6458   3.7203783554e+01   3.7505090477e+01     0.418253    0.2381634 -26.03  0.001516372    1.758    0.431
        52  -9.9025    153.1433      7.2245   4.1075955795e+01   4.5159877712e+01    0.4152405    0.1743413  66.03  0.001549284    2.132    0.531
        53  -9.3323     78.4763      7.5244   5.5813604238e+01   6.4544974806e+01    0.2534704    0.1696635  63.30 0.0006529505    1.508    0.337
        54 -11.1522     75.3298      3.3178   5.4458765214e+01   6.5736458129e+01    0.7083983     0.349687  51.30   0.00315912    1.808    0.447
        55 -10.7686     41.4360      4.6279   6.9641759589e+01   7.2682336265e+01    0.4455858    0.2732517  -2.70  0.002147437    2.165    0.538
        56 -10.9830    176.7844      5.6747   3.8101857119e+01   3.9113839292e+01    0.3848072    0.2265994 -89.74  0.001013577    1.692    0.409
        57 -11.0611    114.8592      3.5733   4.5217496671e+01   5.5733840419e+01    0.6339985    0.3216278  56.11 0.0007807394    1.763    0.433
        58  -8.9491    122.1642      5.3624   4.4725868798e+01   5.3629636579e+01    0.1924036    0.1276419  83.92 0.0003704331    1.536    0.349
        59 -12.1766    134.4202      2.4912   4.1727225797e+01   5.0603398198e+01    0.4392454    0.2802815  77.26 0.0005910027    1.473    0.321
        60  -9.9718    142.3499      3.3041   4.0994553337e+01   4.8404128220e+01    0.4548088    0.2349944  62.74  0.001530895    1.752    0.429
        61  -9.2173     55.0680      4.2121   6.2580938113e+01   7.0114661475e+01    0.1618357    0.1527785 -84.01  0.001007476    1.339    0.253
        62 -10.8533    206.6724      2.4190   3.4854490388e+01   3.2049164771e+01    0.5088593    0.2236236 -87.74  0.001872316    2.461    0.594
        63  -9.9881    169.2276      2.4575   3.7791295071e+01   4.1360217885e+01    0.2751964    0.1748261 -49.00 -3.123106e-05    1.491    0.329
        64  -9.7285    158.3859      2.3545   3.8823434591e+01   4.4213160304e+01    0.3886029    0.1809509  47.54  0.001600937    2.396    0.583
        65  -9.9413     12.9250      1.8713   8.7767793056e+01   7.7249658030e+01     0.341475    0.1696238  20.33  0.001739336    2.219    0.549
        66  -8.9727    152.0560      1.0000   3.9031032451e+01   4.6010561727e+01    0.2283242   0.07412472  74.71 0.0006978574    2.861    0.650
        67 -10.9874    106.5483      1.9433   4.6025716172e+01   5.8064853656e+01    0.7151692    0.2834676  72.10  0.001917015    2.517    0.603
        68  -9.4115    234.4837    150.5078   6.7184778915e+01   7.2135440057e+00    0.1244705    0.1012223  -4.86 0.0001562537    1.029    0.028
        69 -10.2931    143.0483    249.1032   9.9104123952e+01   7.3587486573e+00    0.1948976      0.16276 -17.72  0.001510632    1.477    0.323
        70  -9.4679    239.8438    146.8313   6.5652485974e+01   6.8573514264e+00    0.1844198    0.1415585   0.96 0.0005407581    1.179    0.151
        71 -10.3954    249.6249    142.9997   6.3489577542e+01   5.8469951462e+00    0.5643267    0.1783963 -32.07  0.002445494    2.710    0.631
        72  -9.0189    107.8311    145.8734   9.2496642236e+01   3.0827253615e+01    0.1980056    0.1618495  68.63 0.0003382292    1.314    0.239
        73 -10.7399     33.5469    144.5600   1.1334974749e+02   4.1644142242e+01    0.4691735    0.2146311  46.55   0.00194248    1.970    0.492
        74  -9.7520    133.0036    140.2551   8.4974909763e+01   2.7386406199e+01     0.256729     0.217472 -45.65  0.001154779    1.246    0.197
        75 -12.0997     18.8096    122.3723   1.1575737522e+02   4.8421033281e+01    0.2657484    0.2058056  89.56  0.000284935    1.128    0.114
        76 -11.5012     22.7025    127.1748   1.1496559907e+02   4.6905260937e+01     0.289511    0.2104535  40.56 0.0002848773    1.363    0.266
        77 -12.0057     23.4373    135.2564   1.1548757068e+02   4.4860038458e+01     1.029467    0.3582447  40.39   0.00442148    2.483    0.597
        78 -11.8663     29.9703    132.8878   1.1325984106e+02   4.4830667139e+01    0.5065576    0.3548854 -82.43 0.0003460906    1.304    0.233
        79 -10.5309     47.2565    135.8756   1.0829297501e+02   4.2240922063e+01    0.4945518    0.1911238 -63.75  0.001470881    2.393    0.582
        80  -9.8429    216.6962    137.6699   6.7381002935e+01   1.1941029421e+01    0.3015409    0.1892923 -29.55  0.001625024    1.471    0.320
        81  -9.8950     80.1989    137.0956   9.8610288796e+01   3.7423896688e+01    0.4436035    0.2834619 -20.89  0.001793215    2.869    0.651
        82 -10.8975     67.3482    135.9818   1.0222657643e+02   3.9602435711e+01    0.3147364    0.2732615 -45.48 0.0007259655    1.310    0.237
        83 -10.2340     39.9245    138.0176   1.1077483834e+02   4.2551217936e+01    0.2488604    0.1865751  39.64 0.0004518383    1.306    0.235
        84 -10.8339     93.2160    131.3167   9.3779952527e+01   3.6649490488e+01    0.6973234    0.2783727 -62.13  0.002452127    2.945    0.660
        85  -9.9934     73.9841    132.4896   9.9664990791e+01   3.9472169487e+01    0.3009891    0.2524061  -3.56  0.001607341    1.548    0.354
        86 -10.0429     61.8927    132.2484   1.0330026956e+02   4.1265749299e+01    0.3919293    0.2893041 -43.25  0.002040433    1.585    0.369
        87  -9.3894    103.7231    130.8901   9.0713527498e+01   3.4895841507e+01     0.245886    0.1912681  31.23 0.0001907335    1.335    0.251
        88 -10.8559     10.3209    127.8373   1.1891174087e+02   4.7728963308e+01    0.4552876     0.243807 -74.62  0.001920223    1.648    0.393
        89  -9.3161     78.9141    128.6931   9.7508801390e+01   3.9623546268e+01     0.211897    0.1975904 -38.15 0.0004198414    1.213    0.176
        90  -9.8551     82.2670    125.1160   9.5820993806e+01   3.9942688193e+01     0.350633    0.2972856  -0.53   0.00154218    1.494    0.331
        91  -9.1705    224.0159    126.9287   6.3924762247e+01   1.2196804876e+01     0.191272    0.1480593 -53.88 0.0005640963    1.651    0.394
        92  -9.9312      2.9123    126.2764   1.2110403318e+02   4.8610804920e+01    0.3481277    0.1741356  60.61  0.001779878    1.838    0.456
        93  -9.5833     49.3576    123.3051   1.0590014749e+02   4.5090640656e+01    0.2594951    0.2092277  -5.13  0.001405783    1.634    0.388
        94 -11.2276     45.3939    120.1480   1.0673289486e+02   4.6351556127e+01    0.6634021    0.3343472  85.49  0.002242971    2.656    0.624
        95  -9.7111     53.4967    124.4936   1.0474224870e+02   4.4279997330e+01    0.3350804    0.2250496 -77.25  0.001216484    1.467    0.318
        96 -10.1885     56.4637    122.4846   1.0346772084e+02   4.4394718291e+01    0.2452568    0.2291209 -79.78 0.0007107389    1.074    0.069
        97  -9.9021    239.6685    125.3244   6.1277267334e+01   9.7222930079e+00    0.1199973   0.09310361 -54.66 0.0007050564    1.705    0.413
        98 -12.0163    104.0604    122.2900   8.8802064596e+01   3.6788521624e+01    0.4468056    0.4152782 -36.97  0.001039429    1.163    0.140
        99  -9.9001     39.0178    132.7023   1.1043739201e+02   4.3949801859e+01       0.2755     0.180319  46.85  0.000911664    1.440    0.306
       100  -9.6636      4.4791    121.2544   1.2028920048e+02   4.9732821972e+01    0.2863908    0.1469335  65.31  0.001335282    1.832    0.454
       101  -9.1759    221.4875    120.5091   6.2911448828e+01   1.3572996235e+01    0.1309641    0.1157246 -18.14 0.0001785786    1.036    0.034
       102  -8.9582    148.3224    120.3116   7.6848641154e+01   2.8317182945e+01    0.1514732     0.116845   5.79 0.0003647941    1.653    0.395
       103  -9.3522     71.4957    120.5149   9.8293323844e+01   4.2751148618e+01    0.1434678    0.1356479  81.03 9.779952e-05    1.019    0.019
       104  -9.5276     62.9677    120.2501   1.0098324199e+02   4.4063271560e+01    0.1863168    0.1718114  61.42 0.0001831647    1.055    0.053
       105 -10.6824     33.3504    119.3018   1.1062487876e+02   4.7869698449e+01    0.3307356    0.2547133  60.56  0.001621373    1.241    0.194
       106  -8.8519     13.7516    118.9605   1.1710101235e+02   4.9660099027e+01    0.1559141   0.09642005 -79.32 0.0002734747    1.418    0.295
       107  -9.6281     33.3962    126.2563   1.1145377086e+02   4.6129507033e+01     0.187032    0.1156576 -89.73  0.000680672    1.577    0.366
       108  -9.7831    113.6739    115.9040   8.4635514213e+01   3.6375414742e+01    0.2503563    0.2123207  27.17  0.000531694    1.265    0.210
       109 -10.5055    107.5210    111.9855   8.5442869734e+01   3.8466481682e+01     0.406038    0.2952544 -68.38  0.001199945    1.582    0.368
       110 -11.0237    102.5644    109.3768   8.6262349145e+01   4.0024352509e+01    0.6194887    0.5476184   3.71  0.002503003    1.338    0.253
       111  -9.9509     67.2335    114.1228   9.8454152044e+01   4.4960959266e+01    0.3902052    0.2315327  81.23  0.001564586    2.470    0.595
       112  -9.3100     68.4898    110.5063   9.7317826356e+01   4.5665077027e+01    0.1458812    0.1354385  82.12 0.0008104193    1.028    0.027
       113 -11.4638     51.1123     96.2626   1.0054315982e+02   5.1661110985e+01      1.33294    0.4190488 -64.95  0.004460445    3.152    0.683
       114 -11.0392     16.4713    109.6994   1.1528923746e+02   5.1767600032e+01    0.4217848    0.2455259  41.92  0.001094343    1.703    0.413
       115 -11.2642     42.1745     93.7878   1.0344325254e+02   5.3376297689e+01    0.4653735    0.3125053  71.18  0.001384132    1.720    0.418
       116 -10.5634     26.1409     86.8088   1.0855024680e+02   5.6773128564e+01     0.871352    0.7501785  38.05  0.005290571    1.256    0.204
       117 -11.5977      9.6571     97.2408   1.1645997720e+02   5.5372887149e+01    0.5885862    0.4986886  55.38  0.002071951    1.206    0.171
       118 -11.9238      7.1244     88.6166   1.1651394106e+02   5.7693015964e+01    0.6344584    0.4407338  39.63   0.00272413    1.532    0.347
       119 -12.0134     34.9801     93.4454   1.0616912994e+02   5.4246379875e+01     1.483985    0.7367339 -77.45   0.00556354    2.080    0.519
       120 -12.2321     42.2543     85.2240   1.0166542617e+02   5.5523311395e+01      0.94875    0.4701846  18.12  0.003911985    2.610    0.617
       121 -11.1086     18.7174    106.0886   1.1409792682e+02   5.2503509733e+01    0.2340712    0.1969121  59.36 0.0002410275    1.170    0.146
       122 -12.3857     25.4791    107.8559   1.1189078356e+02   5.1495072440e+01    0.8859296    0.6375064 -42.52  0.004681007    1.571    0.363
       123 -12.1905      2.1821    111.4358   1.2036419660e+02   5.2283098488e+01    0.5857884    0.3190217  56.88 0.0007090164    1.752    0.429
       124 -11.3987      4.0861    105.1008   1.1922360044e+02   5.3742725279e+01    0.4789346    0.3712683  42.69  0.002284319    1.343    0.255
       125 -11.6003     22.4540    114.0345   1.1368505815e+02   5.0199383463e+01    0.4063299    0.2743612  -0.19 0.0009705202    1.997    0.499
       126 -11.6135     28.4510    113.0612   1.1150428945e+02   4.9911907490e+01    0.6459123    0.2964804  18.66  0.002792879    2.631    0.620
       127 -11.7437     22.6013     94.8725   1.1121371568e+02   5.5030627438e+01    0.5517544    0.3615031  18.84  0.001315507    1.755    0.430
       128 -11.8452     18.0845     90.4106   1.1236134231e+02   5.6516883535e+01    0.4870303     0.303252 -70.70   0.00258696    1.397    0.284
       129  -9.1671    126.7805    113.7651   8.0580738347e+01   3.4172807476e+01     0.205202    0.1787877  84.59 0.0006080801    1.303    0.232
       130  -9.8422     94.6820    112.1496   8.9288849796e+01   4.0867333012e+01    0.3442847    0.2586438  42.52  0.001689028    1.309    0.236
       131  -9.8930     48.7207    112.4091   1.0439677519e+02   4.7896654503e+01    0.2526493    0.2148604  78.70  0.001300698    1.128    0.114
       132 -10.6415    170.4864    110.3339   6.9562644092e+01   2.5458979347e+01    0.4204417    0.3535729 -17.25  0.001504136    1.243    0.195
       133 -10.3811    175.8679    107.3362   6.7737576609e+01   2.4825921349e+01    0.3515143    0.2566025 -17.60  0.001711636    1.547    0.354
       134 -10.3660    120.3455    109.4705   8.1230341809e+01   3.6431903114e+01    0.2834784    0.2390403 -41.70  0.001406597    1.225    0.184
       135 -11.4220     79.3938    108.3270   9.3245709534e+01   4.4461169434e+01    0.7681714    0.3884981  32.20  0.001544254    2.143    0.533
       136 -10.5009     89.9998    104.4953   8.8934312909e+01   4.3522173127e+01    0.5232196    0.2801977  33.82  0.001726248    2.020    0.505
       137 -10.6201     86.0068    103.9597   9.0084795638e+01   4.4368613230e+01    0.4784742    0.3396607 -23.33  0.001378785    1.984    0.496
       138  -9.4574     58.4521    108.7353   1.0038140946e+02   4.7554788633e+01    0.2626177    0.1379105 -70.54  0.001105177    1.982    0.495
       139  -9.9086    157.3290    106.7218   7.1437127079e+01   2.8993866645e+01     0.389273    0.2548729 -13.64  0.001607151    2.225    0.551
       140 -10.4303    143.4328    105.8738   7.4406599730e+01   3.2222501395e+01    0.3423393    0.2988915 -74.53  0.001316555    1.302    0.232
       141 -11.2790    145.5860    100.4167   7.2456143500e+01   3.2818114651e+01    0.4558128    0.4014567 -33.54  0.001154255    1.154    0.134
       142 -11.7183     17.0837    101.0221   1.1410525536e+02   5.3907244580e+01    0.4293315    0.2833521  22.78 0.0003727411    1.698    0.411
       143  -9.7230    181.4897    103.7113   6.5746905280e+01   2.4232348426e+01    0.3188454    0.2231718 -64.51  0.001008726    1.943    0.485
       144 -10.2841     57.2099    102.5415   9.9598400618e+01   4.9274157246e+01    0.2931509    0.2014141 -57.31  0.001186776    1.393    0.282
       145  -9.2134     82.4216    102.4973   9.0905024950e+01   4.5348619523e+01    0.1474635     0.141761 -81.77 8.424553e-05    1.015    0.015
       146 -10.0019    209.3639     99.6640   5.9975185982e+01   1.9002594749e+01    0.4438876    0.2292306 -19.37  0.000767129    2.427    0.588
       147  -9.4991    120.7649    101.2001   7.8975382023e+01   3.8125211390e+01    0.2162717    0.1868086  -0.68  0.001073504    1.384    0.278
       148 -10.9639     90.0717     89.3517   8.4968614011e+01   4.7041978340e+01    0.8272162     0.496533 -27.59  0.003166389    2.539    0.606
       149 -11.6460     76.5333     80.0249   8.7001458417e+01   5.1711527011e+01     1.159927    0.7982199 -87.65  0.004970768    2.141    0.533
       150 -10.0617     66.8429     88.5576   9.2899916589e+01   5.1309607340e+01    0.3388798    0.2307369 -31.94  0.001044805    1.822    0.451
       151 -10.4597     67.0218     81.9999   9.1100709719e+01   5.2862956537e+01    0.4496923    0.3881728  21.86   0.00241907    1.275    0.215
       152 -10.1056     80.7628     98.2586   9.0425775922e+01   4.6652441357e+01     0.295311    0.2505193   5.83  0.001081879    1.439    0.305
       153  -9.5887     77.2101     96.8288   9.1280423748e+01   4.7606650778e+01    0.3148758    0.2564611 -10.61 0.0009342786    1.583    0.368
       154 -10.2396     82.9624     93.4865   8.8467210554e+01   4.7398801681e+01    0.3572932    0.2494681  39.42  0.001004176    1.452    0.311
       155 -10.9744     77.0674     92.8726   9.0333464962e+01   4.8581197388e+01    0.5306243     0.308529  37.23  0.001518932    1.759    0.432
       156 -11.5456     67.3747     95.4010   9.4387072593e+01   4.9555733196e+01    0.5067388    0.4419766  36.92  0.001583065    1.192    0.161
       157 -10.1026    117.3635     93.1690   7.7716463115e+01   4.0575335211e+01    0.2975949    0.2428818  -7.52  0.001147721    1.557    0.358
       158 -10.9560    124.4077     93.7346   7.5943448545e+01   3.8909098609e+01    0.6713328     0.402696  48.11  0.001869749    1.655    0.396
       159 -10.8957    120.8084     89.2031   7.5627031389e+01   4.0653199692e+01     0.461412    0.3801032  37.64  0.002283538    1.253    0.202
       160 -10.2953    120.5728     85.1940   7.4514095924e+01   4.1536617041e+01    0.3762843    0.2424203  46.09  0.001644586    1.545    0.353
       161 -10.6640    152.2441     91.8615   6.8594414204e+01   3.2933545381e+01    0.3897811    0.3385939  76.01  0.001456291    1.271    0.214
       162 -10.8275    100.8226     91.3824   8.2094653652e+01   4.4453907502e+01    0.6022359    0.3511718  54.98  0.002386801    1.923    0.480
       163  -9.3830    101.6905     84.3040   7.9778198427e+01   4.5843042892e+01    0.2350895     0.196727  47.28 0.0002733547    1.194    0.162
       164 -10.4178    104.5286     86.7571   7.9628018823e+01   4.4710525643e+01    0.5161585    0.3362704 -23.82  0.002087613    2.193    0.544
       165 -10.6360    113.8110     83.4854   7.5902830175e+01   4.3403937818e+01     0.415614    0.3358248 -49.86  0.001218444    1.249    0.199
       166 -10.3554    183.7972     85.9176   6.0707737409e+01   2.6682828508e+01    0.6624162    0.2381857 -41.43  0.002347175    2.653    0.623
       167 -10.4854    109.0312     80.8883   7.6509706801e+01   4.5004076751e+01    0.3760011    0.3613201 -59.99  0.001406843    1.041    0.040
       168 -10.3877    165.6352     83.5598   6.3449922329e+01   3.1293064439e+01    0.4035845     0.305279 -58.15  0.001491886    1.463    0.316
       169 -11.4857    143.0522     83.8073   6.8391947890e+01   3.6598059272e+01    0.3828027    0.3630382  21.73  0.000771371    1.109    0.098
       170 -10.2569    127.6342     82.5141   7.1818924734e+01   4.0463833211e+01    0.3032728    0.2831748   0.98  0.001587776    1.170    0.145
       171 -11.1973     58.0470     77.7244   9.3435570603e+01   5.5282387424e+01    0.5717236    0.3211437 -74.31 0.0003989397    2.357    0.576
       172 -12.1145     52.5915     74.2302   9.4716024655e+01   5.6912168699e+01     0.792444    0.4592623 -75.86 0.0009827936    2.223    0.550
       173 -11.0718     47.1343     74.5362   9.7099456005e+01   5.7572145151e+01    0.3892032    0.2339654 -69.81 0.0009863105    1.743    0.426
       174 -10.8417    103.6993     76.0007   7.6595943554e+01   4.7199388307e+01    0.7086546    0.3112878 -40.90  0.001416701    2.363    0.577
       175 -10.7565    232.9057     77.6041   5.1459494100e+01   1.7407820462e+01    0.3721582    0.1792465 -38.83  0.001699798    1.781    0.439
       176 -11.8141     14.1433     74.6812   1.1167499126e+02   6.0760525595e+01    0.5374036    0.3430361 -77.81  0.001754973    1.410    0.291
       177 -10.4520     14.7542     67.2951   1.1012581234e+02   6.2561753230e+01    0.3174351    0.2526034   5.36  0.001638813    1.458    0.314
       178 -10.0926    127.3458     77.1359   7.0245430421e+01   4.1589785526e+01    0.2924378    0.2494967  79.45 0.0005174094    1.302    0.232
       179 -10.2921     94.0015     76.4011   7.9820813037e+01   4.9166943112e+01    0.5920072    0.3393061  38.95  0.001971197    1.826    0.452
       180 -10.6749     84.1334     64.0053   7.9106276466e+01   5.3844567737e+01    0.7101209    0.4293763 -49.42  0.002607818    1.661    0.398
       181 -11.7012     85.9475     73.5668   8.1656746672e+01   5.1411123706e+01    0.7813678    0.5211201  40.80  0.002866296    1.527    0.345
       182 -11.1389     79.6702     67.9518   8.2075681098e+01   5.3867422398e+01    0.6747262    0.5261809  89.46  0.002636686    1.687    0.407
       183 -11.3182     91.1331     62.9217   7.6279803487e+01   5.2626107995e+01     1.039527    0.7040088  44.78  0.004491407    1.484    0.326
       184 -10.4796     87.7423     57.0825   7.5332834573e+01   5.4529923714e+01     1.596551    0.7137936 -60.02  0.004455816    4.753    0.790
       185 -10.7442     91.9822     57.5045   7.4033160111e+01   5.3537876885e+01    0.5681727    0.3820683 -33.75  0.002591553    1.575    0.365
       186 -11.6839     75.7248     56.8780   7.9674187126e+01   5.7004417032e+01    0.8488301    0.4004326 -54.47    0.0025007    2.450    0.592
       187 -11.6230     72.7927     47.9095   7.7357613557e+01   5.9404572094e+01    0.9405417    0.7879893 -77.00  0.003522547    1.481    0.325
       188 -10.5633     12.7714     47.8659   1.0702380552e+02   6.7429392718e+01     0.414035    0.1784853 -43.28  0.001353114    2.187    0.543
       189  -9.7074     17.5884     41.1868   1.0241136840e+02   6.8646125810e+01    0.3481803    0.2901417 -26.44  0.002178575    1.192    0.161
       190 -10.2675     22.7336     37.1916   9.8025502805e+01   6.9105046748e+01    0.8999832    0.3995264  50.14  0.003430592    3.777    0.735
       191 -10.8483     25.9566     48.3905   9.9881206998e+01   6.6232957033e+01    0.6286591    0.1733243 -58.53 0.0004690046    2.923    0.658
       192 -11.9445     21.2542     46.9038   1.0202034430e+02   6.7010204751e+01     0.435775    0.2827667 -63.09  0.002359215    1.395    0.283
       193 -10.8009     33.8605     58.1113   9.8677397666e+01   6.3125707333e+01    0.5367305    0.2829112 -35.29  0.002351664    2.220    0.549
       194  -9.8176    174.5256    246.9800   9.3146801590e+01   3.5292081492e+00    0.2312927    0.1211768  23.39  0.001401396    1.650    0.394
       195  -9.2069    199.2542    244.4216   8.8539237300e+01   6.8739024559e-01    0.1458417    0.1137518  33.33 0.0005295284    1.415    0.293
       196 -12.0721     48.7351     60.2334   9.2261886106e+01   6.0772264728e+01    0.9320295    0.6554851  47.43  0.004753127    1.582    0.368
       197 -11.1790     41.1518     57.1809   9.4846978367e+01   6.2489275715e+01    0.4311924    0.2975141  58.88  0.001662248    1.848    0.459
       198 -11.7273      1.8264     71.1195   1.1671807415e+02   6.2335795237e+01    0.5785272    0.1995302 -75.21  0.002434641    2.392    0.582
       199 -12.5035      6.1055     62.8635   1.1353112879e+02   6.4173672028e+01    0.8466599    0.4839184 -28.48  0.004381776    2.004    0.501
       200  -9.7137     63.5131     76.0005   9.0774131290e+01   5.4855742927e+01    0.5253043    0.3224892  80.56  0.001952868    3.066    0.674
       201  -9.3934     66.2997     74.6509   8.9283877230e+01   5.4723638843e+01    0.2635595    0.2098933  66.19  0.001114221    1.453    0.312
       202 -11.5923     40.7531     70.5512   9.8841525599e+01   5.9336651577e+01    0.5075579    0.3024951 -63.12  0.001350288    1.567    0.362
       203 -11.6010     32.3466     72.0409   1.0296694254e+02   5.9893885866e+01    0.7304784    0.2690969  28.24  0.002208519    2.806    0.644
       204  -8.5439     24.5901     73.4556   1.0676249416e+02   6.0269139552e+01    0.5307913    0.1470224 -74.31  0.001573355    4.493    0.777
       205 -10.1280     21.6304     65.6405   1.0651962989e+02   6.2458406602e+01    0.3975539     0.272312 -84.76  0.001186017    1.509    0.337
       206  -9.3713    152.3131     73.2827   6.3183970907e+01   3.6282746538e+01    0.4393046    0.1546447  40.87  0.001226499    4.184    0.761
       207 -11.7301    122.6823     68.8675   6.8821043806e+01   4.4287180324e+01    0.8273573    0.4698555  45.45  0.001666055    1.783    0.439
       208  -9.7476    162.1376     70.8867   6.0470803881e+01   3.4288567165e+01    0.2813642    0.2388731 -61.65   0.00101339    1.233    0.189
       209 -10.9827     20.5288     55.5502   1.0474098082e+02   6.5012483223e+01    0.3773267    0.2792922  77.04 0.0005232748    1.594    0.373
       210  -9.7803    172.4740     68.5026   5.7852521946e+01   3.2156009674e+01    0.3451813    0.2524495  42.42  0.001139893    1.484    0.326
       211  -9.5865    172.2423     64.9954   5.6868129445e+01   3.2765121831e+01     0.469049    0.3610108 -85.48  0.002307349    1.527    0.345
       212 -11.5032    220.1020     66.3356   5.0260767044e+01   2.1543931833e+01    0.5420985    0.3686342  59.43  0.002040539    1.624    0.384
       213  -9.6236    192.4273     65.7308   5.3826363103e+01   2.7816451589e+01    0.2709894      0.20664 -67.07 0.0007461712    1.462    0.316
       214 -10.6298     59.3409     63.6971   8.8714975175e+01   5.8390521202e+01    0.4647387    0.3350524 -26.08  0.002262172    1.649    0.394
       215 -10.2594     57.3166     61.3132   8.8798249607e+01   5.9253947417e+01    0.4466959    0.2370765  26.88  0.001046015    2.243    0.554
       216  -9.7377     53.1108     66.0669   9.2136152335e+01   5.8785817360e+01    0.2994438     0.192385  41.62  0.001113916    1.646    0.392
       217 -10.3114    200.6410     64.0947   5.2203404913e+01   2.6152659208e+01    0.5899983    0.3032822  82.95  0.002200069    3.256    0.693
       218  -9.9877    105.9019     64.0782   7.1949257089e+01   4.9138533187e+01    0.3607815    0.2287696 -42.13  0.001352351    1.582    0.368
       219 -11.4676    234.3124     60.9869   4.7339964626e+01   1.9294051525e+01    0.4771228    0.3870857  63.69  0.002223716    1.409    0.290
       220 -10.1075    158.9272     62.3411   5.8498704999e+01   3.6483274407e+01    0.5343767    0.2354454  46.31  0.001952874    2.463    0.594
       221 -10.9722    122.5285     59.3800   6.5649337737e+01   4.6077230617e+01    0.8256493    0.5478804  31.70  0.003531216    1.860    0.462
       222 -10.8334    117.4167     56.1191   6.5846323021e+01   4.7908767269e+01    0.6932461    0.5520151  33.50  0.002942628    1.371    0.271
       223 -10.5393    109.1968     42.5741   6.2985484934e+01   5.2238757328e+01    0.6238054     0.457342 -21.01  0.002962937    1.531    0.347
       224 -11.9567    114.7860     48.9484   6.3921879393e+01   4.9801561505e+01     1.230369    0.5106471  38.72  0.003872206    3.372    0.703
       225 -11.0503    127.1489    242.2007   1.0138012953e+02   1.0391056549e+01    0.2734004    0.1784065 -61.96  0.001743204    2.167    0.539
       226 -11.3342    113.9854     38.3415   6.0035564508e+01   5.1716399641e+01    0.4068543    0.2983077 -28.02 0.0007054773    1.432    0.302
       227  -9.5698    149.0214     61.0044   6.0049924779e+01   3.9187319739e+01    0.4450063    0.1920247  68.74  0.001406103    3.330    0.700
       228 -11.6559    145.9186     46.4809   5.5877763355e+01   4.2271177882e+01     1.091795    0.4452877 -24.23  0.003425918    3.098    0.677
       229 -10.5651    136.5441     56.4628   6.1250858312e+01   4.3090420415e+01    0.6000857    0.3811068 -12.57  0.002195787    2.248    0.555
       230 -10.4769    134.5162     50.3330   5.9594860292e+01   4.4609363549e+01    0.3609768     0.281007 -88.59   0.00172231    1.493    0.330
       231 -10.9011    106.3891     58.5266   6.9835290065e+01   5.0096131583e+01     0.375464    0.2694412  60.46  0.001736951    1.480    0.324
       232 -10.8533    157.5982     55.3105   5.6547358846e+01   3.7928210556e+01    0.5544288    0.4291743 -75.21  0.002604113    1.468    0.319
       233 -10.4353    155.2523     49.7018   5.5179287338e+01   3.9380790776e+01    0.5013221    0.3211789 -14.10  0.001410976    1.997    0.499
       234  -9.4146    187.7383     55.4221   5.1632605429e+01   3.0417883342e+01    0.2635329    0.1430693  69.86  0.001128536    2.050    0.512
       235  -9.4583     67.6339     32.8937   7.2918913182e+01   6.3244969526e+01    0.5679974    0.5110568  88.73  0.003207039    1.375    0.273
       236 -11.7784     58.0540     30.0592   7.5777623895e+01   6.5584204125e+01       0.4396    0.3476089   3.49  0.001102476    1.414    0.293
       237 -11.7437     48.9093     30.2061   8.0302599700e+01   6.7149392134e+01    0.6382077    0.3169316  31.83  0.001796831    2.235    0.553
       238  -8.6405    221.6956    239.3416   8.4151625630e+01  -1.5148640943e+00   0.08934934   0.07743499  31.56 0.0007040612    1.681    0.405
       239 -11.1321     60.7558     36.4538   7.7550596655e+01   6.3906249934e+01    0.3952923    0.2547004 -33.59 0.0005973924    1.578    0.366
       240 -12.1826    186.5004     70.4974   5.6056755101e+01   2.8491809549e+01    0.9249824    0.5953202 -36.07  0.003290869    1.458    0.314
       241 -10.6555    201.3680     50.0276   4.8303694603e+01   2.7917364647e+01     0.561839    0.2523199 -28.77  0.002339199    2.122    0.529
       242 -10.8927    200.6512     45.2023   4.7070624861e+01   2.8717078544e+01    0.5383941    0.2725143  80.72  0.002241564    2.506    0.601
       243 -11.1080    240.4740     49.9644   4.4105778384e+01   1.9416251122e+01    0.3513519    0.2526211 -23.55  0.001348887    1.331    0.249
       244 -10.8132    173.8825     48.1826   5.1568808989e+01   3.4856368060e+01    0.5256058    0.3481565  78.20  0.002456843    1.665    0.399
       245 -12.0332    116.8269     42.1902   6.0816063145e+01   5.0401362099e+01    0.5154772    0.4419242 -25.47  0.001375694    1.224    0.183
       246  -9.9417     91.0141     47.8781   7.0657676717e+01   5.5592617057e+01    0.3402032    0.2258294 -54.62  0.001524774    1.734    0.423
       247  -9.6374      2.5128     48.7934   1.1296135434e+02   6.7771885960e+01    0.4836769    0.2601075 -60.75  0.002584006    1.507    0.336
       248 -10.9084    147.3888    238.1929   9.7076959777e+01   8.2275258141e+00    0.1944855     0.179342  40.74   0.00152438    1.301    0.231
       249  -9.8254    177.5099    236.5031   9.1302351204e+01   4.3936401872e+00    0.1144186   0.08493622  21.35 0.0008104257    1.030    0.029
       250 -10.5628     14.0125     23.5513   9.8447277042e+01   7.2867773644e+01    0.3013164    0.2164072 -38.13 0.0003049779    1.223    0.182
       251 -11.9052     26.8599     27.8186   9.1739648730e+01   7.0704066322e+01    0.5614758    0.4498584  25.78  0.002151739    1.335    0.251
       252 -10.8330    198.8006    232.7464   8.7049882567e+01   2.0424297692e+00    0.3490725    0.2503924  18.07  0.002541634    1.048    0.046
       253  -9.4285     15.2199    233.7094   1.2281827123e+02   2.4935910183e+01     0.181241    0.1278191 -80.10  0.001152152    1.621    0.383
       254 -10.3774    167.7767    237.6071   9.3208736476e+01   5.5551718905e+00     0.162323   0.08326502  39.30 0.0009480744    1.632    0.387
       255 -10.2658    162.4507     43.7488   5.2003588982e+01   3.8390163202e+01    0.4664682    0.4194978   1.80  0.002534643    1.269    0.212
       256 -10.5329    242.5789    231.6401   7.9785821122e+01  -3.1943391862e+00    0.2096562    0.1421455  36.72  0.001540185    1.788    0.441
       257  -9.7968     68.0095    240.4951   1.1282281810e+02   1.8167452807e+01    0.1743976   0.08660647  34.48  0.001027419    1.582    0.368
       258 -11.8493    153.0383     35.9464   5.0999565154e+01   4.1906454816e+01    0.3927514    0.3194221  11.27  0.000346667    1.504    0.335
       259  -9.4942     23.7504    231.7921   1.2109377229e+02   2.4453361851e+01    0.1569963   0.08697088  53.93 0.0006387694    1.318    0.241
       260  -9.9772    247.2124    231.3734   7.9046613603e+01  -3.6944162007e+00    0.1430569   0.09621039   2.61 0.0004251092    1.110    0.099
       261  -9.0494    190.1580    229.8418   8.8156947227e+01   3.5171538537e+00    0.1572344     0.107599   9.68 0.0006619451    1.328    0.247
       262  -9.6135    108.4783    229.9851   1.0382240154e+02   1.4723378468e+01    0.1445304    0.1182662 -64.88 0.0005252592    1.560    0.359
       263  -9.4111    181.3255    228.3090   8.9526561857e+01   4.8935371182e+00    0.1171022   0.07377207   9.57 0.0005888135    1.654    0.395
       264 -10.8908    244.9718     51.0592   4.3952885146e+01   1.8392726991e+01    0.2855173    0.2168094 -70.16  0.001447921    1.424    0.298
       265 -10.7864    135.3012     45.6086   5.7756621706e+01   4.5149589656e+01    0.5744296     0.235708  58.40  0.001607825    2.344    0.573
       266  -9.9411    139.7989     43.6117   5.6108193834e+01   4.4286949954e+01    0.2851899    0.2309831  61.43  0.001439035    1.207    0.172
       267 -11.0692     93.9858     41.2017   6.6953129647e+01   5.6104116175e+01    0.6854496    0.3058992  52.64  0.002618549    2.220    0.550
       268  -9.6669    189.0048     42.0456   4.7624014800e+01   3.1926726241e+01    0.3664986    0.1625503 -29.73  0.001314563    2.142    0.533
       269  -9.4628    176.5291     43.5175   4.9758631764e+01   3.4832761227e+01    0.2869369    0.1419864  66.80  0.001181536    2.069    0.517
       270  -9.7596     77.3317     42.1626   7.3197956552e+01   5.9595457397e+01    0.3577352    0.1656052 -35.94   0.00137842    2.269    0.559
       271  -9.9517     86.0498     31.2907   6.5238666898e+01   5.9562492316e+01    0.3758971    0.2752906  32.92  0.001231081    1.445    0.308
       272 -10.5398     81.9723     40.2039   7.0630820883e+01   5.8969075001e+01    0.4999825    0.2922664  66.12  0.001586361    2.481    0.597
       273 -10.9859     78.2771     34.8321   6.9612920793e+01   6.0704001976e+01    0.7355515    0.5500464   3.55  0.003591137    1.682    0.405
       274 -10.2894    231.8546     39.3334   4.2329326834e+01   2.2455838721e+01    0.3731317    0.1933281 -46.79  0.001871017    1.696    0.410
       275  -9.7716    193.8113     39.0380   4.6168261529e+01   3.1140055832e+01    0.2109293    0.1922145  84.97 0.0003622448    1.115    0.103
       276  -8.6546    184.2869     38.6380   4.7237061812e+01   3.3531358672e+01    0.1552733   0.09615745 -57.31 0.0007022816    1.689    0.408
       277 -11.1460    176.6399     36.2106   4.7519383688e+01   3.5764178095e+01    0.3824695    0.2934314 -31.50  0.001154022    1.291    0.225
       278  -9.6927    133.1627     37.1025   5.5131079043e+01   4.6964105793e+01    0.3678784    0.2082227 -60.93  0.001423182    2.367    0.578
       279  -9.6903    206.7780     37.0577   4.4165290856e+01   2.8300560239e+01    0.2197301    0.1935666  87.14 0.0006311983    1.165    0.142
       280 -10.6646    138.1113     33.5838   5.2853262835e+01   4.6153243754e+01    0.5206027    0.3157761 -55.82  0.001712247    1.886    0.470
       281  -9.5889     95.1179     36.2096   6.4482434093e+01   5.6668581487e+01    0.2638231    0.1996982  78.20 0.0009336118    1.626    0.385
       282 -11.6771    144.7648     25.6652   4.8799880958e+01   4.5406787886e+01     1.688466    0.4451256  68.20  0.004910712    3.932    0.746
       283 -10.2329    234.1639    223.0688   7.9819939092e+01  -1.3473881434e+00    0.1730889    0.1113333   6.99 0.0007886741    1.269    0.212
       284 -11.9110    106.0112     32.6291   5.9798399089e+01   5.4575185441e+01    0.5656343    0.3455892  23.96  0.001891363    2.362    0.577
       285  -9.4137      9.6323    217.7994   1.2341476211e+02   2.8295724643e+01    0.1476137   0.07909162  74.72 0.0006126728    1.621    0.383
       286 -10.3318    164.7190    212.3302   9.0409775134e+01   9.3876014367e+00    0.2292051     0.153618  40.64 0.0009929277    1.369    0.270
       287  -8.9519    172.6735    212.3057   8.8878915900e+01   8.2250964579e+00    0.1119045   0.08781649  53.09 0.0007035473    1.649    0.394
       288 -11.0709    176.5709     30.0354   4.5635205744e+01   3.6549202380e+01    0.4186116    0.2303877  53.18  0.001870203    1.892    0.471
       289 -11.7794    124.9021     28.0197   5.3402550845e+01   5.0370401554e+01    0.7019467    0.4256454  54.08   0.00197014    1.566    0.362
       290  -9.5436    221.8232     29.8203   4.0835456482e+01   2.5726409722e+01    0.1879885    0.1698788 -22.08 0.0006316421    1.203    0.169
       291 -10.6660    189.5422     27.5114   4.3347300965e+01   3.3585234179e+01    0.3832108    0.2792065  20.72  0.001437788    1.853    0.460
       292  -8.9427     99.5100     30.4637   6.0678760184e+01   5.6499589699e+01    0.1451883    0.1412601  54.91 0.0001613277    1.026    0.025
       293  -9.7641     97.8829     26.8303   5.9536928384e+01   5.7423004404e+01     0.274645    0.2339368 -43.90 0.0009334592    1.235    0.190
       294  -9.5529    153.1091    207.8609   9.2067032454e+01   1.1778172174e+01    0.1870418    0.1518542  44.89 0.0008496631    1.270    0.212
       295  -9.9568    230.4971     27.1132   3.9448812664e+01   2.4137216850e+01    0.2871096     0.166217 -42.27 0.0009530957    1.436    0.303
       296  -9.6893    211.4822     27.4854   4.1145602215e+01   2.8332121360e+01    0.2303061    0.1851898   7.36 0.0008835605    1.589    0.371
       297  -9.7108     61.1298    206.6730   1.1179125756e+02   2.4977815807e+01    0.1928908    0.1430829  66.18 0.0006427948    1.231    0.188
       298 -11.2684    183.0312     25.3378   4.3433138649e+01   3.5464176909e+01    0.5431212    0.3006612  52.14  0.002477492    1.942    0.485
       299  -9.9790    250.5544     25.0181   3.7522032296e+01   2.0239556151e+01    0.1894246   0.09998845 -30.55  0.000433844    1.589    0.371
       300  -9.1760     45.0119     24.2969   7.9387797652e+01   6.8884252842e+01    0.2277637    0.1711383 -56.44 0.0007467057    1.584    0.369
       301  -9.2235    168.8571     23.6930   4.4627249667e+01   3.9285588774e+01     0.229542    0.1636595  51.20  0.000823427    1.484    0.326
       302  -9.9425    238.1798    204.7573   7.6337674477e+01   1.0725695072e-01    0.1811481    0.1350383 -22.43  0.001321181    1.391    0.281
       303  -9.9765      4.5166    204.4695   1.2405977505e+02   3.1267605079e+01    0.1800565   0.08390558 -70.61  0.001032101    2.321    0.569
       304 -10.3480    245.8204    200.8874   7.4534001111e+01  -4.3667548351e-01    0.1735084    0.1175798   4.90 0.0007098442    1.190    0.160
       305 -10.0680     59.5219     23.9358   7.2015166314e+01   6.6368336064e+01    0.3339264    0.2191567  24.72 0.0004424426    1.761    0.432
       306  -9.8269     60.0053     19.6530   6.9516241591e+01   6.6963324638e+01    0.3196887    0.2571225 -72.92  0.001434793    1.791    0.442
       307 -10.1770    233.5951    197.2035   7.5818678624e+01   1.5526244709e+00    0.2431544    0.1699815 -17.29 0.0009298177    1.289    0.224
       308  -9.2030    223.5147     22.0412   3.8729989765e+01   2.6212751704e+01    0.1922167     0.158086 -86.15 0.0006297484    1.228    0.186
       309  -8.8277    195.3442    199.6857   8.2722945870e+01   6.6191728655e+00    0.1085778   0.09350613  56.18 0.0007047461    1.711    0.416
       310  -9.3905     74.3324     19.6130   6.3683741866e+01   6.3958931486e+01     0.249446    0.1555986  42.72 0.0006742238    1.556    0.357
       311  -9.9562    125.1949     20.9272   5.0531351795e+01   5.1179537407e+01    0.4059276    0.2067595  75.05  0.001608648    2.171    0.539
       312  -9.0369     83.5287    195.9794   1.0570149488e+02   2.4142851886e+01    0.1655018    0.1238033 -70.79 0.0005557265    1.515    0.340
       313  -9.9181    169.8217    191.5122   8.6237943262e+01   1.1699617562e+01    0.3200811     0.178192  25.11  0.001151158    1.815    0.449
       314 -12.1934      4.7838    184.3947   1.2333281983e+02   3.5288969724e+01    0.5883685    0.3981321  59.62  0.002944471    1.140    0.123
       315  -9.9104    239.8375    184.6966   7.2710341374e+01   2.1672789099e+00     0.208852    0.1371303   0.95 0.0007515867    1.384    0.277
       316  -9.4106    211.3522     18.9185   3.8889979038e+01   2.9304597146e+01    0.1820256    0.1495561 -38.00 0.0003623184    1.139    0.122
       317  -9.5763    250.7050    176.6476   6.9657762770e+01   1.6364368029e+00    0.1541708   0.09168527 -30.52 0.0007218876    1.584    0.369
       318 -10.3436     52.2674    174.0172   1.1107184897e+02   3.2769043631e+01    0.4775629    0.2117584  85.23  0.001922191    3.170    0.685
       319  -9.6061     27.9924    175.9551   1.1734281970e+02   3.5003272826e+01    0.1987955    0.1521822  61.68 0.0009274285    1.062    0.059
       320 -10.1261    186.3456     15.2209   4.0077363954e+01   3.5740065050e+01    0.2528307     0.219045 -78.51  0.000376047    1.071    0.066
       321  -9.4637    230.9126    175.3900   7.2454409460e+01   4.5492934340e+00    0.2173577   0.09610395  32.58   0.00108753    2.228    0.551
       322  -9.6103    247.3751    173.8966   6.9655202403e+01   2.4072201127e+00    0.3578064    0.1217033  26.89  0.001269239    5.120    0.805
       323  -9.6290     39.5194    173.4956   1.1426847857e+02   3.4344101100e+01    0.1919551   0.09549368  42.10 1.914923e-06    1.683    0.406
       324 -10.7539     35.6813    170.2382   1.1499118734e+02   3.5477610386e+01    0.3581658    0.2093964 -88.95  0.001345062    1.675    0.403
       325 -10.0650      9.1625    156.2288   1.2101106043e+02   4.1100209105e+01    0.2605133    0.1704149 -70.76  0.001568748    1.521    0.342
       326 -11.5900      9.5963    166.9995   1.2144202956e+02   3.8640380643e+01    0.4917527    0.3544517  82.47  0.002321365    1.193    0.162
       327 -11.1532     13.6529    159.7212   1.2001476926e+02   3.9938992631e+01    0.4351344    0.2319529 -78.06  0.001929794    1.734    0.423
       328  -9.1909    198.0118    167.7832   7.6663810055e+01   1.0702203028e+01    0.1794692    0.1512862  11.79  0.000834964    1.031    0.030
       329  -8.4127    156.3282    166.2993   8.4683629120e+01   1.8115975289e+01    0.1382418    0.1009505   6.47 0.0005709986    1.639    0.390
       330  -8.8528    152.4149    166.5338   8.5574904954e+01   1.8763808118e+01    0.1351686     0.121898  21.68 0.0001200025    1.023    0.023
       331 -10.2356     18.9575    164.8671   1.1893334971e+02   3.8314742440e+01     0.288002    0.2439887  12.30  0.001310021    1.504    0.335
       332  -9.8759    205.1191    163.0221   7.4478198419e+01   1.0223908201e+01    0.2317324    0.1680736  24.26 0.0006154717    1.289    0.224
       333  -9.2888    208.4840    160.4946   7.3398198873e+01   1.0032918125e+01    0.1869718    0.1119188 -21.93 0.0009749666    1.709    0.415
       334  -9.2809    188.6404    164.2002   7.7731863469e+01   1.2822468103e+01    0.1836444    0.1142966 -24.23 0.0005484337    1.725    0.420
       335 -10.3801     28.4094    161.6074   1.1623180713e+02   3.8166390598e+01    0.4038336    0.1568467 -69.49  0.001840619    2.419    0.587
       336  -9.8442     78.6273    159.7084   1.0251921881e+02   3.2449363245e+01    0.3081942     0.200947  70.88  0.001025263    1.750    0.429
       337  -9.0942    215.3837    157.8584   7.1700458917e+01   9.2737826557e+00    0.1841441    0.1065621 -20.50  0.000946412    1.781    0.438
       338  -8.9303    223.7500    156.9715   7.0143151523e+01   8.0459918430e+00    0.1613632   0.09535832 -28.88 0.0008818841    1.566    0.361
       339 -10.6635    104.7309    154.2919   9.4794048092e+01   2.9530332794e+01     0.339696    0.3297758 -52.85  0.002001436    1.133    0.118
       340 -10.5796     22.0303    155.6169   1.1751103091e+02   4.0148413728e+01     0.537264    0.1980856  37.60  0.001931979    2.260    0.557
       341 -11.9368     15.8008    147.7623   1.1869069640e+02   4.2525523122e+01     0.685643    0.3238599  40.56  0.003514959    1.863    0.463
       342 -11.6191     12.9787    137.8885   1.1882603641e+02   4.5098609261e+01     1.096671    0.4463042  88.97  0.004836299    2.391    0.582
       343 -11.0674     21.2907    150.7000   1.1736118167e+02   4.1360892272e+01    0.2199004    0.1796182  63.44   0.00036927    1.055    0.052
       344 -11.6062     24.5061    147.4341   1.1620544996e+02   4.1837988739e+01     0.361077     0.215951 -63.46  0.001227465    1.685    0.406
       345 -11.0455     31.8345    153.5215   1.1465185157e+02   3.9695434442e+01    0.4668823    0.2863937  64.29   0.00239145    1.501    0.334
       346  -9.9350     70.9447    151.4807   1.0347371641e+02   3.5429468649e+01    0.3489984    0.2753404   6.06   0.00180981    1.676    0.403
       347 -11.2928     46.6845    147.5126   1.0985508345e+02   3.9501561305e+01     0.746903    0.3125865 -66.98  0.003257841    2.273    0.560
       348  -9.5921     41.7043    149.3448   1.1147918337e+02   3.9633689518e+01    0.2637073    0.1893329  27.97  0.001163984    1.486    0.327
       349 -11.4956      3.7203    148.7260   1.2209588915e+02   4.3235292633e+01    0.5698424      0.38209 -87.25    0.0024647    1.304    0.233
       350 -11.3358      2.9927    141.0514   1.2191136570e+02   4.5077416893e+01    0.6025965    0.2972104  62.76  0.001708136    1.791    0.442
       351 -11.3906     63.2109    150.6477   1.0552814205e+02   3.6688483210e+01    0.4532847    0.3168486   8.53  0.001880852    2.012    0.503
       352 -11.1266    240.2655     31.8289   3.9830397553e+01   2.1564654234e+01    0.4369515    0.2823987 -23.96   0.00229783    1.497    0.332
       353  -9.3548    214.9939    151.2546   7.0457972685e+01   1.0274376120e+01    0.1593576     0.103944  38.95 0.0008811353    1.543    0.352
