#   1 NUMBER                 Running object number                                     
#   2 MAG_AUTO               Kron-like elliptical aperture magnitude                    [mag]
#   3 X_IMAGE                Object position along x                                    [pixel]
#   4 Y_IMAGE                Object position along y                                    [pixel]
#   5 X_WORLD                Barycenter position along world x axis                     [deg]
#   6 Y_WORLD                Barycenter position along world y axis                     [deg]
#   7 A_WORLD                Profile RMS along major axis (world units)                 [deg]
#   8 B_WORLD                Profile RMS along minor axis (world units)                 [deg]
#   9 THETA_WORLD            Position angle (CCW/world-x)                               [deg]
#  10 FWHM_WORLD             FWHM assuming a gaussian core                              [deg]
#  11 ELONGATION             A_IMAGE/B_IMAGE                                           
#  12 ELLIPTICITY            1 - B_IMAGE/A_IMAGE                                       
         1 -14.0867    169.8598     43.4546   7.0287089588e+01   3.7292949875e+01     1.313021     1.076974   4.54  0.003940154    1.414    0.293
         2 -14.2630    190.5047     10.2129   5.7310591984e+01   3.6047034882e+01     2.616973     1.051222  61.87  0.008486195    2.098    0.523
         3  -9.6691    119.4906    212.5028   1.1962436387e+02   1.5665614830e+01    0.1890745     0.163141  20.00 3.640771e-05    1.625    0.385
         4 -19.8541     60.6348    166.7444   1.2547895558e+02   3.3652168757e+01     17.36766     4.066617 -65.97    0.0601956    4.166    0.760
         5  -9.6119    125.9942    209.2202   1.1795518568e+02   1.5153540501e+01    0.1924345    0.1399045  25.12  0.001050874    1.924    0.480
         6 -11.5525     12.0766    205.9729   1.3804507893e+02   3.1144899913e+01    0.2273949    0.1655106  56.97  0.001079588    1.363    0.266
         7  -9.6494    133.9769    245.5083   1.2102637259e+02   7.7297697334e+00    0.1768923    0.1564844 -46.42 0.0008177963    1.549    0.354
         8 -10.5752    140.9204    200.7311   1.1383653101e+02   1.4049632849e+01    0.2918147    0.1954925 -34.62  0.001497575    2.120    0.528
         9 -10.2848      8.9999    202.1158   1.3829985164e+02   3.2152187991e+01      0.10486   0.07023729  87.42            0    1.083    0.076
        10 -10.0470    134.9070    198.1310   1.1463129458e+02   1.5622265910e+01    0.2071008    0.1644104  70.41 0.0006422682    1.220    0.180
        11 -10.7226    121.2172    197.3516   1.1723104120e+02   1.8192586226e+01    0.2426903    0.2088837  68.07 0.0001879365    1.011    0.010
        12 -10.3911    151.4725    196.0676   1.1101503581e+02   1.2939144926e+01    0.2959643    0.1774979  34.16 0.0006672451    1.835    0.455
        13 -11.0928    153.2916    192.1897   1.1001461856e+02   1.3301745400e+01    0.3426039    0.2480286 -74.85  0.000931412    1.738    0.425
        14 -11.2847    149.5003    187.5307   1.1000107839e+02   1.4892314478e+01    0.3165461    0.2479012  53.40  0.001060683    1.149    0.129
        15  -9.2506    169.5623    195.5138   1.0733470898e+02   9.5690024754e+00    0.1371482    0.1201442  56.73 0.0001092379    1.084    0.077
        16 -10.6657    159.1584    194.9696   1.0930465317e+02   1.1674035297e+01    0.2465824    0.1832151  46.71 0.0009465227    1.189    0.159
        17  -9.1498    180.6787    193.3313   1.0476547143e+02   7.7722452259e+00    0.1367139    0.1054066  77.92 0.0007049288    1.697    0.411
        18 -10.1688    168.0018    241.8603   1.1465476528e+02   2.5078111494e+00    0.1933015    0.1702947 -53.50 0.0008789959    1.432    0.302
        19  -9.8237    150.9198    242.6167   1.1774748972e+02   5.3303889026e+00    0.1859781    0.1673928 -19.69 0.0007945954    1.551    0.355
        20  -9.9796    242.4552    184.5220   9.1481513671e+01  -2.8134425641e+00    0.1334543    0.1146342  13.60 4.028488e-05    1.016    0.016
        21  -9.7629     12.3635    241.8651   1.4002616310e+02   2.4791037961e+01   0.07151391    0.0603488  37.26 0.0005933425    1.979    0.495
        22 -11.7215     27.7748    184.0207   1.3373238889e+02   3.3820471214e+01    0.1667483     0.143025  72.34 0.0003800108    1.256    0.204
        23 -10.1345    185.1943    169.8594   9.9422681847e+01   1.0983550085e+01    0.4152111    0.2463743 -56.28  0.001814424    2.166    0.538
        24  -9.9004    189.3499    178.6838   1.0032789397e+02   8.5578437521e+00     0.336569     0.229561  71.89  0.001288861    2.138    0.532
        25  -9.8201    188.5390    175.4788   9.9864285070e+01   9.2860024291e+00    0.2831628    0.2404629 -77.81 0.0008093028    1.479    0.324
        26 -10.6595    204.5442    175.0633   9.6625457649e+01   6.0690768510e+00    0.3374037    0.3203976 -38.48  0.001420084    1.171    0.146
        27 -10.5482    196.4979    175.3971   9.8266826854e+01   7.6623186542e+00    0.3692601    0.2407965  49.47  0.001808354    1.463    0.317
        28  -9.6749     28.4517    239.2062   1.3754856300e+02   2.3532887927e+01    0.1178319   0.06779528  77.51 0.0004766703    1.318    0.241
        29  -9.9423      7.8468    175.6831   1.3668375796e+02   3.7337401458e+01     0.125481   0.07674736  57.22 0.0008795147    1.539    0.350
        30 -10.5118    230.4249    168.2170   9.0335289961e+01   1.9451055928e+00    0.1961318    0.1278435 -45.62 0.0009585879    1.766    0.434
        31 -11.1758    175.7121    234.2859   1.1224022961e+02   2.2465720443e+00    0.5221055    0.1217116 -49.45  0.001717843    6.242    0.840
        32 -10.6503    192.3572    164.2670   9.6833043439e+01   1.0485409552e+01     0.387596    0.2696863 -52.21  0.001290239    1.658    0.397
        33 -11.0556    140.6333    163.5597   1.0759567898e+02   2.1315592535e+01    0.3727603     0.258847 -85.81 0.0009628126    1.964    0.491
        34 -10.0150     23.1750    166.1938   1.3301310559e+02   3.7876098627e+01    0.1949097    0.1565173   2.48  0.001225762    2.139    0.533
        35 -11.2394    131.9495    160.2713   1.0888656456e+02   2.3671543231e+01    0.4028648    0.1776113  43.98  0.001619069    2.186    0.542
        36 -11.1663    189.1384    155.0975   9.5549966192e+01   1.2846893994e+01    0.4872645    0.4267826  54.58  0.002058033    1.138    0.122
        37  -9.9372     14.8193    157.0498   1.3381077540e+02   4.0501854967e+01    0.1645897    0.1372785  77.64 0.0004055366    1.189    0.159
        38 -12.9950    133.9539    145.9584   1.0563116866e+02   2.6284014694e+01     1.386192      0.35457 -54.83  0.003523048    5.616    0.822
        39 -10.2326    152.5295    152.0376   1.0270290595e+02   2.1262978454e+01    0.2447487    0.1802233 -83.94  0.001093445    1.805    0.446
        40 -11.9454    144.3500    146.1216   1.0329680874e+02   2.4163156913e+01    0.4844396    0.3709047  82.88  0.002362613    1.602    0.376
        41 -11.7553    141.6338    139.3114   1.0246335268e+02   2.6139814602e+01    0.4051471    0.2482452 -55.81  0.001798124    1.746    0.427
        42  -9.6737    174.6875    149.1076   9.7269796363e+01   1.7124260749e+01    0.2596732     0.199117  57.69 0.0005834871    1.330    0.248
        43 -12.2841    135.3077    122.7744   1.0022144519e+02   3.0918890811e+01      1.70267    0.2766481 -48.98  0.003654251    7.136    0.860
        44 -10.7275    164.8085    152.9434   1.0021053663e+02   1.8500462678e+01    0.3596329    0.2903713  75.65  0.001152777    1.429    0.300
        45 -10.8349    160.4795    127.5695   9.5490210605e+01   2.4534122531e+01    0.3979708    0.2786497 -55.48  0.001353028    1.559    0.359
        46 -11.1992    113.6249    117.7829   1.0440486417e+02   3.6212324386e+01     0.286731    0.2523293 -61.10 0.0007029079    1.107    0.096
        47 -10.3161    168.4464    113.3852   9.0231656221e+01   2.5556856266e+01    0.4191233    0.2909341 -68.31  0.001223505    1.953    0.488
        48 -10.3597    176.0120    229.2795   1.1146298920e+02   2.9249750155e+00    0.1897034       0.1532  31.20 0.0004058498    1.217    0.178
        49 -10.7119    135.0000    106.4730   9.6298025945e+01   3.4381408181e+01    0.5295156    0.1927882 -49.02  0.001758666    2.913    0.657
        50 -10.9003    166.4172    235.2882   1.1404529976e+02   3.7382331860e+00    0.2318785    0.1846223  65.20 0.0006122426    1.300    0.231
        51  -9.9504    205.5445    110.1001   8.1726788629e+01   1.7397275954e+01    0.2872084    0.2189434  43.33 0.0006495387    1.317    0.241
        52 -10.4645    162.5284    233.5396   1.1450268230e+02   4.6828416078e+00    0.2125773    0.1684501  59.70 0.0005203898    1.187    0.158
        53 -10.1365     25.8016    229.9796   1.3738959466e+02   2.5413154470e+01    0.1079377   0.06283744 -84.02 0.0003177041    1.421    0.296
        54  -9.5226    147.0718     81.4997   8.6550639606e+01   3.6622740730e+01    0.2285412    0.1473476  49.04 0.0005266353    1.533    0.348
        55 -10.0288     93.0904     79.2638   1.0014763675e+02   4.7830879688e+01    0.2281775    0.1855185 -42.34 0.0005630465    1.147    0.128
        56  -9.2027    141.2670     71.3897   8.4979264841e+01   3.9768977205e+01    0.2031563    0.1421275  61.01 0.0006070626    1.593    0.372
        57 -13.5221    157.1904     58.1598   7.7318333699e+01   3.8241715733e+01     1.267976     1.058459  57.02 0.0009458107    1.180    0.152
        58  -9.5391    160.0000    245.8949   1.1657854301e+02   3.3055550294e+00    0.2679127   0.07007887 -48.68  0.001044076    4.869    0.795
        59 -12.1636    174.3134     36.0163   6.7245568131e+01   3.7170742124e+01     0.398472    0.3939797  26.85 0.0008901925    1.072    0.067
        60  -9.8536     13.4751     59.6974   1.2001980093e+02   6.0669378545e+01     0.176344    0.1481964 -48.73 0.0003682586    1.112    0.100
