#   1 NUMBER                 Running object number                                     
#   2 MAG_AUTO               Kron-like elliptical aperture magnitude                    [mag]
#   3 X_IMAGE                Object position along x                                    [pixel]
#   4 Y_IMAGE                Object position along y                                    [pixel]
#   5 X_WORLD                Barycenter position along world x axis                     [deg]
#   6 Y_WORLD                Barycenter position along world y axis                     [deg]
#   7 A_WORLD                Profile RMS along major axis (world units)                 [deg]
#   8 B_WORLD                Profile RMS along minor axis (world units)                 [deg]
#   9 THETA_WORLD            Position angle (CCW/world-x)                               [deg]
#  10 FWHM_WORLD             FWHM assuming a gaussian core                              [deg]
#  11 ELONGATION             A_IMAGE/B_IMAGE                                           
#  12 ELLIPTICITY            1 - B_IMAGE/A_IMAGE                                       
         1 -13.0645     52.0957    103.9768   1.1248117867e+02   4.8415852558e+01     2.550455    0.8576695 -56.76   0.01066097    2.378    0.579
         2 -14.1196    126.1212     41.4412   7.2588527073e+01   4.8450085541e+01     2.041199     1.324384 -22.43   0.00946375    1.605    0.377
         3 -11.9637     14.8381     31.3708   1.0777801605e+02   6.7214031465e+01    0.5302339    0.3577094 -79.18  0.003190365    2.189    0.543
         4 -12.6524     10.9419     36.2753   1.1091636499e+02   6.6516575182e+01    0.7153308    0.4744722 -73.30  0.004086072    1.725    0.420
         5 -11.8117      2.4645     34.5142   1.1397239562e+02   6.7331998335e+01    0.6206609    0.2817346 -66.04  0.002984976    1.960    0.490
         6 -13.4213    248.7894     14.6584   4.5060960431e+01   2.0735122089e+01     2.502938    0.2452702 -29.56  0.006719803    5.795    0.827
         7 -12.3897    112.8674     42.0221   7.6303348971e+01   5.1308269415e+01    0.9200349    0.7403259 -36.20  0.004928133    1.241    0.194
         8 -11.4229    112.6085     20.5700   6.7976045756e+01   5.4414957127e+01     0.577778    0.4077049 -65.74  0.002732205    2.224    0.550
         9 -12.0209     26.4732     17.9551   9.7647893205e+01   6.8708688067e+01    0.5973951    0.4842245 -41.11  0.003842318    1.252    0.201
        10 -11.2009     32.8005     18.0964   9.4859352005e+01   6.8063083081e+01    0.4795324    0.2016104 -44.66  0.002444941    2.003    0.501
        11 -11.2922     14.8025     17.3527   1.0282760413e+02   6.9787310962e+01     0.753274    0.5092318 -70.58  0.004559255    2.319    0.569
        12 -12.4281      3.7714     17.3733   1.0809629749e+02   7.0503306035e+01    0.8155714    0.3720848 -50.39  0.004753547    1.565    0.361
        13 -12.4574      4.8056      2.9673   1.0180652889e+02   7.2921468870e+01    0.7513778    0.5535908  27.01  0.005680135    1.805    0.446
        14 -12.6070     14.0862      2.4206   9.6671548378e+01   7.2316503288e+01     1.316666    0.2365028  29.56  0.005053228    6.010    0.834
        15 -12.5881    123.2318     13.2303   6.2452701816e+01   5.2829134274e+01    0.6726758    0.3954795  54.08  0.003124497    1.586    0.370
        16 -14.0093    140.9485      6.4307   5.6222999068e+01   4.9195012536e+01     1.762013    0.7025337  61.80  0.006981103    2.259    0.557
        17 -12.9493     53.1147      8.2725   8.1625260553e+01   6.7018868728e+01     1.404734    0.5847413  31.74  0.006541068    2.690    0.628
        18 -11.8338     95.1313      2.5630   6.4834553993e+01   6.0183141565e+01    0.7806611     0.337247  62.58  0.003213722    2.871    0.652
        19 -11.5190    166.9413      2.1373   5.0540857337e+01   4.2903407065e+01    0.5584778    0.2136314  73.61  0.002026903    2.736    0.635
        20 -15.5003     59.6382    242.8928   1.2636569949e+02   1.9328212635e+01     1.521389    0.8529227  37.17  0.009965491    2.080    0.519
        21 -12.1552    132.5415    230.9142   1.1314062525e+02   1.0803057235e+01    0.7497925    0.3138935  52.47  0.003639771    2.090    0.522
        22 -13.2440    137.0262    243.5848   1.1377726299e+02   8.2322655964e+00    0.8309341    0.5488038  41.29  0.004249141    1.301    0.232
        23 -13.3211    140.7250    221.8478   1.1060257166e+02   1.0869031354e+01    0.9346073    0.6495182 -72.65  0.004189271    1.838    0.456
        24 -10.6374    112.1863    250.2001   1.1854550559e+02   1.1049390762e+01     0.315945    0.1173484  45.88  0.001199033    2.008    0.502
        25 -14.5829     13.4952    147.9961   1.2769621263e+02   4.2316742048e+01     2.123274     1.477745 -71.72   0.01084703    1.266    0.210
        26  99.0000     32.0336    171.9882   1.2593174470e+02   3.5576960635e+01     1.672795     1.239018 -79.69   0.01198903    1.197    0.165
        27 -15.5331     81.2838    180.4079   1.1689209169e+02   2.7776809072e+01     3.613485     3.155812  76.04   0.02473205    1.107    0.097
        28 -14.9118     59.7387    158.9644   1.1884913692e+02   3.5170747193e+01     3.157731     1.618395  84.06   0.01482166    2.435    0.589
        29 -13.8470     35.9846    232.8238   1.2943685418e+02   2.3774209230e+01    0.7978507    0.4000449  46.92  0.004871422    1.671    0.401
        30 -14.4343     73.7133    204.7617   1.2095701505e+02   2.4099168178e+01     1.198234    0.6855798  42.26   0.00720591    1.689    0.408
        31 -14.0221     81.1816    234.3676   1.2226663915e+02   1.7902758072e+01     1.026211    0.5880551  43.52  0.006314538    1.582    0.368
        32 -14.8058     49.7081    219.8708   1.2640751928e+02   2.4417001033e+01     1.398947    0.7072912  81.51  0.007685905    1.888    0.470
        33 -15.6785     69.5863    219.7518   1.2302207680e+02   2.1939656075e+01     3.626779     1.036477  49.19   0.01706026    2.709    0.631
        34 -14.6989     75.2145    248.7134   1.2432928097e+02   1.6421912682e+01     1.993173    0.5694405  37.33  0.008044482    4.713    0.788
        35 -15.0818      6.4084    230.4200   1.3380043030e+02   2.7236162659e+01    0.7353046    0.3392301  60.48  0.004812294    1.529    0.346
        36 -11.9753     48.4639    115.4793   1.1547476902e+02   4.6199136678e+01    0.7644908    0.3617991 -66.57  0.003748918    1.799    0.444
        37 -12.3288     31.8516    100.2158   1.1753296380e+02   5.1302569204e+01    0.8025411    0.4632507 -56.52  0.004562477    1.445    0.308
        38 -10.6886    101.0469    100.6213   9.8015764276e+01   4.2105480126e+01    0.5146093    0.3424761  -8.44  0.002061029    2.890    0.654
        39 -11.8331     71.3690     97.8539   1.0571953995e+02   4.7395596141e+01    0.6751246    0.4187687  52.93  0.003385745    1.913    0.477
        40 -11.4932     16.8959     94.3396   1.2086272865e+02   5.3807757728e+01    0.6136959    0.2584932 -65.38  0.002547144    1.759    0.431
        41 -12.3796      5.0388     84.7975   1.2291469961e+02   5.6663119758e+01    0.7812446    0.4600605 -65.06  0.004699315    1.252    0.201
        42 -11.7977     57.6341    125.4324   1.1469495537e+02   4.2879795101e+01    0.6334782    0.4314423  45.04  0.003679508    1.586    0.370
        43 -11.2133     26.9248     75.9468   1.1461199201e+02   5.7121324577e+01    0.4656068    0.3474694  34.15  0.003081082    1.658    0.397
        44 -12.0238      4.6139     65.7206   1.2000271295e+02   6.0804728078e+01    0.6475641    0.4487613  76.09  0.004295414    1.758    0.431
        45 -11.4650    115.1796     66.9109   8.4366789112e+01   4.6431344937e+01    0.5227236    0.3497792 -34.01  0.002453519    1.464    0.317
        46 -12.9427    249.2854     54.6837   5.4977899236e+01   1.5585732928e+01     1.354426    0.2007797 -31.36  0.003538672    5.149    0.806
        47 -11.4776     14.5467     59.5575   1.1535729345e+02   6.1538103980e+01    0.4180015    0.3292501   0.81  0.002989785    1.602    0.376
        48 -12.3632      4.8203     50.9445   1.1701165266e+02   6.3898714491e+01    0.4956288    0.4451921 -66.27  0.003539657    1.225    0.184
        49 -10.9683     19.5134     49.4939   1.1112541504e+02   6.3300513328e+01    0.3627738    0.2605838  14.35   0.00245127    1.730    0.422
        50 -11.9781    140.5134     43.2055   6.9752605896e+01   4.4768864876e+01     0.810674    0.4163859  48.83   0.00332446    1.884    0.469
        51 -13.4652    160.9137    225.9826   1.0752284069e+02   6.8680865274e+00    0.5594448    0.3517408  46.05  0.003388121    1.272    0.214
        52 -12.7453     28.1383     36.5938   1.0388936716e+02   6.5186980881e+01    0.9730204    0.5369188  24.25  0.005411254    2.166    0.538
        53 -12.4356     16.2726    219.0581   1.3178470563e+02   2.8218641070e+01    0.6007866    0.2745698  57.22  0.003347982    1.639    0.390
        54 -10.9652    124.3724    224.5002   1.1385080543e+02   1.3108790264e+01    0.3739385    0.2269236  51.26  0.001745329    1.321    0.243
        55 -16.5209      9.1647    244.7895   1.3397436080e+02   2.4628340699e+01     1.626981    0.8635963  51.83   0.01082635    1.464    0.317
        56 -15.2124      3.7925    197.3075   1.3271650215e+02   3.3318107975e+01      2.30849    0.7460048 -81.19   0.01265799    2.510    0.602
        57 -12.6306    153.6580     24.0694   6.0235053325e+01   4.4065307823e+01     0.703224    0.4476259  70.95  0.003202429    1.691    0.408
        58 -14.1733      6.4880    184.1959   1.3155713242e+02   3.5564961592e+01    0.8684862    0.4282812  48.32  0.004231248    1.817    0.450
        59  -9.9967     36.6561    202.6716   1.2743147117e+02   2.9052225890e+01    0.1706619    0.1140726  47.64 0.0009159713    1.469    0.319
        60  -9.6969     30.7144    200.5710   1.2832350700e+02   3.0090433569e+01      0.17704   0.09856658  36.36   0.00112971    2.080    0.519
        61 -11.4321     34.4881    192.0700   1.2705452045e+02   3.1309741591e+01    0.4803448    0.1977586  55.68  0.002354884    2.084    0.520
        62 -12.5326    116.5770    148.8669   1.0445209678e+02   2.8703217531e+01    0.8668113    0.7805389 -68.99  0.004547445    1.105    0.095
        63 -11.9725     95.7435    140.6942   1.0786077308e+02   3.4041264803e+01    0.7748692     0.499693 -78.03  0.003811383    1.741    0.426
        64 -11.2962    104.0332    141.1774   1.0596983076e+02   3.2560813297e+01    0.3625762    0.2773338  85.39  0.001880776    1.411    0.291
        65 -12.7363    115.9848    126.4114   1.0011755869e+02   3.3684357613e+01    0.8428125    0.6032692 -36.57  0.004131898    1.616    0.381
        66 -12.6130    107.8788    124.3145   1.0168605887e+02   3.5623299270e+01    0.8436584    0.5713525  29.52  0.004037922    1.828    0.453
        67 -12.0212     29.2000    112.9907   1.2017787752e+02   4.8660411622e+01    0.7802666    0.4182028  42.52  0.004429859    2.087    0.521
        68 -12.0152      2.4645    122.9236   1.2795565558e+02   4.8508837217e+01    0.7657619    0.2198084 -73.21  0.003590547    2.510    0.602
        69 -13.5993      6.4269    107.9903   1.2546687583e+02   5.1500673086e+01     1.148542     0.753592  32.21  0.007321415    1.911    0.477
