#   1 NUMBER                 Running object number                                     
#   2 MAG_AUTO               Kron-like elliptical aperture magnitude                    [mag]
#   3 X_IMAGE                Object position along x                                    [pixel]
#   4 Y_IMAGE                Object position along y                                    [pixel]
#   5 X_WORLD                Barycenter position along world x axis                     [deg]
#   6 Y_WORLD                Barycenter position along world y axis                     [deg]
#   7 A_WORLD                Profile RMS along major axis (world units)                 [deg]
#   8 B_WORLD                Profile RMS along minor axis (world units)                 [deg]
#   9 THETA_WORLD            Position angle (CCW/world-x)                               [deg]
#  10 FWHM_WORLD             FWHM assuming a gaussian core                              [deg]
#  11 ELONGATION             A_IMAGE/B_IMAGE                                           
#  12 ELLIPTICITY            1 - B_IMAGE/A_IMAGE                                       
         1 -15.2200      9.8874    155.0693   1.4325499181e+02   4.1338066949e+01     4.969368     1.654496 -89.25   0.02252481    2.866    0.651
         2 -13.6373    192.0105     27.6734   7.1388027246e+01   3.3557232273e+01     1.619552     1.426261  -7.04  0.006529192    1.106    0.095
         3 -13.7892    206.2834      8.8700   6.3512509214e+01   3.1706337854e+01      1.65082     1.118274  34.16  0.007977769    1.583    0.368
         4 -12.9193      2.6133     13.8796   1.2595479259e+02   7.1669277349e+01     1.824371    0.2102006 -62.47  0.005324248    6.215    0.839
         5  -9.7472     33.2609      8.9974   1.0797276365e+02   7.0136177243e+01     0.168616   0.08677091 -43.13 0.0008947701    1.564    0.361
         6 -10.1902     98.5148    249.0476   1.3422049185e+02   1.6663684249e+01    0.1519058    0.1167785  88.01   0.00134523    1.471    0.320
         7 -10.9833    138.9423    250.0105   1.2813685940e+02   1.1324085403e+01    0.2159772    0.1040402  42.85  0.001456496    1.478    0.324
         8 -11.0215    102.4921    247.9975   1.3354035200e+02   1.6302579081e+01    0.2083849    0.1502339  53.16 0.0005098924    1.024    0.023
         9  -8.9236     67.4567    250.5259   1.3894467197e+02   2.0116048189e+01   0.09324943   0.06340051  57.41 0.0001281251    1.004    0.004
        10 -10.8061     33.5763    248.2425   1.4372257098e+02   2.3958509340e+01    0.1976364    0.1861837   4.28  0.001978572    2.037    0.509
        11 -11.0824     35.1419    244.1745   1.4333433194e+02   2.4360944435e+01    0.3994203    0.2880234  11.38  0.002925811    3.373    0.704
        12 -10.6973      2.4899    248.7162   1.4802991181e+02   2.6723622210e+01    0.2783821    0.1386589  73.07  0.002359544    1.470    0.320
        13 -11.5004      1.7785    240.7600   1.4792461674e+02   2.7878182729e+01    0.4049059    0.1114377 -80.75  0.002594886    3.369    0.703
        14  -9.3174     24.9689    246.9836   1.4488857373e+02   2.4953427529e+01    0.1416568   0.06279051  61.46 0.0004644351    1.588    0.370
        15  -9.4600    152.6925    249.3265   1.2596601055e+02   9.5314409193e+00   0.09775148   0.06308454  59.25 0.0003927773    1.653    0.395
        16 -11.4989    125.1291    249.8842   1.3023773286e+02   1.3173462208e+01    0.3854042    0.0966069  44.44  0.001934512    2.756    0.637
        17 -10.9440    129.1267    245.1098   1.2920808653e+02   1.3210495372e+01    0.1525202    0.1135156  37.16  0.001194895    1.260    0.206
        18  -9.7393     81.7350    242.6239   1.3632800960e+02   1.9522580449e+01    0.2280185   0.09434655  56.95  0.001446891    2.047    0.512
        19 -10.4680     12.3639    241.3458   1.4646920267e+02   2.6882668287e+01    0.1697915    0.1213342  65.24  0.001370431    1.142    0.124
        20  -8.7352     57.3074    240.2882   1.3988885319e+02   2.2608796629e+01   0.07571671   0.06762379  41.90 0.0003319348    1.573    0.364
        21 -13.9568      8.9078    204.3765   1.4572488002e+02   3.2740910789e+01     2.605137     1.283602  63.65   0.01418207    1.480    0.324
        22 -10.6705    248.8291    248.9196   1.1157181835e+02  -3.7106109972e+00     0.201883    0.1224564  20.72  0.001565455    1.237    0.191
        23  -9.0431    152.5170    213.0169   1.2202506232e+02   1.3886166888e+01    0.1266568    0.1123047 -47.68  0.000133145    1.443    0.307
        24 -12.7527     39.2871    234.4932   1.4230104691e+02   2.5309326566e+01    0.2250087    0.1929472  84.42 0.0007669451    1.420    0.296
        25 -11.5039     20.4643    200.0744   1.4366318890e+02   3.2426918122e+01    0.3225378    0.1230216  54.84 0.0008465144    1.959    0.489
        26 -11.6080     64.7903    199.6620   1.3603977924e+02   2.7908855425e+01    0.2429734    0.1974129 -49.17  0.001316079    1.798    0.444
        27 -10.1770    193.3462    195.7079   1.1260915541e+02   9.5666799652e+00      0.55782    0.2996767 -60.02  0.002069283    6.365    0.843
        28  -9.0185     46.6456    198.3140   1.3911859035e+02   3.0147767126e+01    0.1111902   0.05496054  63.32 0.0007045279    1.737    0.424
        29  -8.8877     51.2858    197.3806   1.3824651249e+02   2.9806075805e+01    0.1352663   0.07240592  51.01 0.0003457089    1.483    0.326
        30 -10.4498     12.4823    196.9466   1.4484663357e+02   3.3650270653e+01    0.1991547    0.1069914  46.20  0.001067454    1.557    0.358
        31 -11.9030     70.5243    191.5822   1.3435034237e+02   2.8577460229e+01    0.2090611    0.1901566 -81.30 0.0006914142    1.326    0.246
        32 -13.3388     67.1656    176.6683   1.3363712478e+02   3.1588025751e+01     0.383709    0.2404381 -46.88  0.001618281    2.270    0.559
        33 -10.9545     80.0266    178.6273   1.3133598905e+02   2.9637308689e+01      0.19637    0.1655663  63.00 0.0003810213    1.068    0.064
        34  -8.7854    171.3643    173.1710   1.1289926874e+02   1.6306473442e+01    0.1449845    0.1191627 -52.57 0.0001476784    1.513    0.339
        35 -11.8466     87.3459    169.1045   1.2883780081e+02   3.0382003434e+01     0.548786    0.4653488  54.03  0.003938186    1.123    0.110
        36 -14.8169     45.2694    227.1045   1.4102524926e+02   2.5773001784e+01     4.265849     1.048073  37.57   0.00546278    3.484    0.713
        37 -10.5196    190.3084    153.8258   1.0582609423e+02   1.5644898436e+01    0.4030096    0.2877505 -76.78  0.001788441    2.947    0.661
        38 -10.1240     99.3188    152.8361   1.2420892216e+02   3.1715970205e+01    0.2479785    0.2137515 -75.44   0.00078849    1.164    0.141
        39  -9.3643    102.1274    148.8380   1.2300535757e+02   3.2057598923e+01     0.207386    0.1755699 -46.46 0.0008546796    1.358    0.264
        40 -12.1132     88.0517    152.2846   1.2656721639e+02   3.3444194611e+01    0.2348182    0.2203899 -51.11 0.0006013482    1.291    0.225
        41 -12.6119     67.1596    143.8963   1.3008047663e+02   3.7848410689e+01    0.6435806    0.3959884  67.60  0.003450504    1.690    0.408
        42  -9.8370    183.8201    147.1481   1.0572067217e+02   1.7868642332e+01    0.2647575    0.2059833 -66.04  0.001423365    1.906    0.475
        43  -8.7674    191.9767    144.0294   1.0353156992e+02   1.6746482034e+01    0.1586061       0.1421  11.29 0.0004008544    1.052    0.050
        44  -9.0432    180.1203    142.9382   1.0557497743e+02   1.9230638484e+01    0.1899393    0.1789214  63.02 0.0004297926    1.244    0.196
        45  -9.8530    110.2746    137.7533   1.1938463639e+02   3.2924140228e+01    0.3249333    0.2239529 -24.00  0.001265628    2.306    0.566
        46 -10.3382     86.0400    136.2126   1.2469771457e+02   3.6912128254e+01    0.2507512    0.1760049  61.66 0.0005519592    1.434    0.303
        47 -11.4418     57.5701    132.8487   1.3089055922e+02   4.1252599968e+01    0.5780894    0.2332343 -84.12  0.002116496    4.271    0.766
        48  -9.6881    163.2072    127.7989   1.0575685595e+02   2.5057552994e+01    0.3667614    0.2499734  77.55  0.001549826    2.529    0.605
        49  -9.4471    107.2619    124.1978   1.1760748528e+02   3.6110088773e+01    0.1731174    0.1706857 -48.41 0.0004310854    1.112    0.101
        50 -11.0043     97.3517    135.0549   1.2188754056e+02   3.5488163716e+01     0.273428    0.2182479  37.25 0.0006515575    1.334    0.251
        51 -11.5599    146.2791    230.2841   1.2503529829e+02   1.2627298715e+01    0.4615071    0.1079918  39.44  0.001886822    3.684    0.729
        52 -10.9747    173.4777    222.3276   1.1966810454e+02   9.5641578545e+00     0.313768    0.2402809  63.71  0.002262938    1.642    0.391
        53  -9.8013    203.4794    111.4084   9.3940348133e+01   1.9194950943e+01    0.2924472    0.1827175   7.71  0.001142866    2.104    0.525
        54 -10.4524    168.0414    113.1351   1.0133581988e+02   2.6571382683e+01    0.3116542    0.2691973 -84.18  0.000795026    1.506    0.336
        55  -9.4811     74.0732     86.7869   1.1852328877e+02   4.9130514815e+01    0.3180825    0.1823482  59.82   0.00136109    2.416    0.586
        56  -8.7066    184.3291     77.3388   8.8367302007e+01   2.8763904366e+01     0.164218    0.1127489  17.03 0.0007051817    1.735    0.424
        57  -9.5998    156.4978     75.5404   9.3600787470e+01   3.5660179352e+01    0.1531943    0.1434159   3.79 0.0001922302    1.029    0.028
        58 -11.5846     10.1508     64.1132   1.3441525726e+02   6.0471741981e+01    0.3543904    0.1960536  40.09 0.0008581741    2.179    0.541
        59 -10.5691     29.6332     61.0161   1.2703193976e+02   5.9789404579e+01    0.3236583    0.1906953  42.69   0.00109968    2.063    0.515
        60  -9.9952     81.4780    248.6483   1.3675660471e+02   1.8760896840e+01    0.2076532    0.1035692  65.69  0.001453737    1.952    0.488
        61  -9.8048     47.0395    249.3660   1.4185012580e+02   2.2457301847e+01    0.1291613   0.07962024  54.01 0.0004365125    1.121    0.108
        62  -9.5919    173.3374    248.6752   1.2273927732e+02   6.7359910458e+00   0.09850894   0.06550179  57.64 0.0007051292    1.720    0.419
