#   1 NUMBER                 Running object number                                     
#   2 MAG_AUTO               Kron-like elliptical aperture magnitude                    [mag]
#   3 X_IMAGE                Object position along x                                    [pixel]
#   4 Y_IMAGE                Object position along y                                    [pixel]
#   5 X_WORLD                Barycenter position along world x axis                     [deg]
#   6 Y_WORLD                Barycenter position along world y axis                     [deg]
#   7 A_WORLD                Profile RMS along major axis (world units)                 [deg]
#   8 B_WORLD                Profile RMS along minor axis (world units)                 [deg]
#   9 THETA_WORLD            Position angle (CCW/world-x)                               [deg]
#  10 FWHM_WORLD             FWHM assuming a gaussian core                              [deg]
#  11 ELONGATION             A_IMAGE/B_IMAGE                                           
#  12 ELLIPTICITY            1 - B_IMAGE/A_IMAGE                                       
         1 -12.9954    214.5748     48.2036   3.5733833905e+02   2.7115296663e+01    0.6132863    0.5442621 -38.87  0.001473203    1.221    0.181
         2 -12.7436    243.2864     28.7064   3.5101803999e+02   2.4207063613e+01    0.7448846    0.4964661 -72.14  0.005181648    1.416    0.294
         3  -9.9114    227.2989      9.6727   3.4786441471e+02   2.9159643588e+01    0.2006611    0.1611684 -54.73  0.000729067    1.114    0.103
         4 -10.6787      2.1182      7.8688   4.6897157773e+01   7.8463446948e+01    0.3726757     0.113657 -53.05  0.001535075    3.093    0.677
         5  -9.8048    125.0214    243.6197   5.1982117744e+01   7.9318435670e+00    0.2445775    0.1551465 -46.50 0.0009076458    1.817    0.449
         6  -9.6345    100.9860    250.2236   5.7794828610e+01   9.6085538300e+00    0.1646423    0.1589205 -32.54 0.0009559224    1.270    0.213
         7  -9.8272     74.8766    249.8917   6.3428121734e+01   1.2578974067e+01    0.2079265    0.1650159 -49.60   0.00100184    1.555    0.357
         8  -9.6235     75.6460    245.2148   6.2881539761e+01   1.3331199135e+01    0.2279461    0.1704478 -57.72 0.0009152649    1.619    0.382
         9 -10.6006     51.6082    249.8758   6.8522314010e+01   1.5049786533e+01    0.4278495    0.1588252  33.72  0.001871986    1.949    0.487
        10 -13.5205     66.1733    188.3227   5.9703764300e+01   2.6328084206e+01     4.905458     2.116965  83.19   0.01269099    6.907    0.855
        11 -10.2029    174.6152    222.7147   3.9163565628e+01   5.3628311133e+00    0.2111604    0.1016471 -38.70  0.001120556    2.055    0.513
        12  -9.6211    165.5259    214.9792   3.9791446229e+01   7.6904979492e+00    0.1753633    0.1137684 -40.00  0.001027309    1.577    0.366
        13  -9.2476    106.4334    214.8744   5.2690801994e+01   1.5367839770e+01    0.2474409    0.1547709 -10.73  0.001174215    2.285    0.562
        14 -14.6834      5.4300    227.6416   7.7796352101e+01   2.3736662563e+01    0.4113266    0.3393957 -63.77  0.001794847    1.501    0.334
        15  -9.8341     95.5042    209.1970   5.4608419266e+01   1.7927951996e+01     0.327485    0.2188434 -81.75  0.001521554    2.029    0.507
        16  -9.7334    210.7984    198.6996   2.8841095969e+01   4.6644311468e+00    0.2015179    0.1550615 -21.50 0.0003804959    1.107    0.097
        17 -17.6341      5.0196    217.0468   7.7545137184e+01   2.6007174857e+01     3.934204     2.080154  67.90   0.01992821    1.693    0.409
        18  -9.6438    190.9949    191.4903   3.1100119825e+01   8.2293922852e+00    0.2186834     0.160153 -77.64  0.001033902    3.533    0.717
        19 -11.4874     73.5261    188.9860   5.7786696998e+01   2.5235112867e+01    0.4426683    0.2693357 -85.14    0.0012088    2.071    0.517
        20 -10.5818     70.7711    183.3249   5.7845535806e+01   2.6927021276e+01    0.2685357    0.2272567 -46.01 0.0002263828    1.303    0.233
        21  -9.4355    236.9188    189.1915   2.3127205046e+01   3.0206648200e+00     0.154122    0.1255936 -19.87 0.0003188984    1.193    0.162
        22  -8.9367     99.4939    242.5676   5.7367351141e+01   1.1089619591e+01    0.1223793   0.09896175  26.61 0.0001749494    1.009    0.009
        23  -9.3355     77.6617    185.0194   5.6170412851e+01   2.5617339316e+01    0.3022473    0.1923093 -42.48  0.001028629    1.819    0.450
        24 -15.7783      6.1546    140.0612   7.3443615644e+01   4.4877089508e+01     9.178835     2.112418 -83.21   0.02662085    4.404    0.773
        25 -10.5379    171.4174    174.4478   3.1826279729e+01   1.3876706824e+01    0.2989726    0.2816553 -26.98 0.0009499977    1.183    0.154
        26 -11.3900    174.1015    170.9605   3.0642776749e+01   1.4104174944e+01    0.4547739    0.3539978  39.35  0.002051088    1.427    0.299
        27 -11.8838     97.1828    169.0744   4.8495999366e+01   2.6580504340e+01    0.8245638    0.3338541  46.88   0.00292903    2.782    0.641
        28  -9.7236    150.6580    226.6815   4.4495787152e+01   7.6272208724e+00    0.1282244   0.08259565  -5.94 0.0007049355    1.716    0.417
        29 -10.5636     90.0225    170.0733   5.0631532338e+01   2.7419548928e+01    0.4924865    0.2196164 -52.65  0.001282807    2.263    0.558
        30 -11.1260    179.0504    165.7763   2.8692743085e+01   1.4285516651e+01    0.5265566    0.4131041 -78.82  0.002567212    2.165    0.538
        31 -10.3217    110.4348    167.1718   4.4617157871e+01   2.4958312385e+01    0.2890468    0.2501014  88.66  0.000566515    1.361    0.265
        32 -10.8157     37.1876    161.9837   6.5255502273e+01   3.6307028497e+01     0.648706    0.2755601  59.22  0.002367119    2.808    0.644
        33 -11.3332     47.5485    160.5222   6.1867188813e+01   3.5536733141e+01     0.281307    0.2276251  63.30 0.0001603885    1.193    0.162
        34 -15.3673     42.7101    176.8760   6.5095381894e+01   3.1890840110e+01     4.872747     2.678138 -33.29    0.0201744    2.721    0.632
        35 -15.2450     54.7264    222.6991   6.5912876780e+01   2.0024968300e+01     2.907961     1.857029 -73.74   0.01102653    1.763    0.433
        36  -9.6507    163.8393    237.2009   4.3287438603e+01   4.4310286284e+00    0.1646827    0.1354363  18.14  0.000329581    1.178    0.151
        37 -10.7829    133.5003    144.8296   3.4382301427e+01   2.6060697074e+01     1.213228    0.2599862 -53.15  0.002689962    6.936    0.856
        38 -12.0065    126.7847    228.9272   4.9847170544e+01   1.0191031020e+01    0.4212836    0.3724559   2.02  0.002883429    1.094    0.086
        39 -11.3384     85.4304    144.6317   4.7609340518e+01   3.4405081820e+01    0.6375435     0.438296 -20.15   0.00273079    2.044    0.511
        40 -10.7489    108.8233    145.2429   4.0914861489e+01   3.0338391692e+01    0.2974114    0.2950019 -87.98 0.0006376648    1.025    0.024
        41 -10.3521     36.7704    142.5324   6.3176870011e+01   4.1550997079e+01    0.3142302    0.2273905 -78.81 0.0008498465    1.333    0.250
        42 -10.4375     28.3783    142.7499   6.6073015474e+01   4.2342400726e+01    0.3106631    0.2622886  85.39 0.0006346703    1.106    0.096
        43 -10.6116     44.9584    136.0268   5.9456091950e+01   4.2400130952e+01    0.2874947    0.2538556 -85.70 0.0007091661    1.085    0.079
        44 -11.1394     40.4861    132.4080   6.0508346048e+01   4.3908591836e+01    0.6634206    0.4939668   8.79  0.001012128    1.570    0.363
        45  -9.9894    102.7241    238.9679   5.6287891534e+01   1.1343433251e+01    0.2208751    0.1896994 -54.08  0.000777023    1.402    0.287
        46  -9.8623     37.4425    137.0567   6.2236943889e+01   4.2972251258e+01    0.3285957    0.1806886  52.87 0.0009067778    1.907    0.476
        47  -8.9747    106.0000    134.9893   3.9557356470e+01   3.3287989944e+01    0.2921771    0.1865447 -53.99 0.0006951448    1.562    0.360
        48 -11.5274    103.8658    131.3672   3.9378437934e+01   3.4547468278e+01    0.8634735     0.535108  13.15   0.00305394    2.549    0.608
        49 -11.6164     87.6419    131.7046   4.4356870844e+01   3.7319115982e+01     0.288686    0.2636969 -52.35 0.0003506413    1.096    0.087
        50 -10.2505    135.5414    128.2976   3.0211466255e+01   2.9285970449e+01    0.4276954    0.1416995 -52.59  0.001290406    3.519    0.716
        51  -8.3859    149.3459    126.2841   2.6523199184e+01   2.7054531851e+01    0.1470421    0.1143267  -1.07 0.0007017424    1.646    0.392
        52  -9.5109    110.0869    126.1359   3.6404015726e+01   3.4648676209e+01    0.2360559     0.207091 -12.56 0.0005993737    1.293    0.227
        53 -10.0576    116.0139    121.6918   3.3697596468e+01   3.4553096388e+01    0.2205672    0.2062157  40.51 0.0008370277    1.094    0.086
        54 -10.2114     97.2594    121.0863   3.9000302975e+01   3.8265079512e+01    0.2731216    0.2384064   9.44 0.0005329276    1.307    0.235
        55  -8.6233    218.7948    126.0242   1.4005217878e+01   1.4837953415e+01    0.1704459   0.08341444 -37.99 0.0004383311    1.665    0.399
        56  -8.6499     76.4774    120.4993   4.5588182551e+01   4.2071100133e+01    0.1550494    0.1489713  85.87 5.247878e-05    1.028    0.027
        57 -10.2465     71.9621    224.1347   6.1897441037e+01   1.7781096677e+01    0.2221495    0.1872315 -71.36 0.0004946915    1.366    0.268
        58  -9.4661    106.9018    116.0110   3.4885973906e+01   3.7656228692e+01    0.2259282    0.2167633 -89.63 0.0003651492    1.059    0.055
        59 -10.0039    243.2069    114.1641   8.4725756716e+00   1.2949032507e+01    0.1621144    0.1145896 -48.94 0.0003654072    1.345    0.257
        60 -10.4837     26.0600    117.3889   6.3774200696e+01   4.9548665020e+01    0.4637107    0.2421628  67.02 0.0005110662    2.351    0.575
        61 -10.2285     32.3858    108.6010   5.9855528825e+01   5.1354436337e+01    0.3808598    0.2394462 -32.82  0.001678764    1.890    0.471
        62 -15.3201      9.8780    206.3423   7.5962201162e+01   2.7971205472e+01      1.07505    0.5902662  10.41  0.002972362    2.219    0.549
        63 -11.5988     24.0585    104.9646   6.2741036582e+01   5.3169086318e+01    0.4945146    0.3825351  57.35  0.001745195    1.351    0.260
        64  -8.5182    221.7168    224.2931   3.1090034215e+01  -4.5101527689e-02   0.08930607   0.08070952 -10.44 0.0001984004    1.536    0.349
        65  -8.8971     69.4755    102.4630   4.3818278006e+01   4.7903150976e+01    0.1541491    0.1491018 -86.72 7.626961e-06    1.024    0.024
        66  -9.6098     60.0266    100.1447   4.6852144599e+01   5.0033166935e+01    0.2980001    0.2033621  54.55  0.001321636    1.640    0.390
        67  -9.4334    194.8266    226.2744   3.5949374354e+01   2.5284364069e+00    0.1791592    0.1411876 -33.04   0.00071576    1.417    0.294
        68 -10.1357     56.9440     94.0078   4.6538799853e+01   5.2103646163e+01    0.2832616    0.2125146  84.80  0.001299549    1.641    0.391
        69 -10.4461     27.4315     94.0584   5.9353092200e+01   5.5836752973e+01    0.3074355    0.1991818  37.36  0.001197776    1.598    0.374
        70  -8.8282    161.3155     87.6854   1.4382062000e+01   3.2107318530e+01    0.1486263     0.106687 -70.02 0.0003115718    1.644    0.392
        71 -10.0110     56.1801     86.8335   4.4932207474e+01   5.4057380658e+01    0.2359534    0.2042741  72.98 0.0007146223    1.279    0.218
        72  -8.7908    111.0241     85.9324   2.5421649200e+01   4.3589296527e+01    0.1824003    0.1741162 -64.09 0.0003617591    1.019    0.019
        73 -10.9740     17.3782     84.3045   6.2243729169e+01   5.9367025110e+01    0.3934262    0.2399217  44.79  0.001095737    1.787    0.440
        74 -10.2668     35.3207     83.1308   5.3301356385e+01   5.7898698296e+01    0.4406619    0.2152039  45.02  0.001744402    2.295    0.564
        75  -9.3721    184.6809     76.6725   7.6938135133e+00   2.9023281497e+01    0.1304875    0.1068629   5.66  0.000704689    1.682    0.406
        76 -11.9002    192.4222     63.3556   3.3192338070e+00   2.9461511249e+01    0.4117081    0.3804002   5.72 0.0008270119    1.390    0.280
        77 -12.0977      2.0318     62.4496   6.6397736893e+01   6.6094503903e+01    0.7876986    0.3292595  43.92  0.003173329    2.884    0.653
        78 -13.0946    206.0907     54.0764   3.5952432345e+02   2.7998949835e+01    0.9182702    0.7636404 -44.44  0.003512324    1.104    0.095
        79 -15.1783     67.9895    149.0435   5.3810919700e+01   3.5902108699e+01     9.872854     4.996692  85.71   0.03078651    3.894    0.743
        80 -11.3303     13.4997     60.2510   5.9101118756e+01   6.5930057820e+01     0.258234    0.2423735  79.04 0.0006109421    1.178    0.151
        81 -10.1515     30.1673     35.8272   3.9922415271e+01   6.9716282278e+01     0.195633    0.1520356 -12.70 0.0007511879    1.357    0.263
        82  -9.7852     67.9382    245.7981   6.4639083747e+01   1.4071097302e+01    0.3240092    0.2192776  86.58   0.00198935    1.860    0.462
        83 -11.9029    243.4936     22.1974   3.4967676019e+02   2.4896239870e+01     0.559162    0.2755673 -86.17  0.002966118    2.255    0.557
        84 -10.7768      2.9884     25.0000   5.5096264403e+01   7.4949764735e+01    0.6806402    0.1430388  28.27  0.002395458    4.087    0.755
        85  -9.9738      2.3195     22.6562   5.4667228521e+01   7.5498417735e+01    0.2343917    0.1701672  70.57 0.0006780732    2.068    0.516
        86  -9.5684     60.7544     21.1606   1.6426566629e+01   6.6517294404e+01     0.228598    0.1789894  64.03 0.0006364552    1.338    0.252
        87  -9.4911    125.4171    237.9966   5.1245488862e+01   8.8123434639e+00    0.1597705    0.1166246 -45.72 0.0005086346    1.576    0.366
