#   1 NUMBER                 Running object number                                     
#   2 MAG_AUTO               Kron-like elliptical aperture magnitude                    [mag]
#   3 X_IMAGE                Object position along x                                    [pixel]
#   4 Y_IMAGE                Object position along y                                    [pixel]
#   5 X_WORLD                Barycenter position along world x axis                     [deg]
#   6 Y_WORLD                Barycenter position along world y axis                     [deg]
#   7 A_WORLD                Profile RMS along major axis (world units)                 [deg]
#   8 B_WORLD                Profile RMS along minor axis (world units)                 [deg]
#   9 THETA_WORLD            Position angle (CCW/world-x)                               [deg]
#  10 FWHM_WORLD             FWHM assuming a gaussian core                              [deg]
#  11 ELONGATION             A_IMAGE/B_IMAGE                                           
#  12 ELLIPTICITY            1 - B_IMAGE/A_IMAGE                                       
         1 -15.9916    243.9639    135.0383   4.6894105342e+01   5.5400348437e+00     9.056255     1.241878 -36.82   0.02228842    6.362    0.843
         2 -10.7455     57.9201     41.7496   6.6992753733e+01   6.1895556031e+01    0.3705896    0.1834142 -53.18  0.001535331    2.854    0.650
         3 -10.5986     12.7982     28.2401   8.3436640628e+01   6.9350733407e+01    0.4357443   0.07401955 -54.47   0.00144692    4.789    0.791
         4 -10.0333     40.9329     14.0298   6.2443626336e+01   6.8724875367e+01    0.1864646    0.1446657  -0.44 -0.001320134    1.046    0.044
         5 -13.7270    160.8508    245.8796   8.3463639610e+01   1.6990292698e+00     1.274974    0.7767745  30.54  0.007369068    1.364    0.267
         6 -10.2269    192.0004    226.0543   7.4344066525e+01  -1.7751306731e-01    0.2014488    0.1584305  16.06  0.000772774    1.076    0.070
         7 -10.2429    171.1115    225.6387   7.8477801870e+01   3.2148408131e+00    0.1805733    0.1730002  22.04 0.0002980937    1.219    0.179
         8 -10.7694     99.1860    225.3296   9.3572528128e+01   1.4686646077e+01     0.310824    0.2153482  32.84  0.001624925    1.392    0.282
         9  -9.6968     88.6615    226.6649   9.5933073730e+01   1.5966741793e+01    0.1168237   0.09776926  -7.61 0.0007051582    1.750    0.429
        10 -11.0560    126.0197    220.5610   8.7239807594e+01   1.1425154434e+01    0.2453151    0.2004114  56.95 0.0007000695    1.212    0.175
        11  -9.1060     75.6871    219.6701   9.7953665341e+01   1.9153753492e+01    0.1133511    0.0982305 -19.51 0.0007043768    1.673    0.402
        12  -9.9129    185.6372    213.1404   7.3483518463e+01   2.8460473915e+00     0.268585    0.1246869 -41.70  0.001224468    2.392    0.582
        13 -11.9478    161.9753    227.1042   8.0576465307e+01   4.4546660386e+00    0.7296377    0.4817963  -9.51  0.003694314    2.158    0.537
        14 -12.7768    230.4506    184.6601   5.9508807606e+01  -3.3111697865e-02    0.6740648    0.4133305 -22.99  0.003561067    1.572    0.364
        15  -9.8034    110.9889    184.9841   8.5493221988e+01   2.1082164348e+01     0.208617    0.1713573 -13.34   0.00046213    1.587    0.370
        16 -10.9968     92.6371    183.1168   8.9677384615e+01   2.4463172568e+01    0.3727625    0.1589205 -59.79  0.001227167    2.418    0.586
        17  -9.6202     75.3343    184.6604   9.4099098970e+01   2.6678459527e+01    0.1469896   0.09175918  66.66  0.000705145    1.751    0.429
        18 -10.5444     97.5914    187.7884   8.9148274394e+01   2.2648429680e+01    0.4621081    0.1421899  41.65  0.001644737    2.855    0.650
        19  -9.4525    211.5612    182.4812   6.2634587928e+01   3.4688000920e+00    0.1383547    0.1179583   1.73 0.0003841567    1.025    0.024
        20 -10.2824     44.8030    182.6175   1.0116930043e+02   3.1037446820e+01    0.1847133   0.09951223  45.60 0.0009505512    1.711    0.415
        21 -10.2671     56.2612    187.9969   9.9030732618e+01   2.8453714813e+01     0.251623    0.0946188  58.58 0.0009025423    3.508    0.715
        22  -9.0500    205.2761    176.3675   6.2650125390e+01   5.6031878189e+00    0.1456492    0.1003507  -3.61 0.0007007135    1.677    0.404
        23 -10.7494    100.9985    175.9957   8.6528285196e+01   2.4738237336e+01    0.2012662     0.187399  60.79  0.001165691    1.004    0.004
        24  -9.7167     45.3435    172.6675   1.0001279478e+02   3.3270687454e+01    0.1422953   0.08362933  65.80  0.000705061    1.757    0.431
        25 -10.5386     55.9880    170.1573   9.7073860701e+01   3.2600358746e+01    0.2346182    0.1243179  57.33  0.001081702    2.003    0.501
        26  -9.5618    206.3539    169.1478   6.0959557964e+01   6.6551999357e+00    0.1980702    0.1255686 -46.19 0.0007040139    1.767    0.434
        27  -8.7709    176.6518    169.6786   6.7274942034e+01   1.2161245217e+01    0.1548434    0.1107514   3.41 0.0007049105    1.740    0.425
        28 -10.2689     81.2031    165.2151   8.9906447693e+01   3.0342441927e+01    0.2472642    0.1463916  68.87  0.001053811    2.209    0.547
        29 -10.2076    213.3924    162.8324   5.8265451032e+01   6.4581386711e+00    0.3139502    0.1672932 -38.22  0.001420217    1.819    0.450
        30  -9.8042     38.3522    164.6966   1.0089747040e+02   3.5909069343e+01    0.1389485   0.08316229  64.58 0.0007040144    1.704    0.413
        31 -10.2857     70.7849    163.6071   9.2394929488e+01   3.2220757061e+01    0.2012042    0.1168354  45.88 0.0009496448    1.679    0.404
        32  -9.7075    205.4653    161.0518   5.9434142102e+01   8.2434763664e+00    0.2197447    0.1342274 -36.33  0.001032039    1.595    0.373
        33 -10.1765     62.9885    161.4900   9.4145215543e+01   3.3775650665e+01    0.2062715   0.09195561  53.38 0.0008105022    2.565    0.610
        34 -11.4047     51.0851    155.9459   9.6556659923e+01   3.6587913241e+01    0.4405089     0.185767  52.05  0.001779825    2.675    0.626
        35 -11.6436     83.5186    155.6090   8.7751991692e+01   3.2289568426e+01    0.5304008    0.2228831  46.77  0.002023944    2.474    0.596
        36  -9.2748    204.6086    154.1412   5.8113515626e+01   9.6426798792e+00    0.2025616    0.1292341 -26.24 0.0007394315    1.621    0.383
        37 -11.5502     68.9897    154.4948   9.1519953575e+01   3.4663223016e+01    0.3878515    0.2070229  51.82  0.001711893    2.009    0.502
        38 -10.0027    189.4298    148.7511   6.0020681557e+01   1.3649543726e+01    0.3568703    0.1404554 -43.25  0.001259006    2.567    0.610
        39 -10.9118     40.5334    148.3067   9.8423868730e+01   3.9614956621e+01    0.4982342    0.1898681  52.79  0.001895966    3.212    0.689
        40  -9.6440    199.6846    147.4280   5.7613189580e+01   1.1833853864e+01    0.2629324    0.1296507 -37.80  0.001070525    1.978    0.495
        41 -11.9711     57.5887    146.6145   9.3472960828e+01   3.8077345958e+01    0.6272096    0.2599471  53.99  0.002298211    3.166    0.684
        42 -10.6693     89.0873    144.4207   8.4227554470e+01   3.4123460675e+01    0.3043576    0.1702205  48.71  0.001295513    1.886    0.470
        43 -11.2059     71.6134    141.7213   8.8705446340e+01   3.7422079708e+01    0.5320521    0.1881773  46.11  0.001846478    3.132    0.681
        44  -9.5305    185.6445    203.5139   7.1812610138e+01   4.4262752199e+00    0.2199403     0.126445 -39.99  0.001077953    1.884    0.469
        45 -10.1473    108.5230    146.2598   7.9204061237e+01   3.0366495915e+01    0.3768006    0.1724714  61.86 0.0009050279    6.181    0.838
        46 -10.2718     23.9291    138.7145   1.0184376623e+02   4.3517363667e+01    0.3330753    0.1519661  62.79  0.001416813    2.794    0.642
        47  -9.5594    197.3493    135.7655   5.5421604704e+01   1.4479072599e+01    0.2101967    0.1338847 -29.82 0.0007400711    1.601    0.376
        48 -10.2998     39.4289    136.2929   9.7146840403e+01   4.2667484192e+01    0.2356814    0.1423809  53.08  0.001106254    1.794    0.442
        49 -12.0698     85.2720    132.6982   8.3039574873e+01   3.7589251241e+01    0.7109434    0.2965619  45.91  0.002598991    2.606    0.616
        50 -10.4053    226.4635    131.4133   4.8991193315e+01   9.3963970976e+00    0.3509251    0.1238153 -39.55  0.001288064    2.589    0.614
        51 -11.6938     74.6954    130.3328   8.5712236811e+01   3.9783990734e+01    0.3938935    0.2483282  53.54  0.001802446    1.796    0.443
        52 -11.1499    100.6225    129.1672   7.7801689386e+01   3.5855754485e+01    0.5741256    0.3234328  61.54  0.002105566    2.691    0.628
        53  -9.0123    164.0000    201.0206   7.5963406515e+01   8.6104133177e+00    0.2091458   0.07969954 -46.17 0.0007989696    2.918    0.657
        54  -9.7182     12.8061    129.2183   1.0391729349e+02   4.6667150878e+01    0.2203303   0.09968481  64.22 0.0009532462    2.812    0.644
        55 -12.4209     61.0878    125.4481   8.8920384717e+01   4.2861278674e+01    0.7030159    0.3684448  59.56  0.002769977    2.752    0.637
        56 -12.0580     45.2435    123.9018   9.3536806939e+01   4.5115137265e+01    0.7533663    0.3741975  64.54   0.00286401    3.254    0.693
        57 -11.0312     28.9515    122.6285   9.8342255821e+01   4.7008583700e+01    0.7235319    0.3138654  72.29  0.002308568    4.961    0.798
        58  -9.4111     89.3244    199.6855   9.2696645075e+01   2.1336566878e+01    0.1417511   0.09117752  64.65 0.0002943041    1.664    0.399
        59 -11.2814     72.1872    120.6569   8.4538068261e+01   4.2527527111e+01    0.4084766    0.2201098  51.16  0.001693296    2.228    0.551
        60  -9.4139      3.3309    117.6463   1.0543425238e+02   5.0030539044e+01    0.1289033   0.07819339  68.46 0.0007045938    1.781    0.438
        61 -10.6696    110.6960    115.6135   7.1665004353e+01   3.7178685537e+01    0.4031014    0.2582539  73.13  0.001478108    2.749    0.636
        62 -12.2730     80.6842    113.7151   8.0348644375e+01   4.2936342421e+01    0.7010243    0.4118412  59.64  0.002814004    2.427    0.588
        63 -12.1699     95.2076    113.5520   7.5784307316e+01   4.0543635729e+01    0.7938119    0.3568022  42.82  0.002981251    2.297    0.565
        64 -12.1814     67.8165    111.4564   8.3970264645e+01   4.5397316500e+01    0.4812629     0.302975  54.55  0.002188964    1.951    0.487
        65 -10.3204     14.2379    110.3631   1.0123275340e+02   5.1110538403e+01     0.331194    0.1901697  82.98  0.001681865    1.973    0.493
        66 -11.2595     60.1037    109.8340   8.6146616521e+01   4.6827274649e+01    0.2189691    0.1921287  77.07  0.001002836    1.264    0.209
        67 -12.2782     46.6637    103.0819   8.9258141505e+01   5.0068097603e+01    0.8304678    0.4380744  63.16  0.003162893    3.376    0.704
        68 -11.4196     22.9845    102.2488   9.7176696183e+01   5.2448464796e+01    0.6355559    0.3220207  70.85  0.002596284    3.257    0.693
        69  -9.7887    129.9791    103.0000   6.2876296850e+01   3.6010659950e+01    0.2645852    0.0893636  44.74 0.0008039079    2.953    0.661
        70 -11.6751    111.7957    100.4989   6.7359896619e+01   4.0395843244e+01    0.9515634    0.4504092  58.30   0.00291396    3.670    0.728
        71 -11.7747     83.4858    100.8880   7.6320632375e+01   4.5536715840e+01    0.4831502    0.2932374  53.55  0.002054511    2.067    0.516
        72 -12.8760     65.3613     96.7363   8.1378002053e+01   4.9273953338e+01    0.7662773    0.4503152  55.91  0.002946734    2.404    0.584
        73 -11.6138     96.5102     97.5997   7.1246216062e+01   4.4011936170e+01    0.5156108    0.2750936  42.67  0.002104661    1.932    0.482
        74 -10.6193    126.1143     91.9211   6.0799875537e+01   3.9206093594e+01    0.5355421    0.2896593  60.52  0.001904679    2.600    0.615
        75 -10.8379     57.9869     92.0561   8.2816324104e+01   5.1361784349e+01    0.2107003    0.1943268 -46.70 0.0003264731    1.033    0.032
        76  -9.7384     43.3472     92.2980   8.8134926006e+01   5.3010331520e+01    0.1431821   0.09259101 -31.01  0.000180921    1.679    0.405
        77 -11.0539     34.9379     89.5678   9.0605073756e+01   5.4484610863e+01    0.4691934    0.2628623 -80.48  0.002108124    2.320    0.569
        78 -12.7023     88.5854     87.6349   7.1006408521e+01   4.7681051691e+01    0.7709768    0.4154796  54.45  0.002946347    2.596    0.615
        79 -11.9287     49.3658     85.0815   8.4230482904e+01   5.4040151732e+01     0.579512    0.3777249  68.24  0.002619148    2.519    0.603
        80 -11.6865    106.6315     84.5578   6.4306309040e+01   4.4893882086e+01     0.702214    0.4122098  59.52  0.002723623    2.379    0.580
        81 -12.0119     75.2850     81.0825   7.3662054924e+01   5.1373759990e+01    0.3916188     0.310269  77.85  0.001819835    1.827    0.453
        82 -10.0085    120.4929     81.4892   5.9258297430e+01   4.2576307682e+01    0.2894725    0.1475005  57.00  0.001036789    2.471    0.595
        83 -10.7954     24.3423     80.0172   9.2570053360e+01   5.7608164687e+01    0.3650622    0.2115978 -75.56  0.001637755    1.883    0.469
        84 -12.5918     62.4470     75.4486   7.6697047907e+01   5.4540410276e+01    0.8025969    0.2541474 -52.50  0.002775356    3.019    0.669
        85 -10.3972    129.3255     76.5170   5.5273322695e+01   4.1550596847e+01    0.3460879    0.2564489  87.46  0.001485751    2.019    0.505
        86  -9.5797    172.7948    195.5642   7.3100217919e+01   8.0451128313e+00    0.1927029    0.1224514  46.27  0.000933766    1.601    0.375
        87 -12.5294     84.0081     73.6653   6.8319978366e+01   5.1490479507e+01    0.5976511    0.4395033  77.31  0.002663083    2.312    0.567
        88  -8.8396    215.2916    193.6288   6.4071688374e+01   1.0462313545e+00    0.1192483    0.1089809 -76.15 0.0007024572    1.723    0.419
        89  -9.8593    116.9794     73.4921   5.7755950063e+01   4.4918550490e+01    0.2172582    0.1375212  70.73 0.0008104967    2.601    0.616
        90 -11.7939     95.9639     71.7983   6.3680890413e+01   4.9640138618e+01     0.452338    0.3532605 -83.07  0.002113308    1.960    0.490
        91 -10.4467     42.8690     72.3648   8.3426052096e+01   5.7654170285e+01    0.2359705    0.1743939 -61.46 0.0008883217    1.374    0.272
        92 -10.7675    106.6648     72.1177   6.0388062479e+01   4.7406111024e+01    0.3450331    0.2207178  59.24  0.001464999    1.977    0.494
        93 -11.7541     51.6905     69.2779   7.9033535723e+01   5.7308967295e+01    0.6288248    0.3056556 -65.14   0.00242493    3.017    0.668
        94  -9.8243     16.5563     69.3644   9.3369795090e+01   6.0584355246e+01    0.2466345    0.1117377 -68.63   0.00114431    2.139    0.533
        95 -10.2028    122.1837     66.4071   5.3985848752e+01   4.5065587053e+01    0.2207637    0.1447275  60.46 0.0009514026    1.749    0.428
        96 -10.6324    111.4122     64.4423   5.6412661730e+01   4.7835515658e+01    0.3325219    0.2398543 -84.83  0.001385474    2.422    0.587
        97 -10.7029     37.3765     64.0133   8.3344090822e+01   6.0057489715e+01    0.3157055    0.2209442 -84.75  0.001593608    2.229    0.551
        98 -11.1251    101.3864     61.1729   5.8361012923e+01   5.0573087746e+01    0.3564472    0.2564461 -71.75  0.001553975    2.277    0.561
        99  -9.3999     18.3038     62.3287   9.1007302777e+01   6.2031144034e+01     0.135627   0.07387624 -36.99 0.0002453161    1.650    0.394
       100 -12.0827     73.6298     59.0980   6.7204105085e+01   5.6200203478e+01    0.5099159    0.3141723 -56.29  0.001908855    2.081    0.519
       101 -10.1961     89.5693     59.7774   6.1748165564e+01   5.3199219483e+01    0.2035564    0.1361382 -49.75 0.0009497958    1.692    0.409
       102  -9.9530     24.5111     58.5221   8.7326916841e+01   6.2399107708e+01    0.1270623    0.1059473 -40.25 5.911862e-05    1.030    0.029
       103 -11.3651    225.0902    191.8981   6.1892829338e+01  -2.7822334192e-01    0.2608614    0.1737272 -23.56  0.000805979    1.422    0.297
       104 -10.0911    120.0960     56.7228   5.1316897535e+01   4.7228645417e+01    0.3764341    0.2608494  89.29   0.00153399    2.510    0.602
       105 -11.5429     63.0441     54.0445   6.9505493769e+01   5.8862900969e+01    0.4882473    0.1901579 -46.49  0.001780938    2.511    0.602
       106 -10.3941     44.0219     54.8171   7.7681157644e+01   6.1264889510e+01    0.3300435    0.1794666 -53.56  0.001605039    1.828    0.453
       107 -11.0226     45.1470     49.2201   7.5282228252e+01   6.2244013748e+01    0.3180721    0.1954342 -26.85 0.0003974887    1.608    0.378
       108 -10.0226    106.3190     53.6501   5.4196649174e+01   5.0839753605e+01    0.1460642    0.1189275 -77.24 0.0007048113    1.738    0.425
       109 -11.1398     92.6182     50.7368   5.7465326544e+01   5.4208504731e+01    0.4000432    0.2347893 -51.26   0.00162053    2.204    0.546
       110 -10.4618     30.8601     50.7042   8.2175380811e+01   6.3486731660e+01    0.3672378    0.1764656 -61.78  0.001657637    2.448    0.592
       111 -10.0654     19.8582     51.1290   8.7345294314e+01   6.4320025954e+01    0.3092003    0.1378154 -66.45  0.001361415    2.677    0.626
       112 -10.1163      7.4270     56.7385   9.4414316005e+01   6.3898050188e+01    0.2348699    0.1065314 -69.58  0.001134897    2.175    0.540
       113 -10.9181     82.0147     46.8356   5.9641690157e+01   5.6936241895e+01    0.2522229    0.1998682 -28.65 0.0008192625    1.237    0.192
       114 -10.9259     54.1659     53.1771   7.2818725329e+01   6.0309540810e+01    0.4810193    0.2116801 -56.22  0.001855309    3.050    0.672
       115 -10.2540     16.8108     42.4415   8.6187098086e+01   6.6319392585e+01    0.4705578   0.06440445 -50.78  0.001635173    3.825    0.739
       116  -8.9357     13.7363    250.6341   1.1190285630e+02   2.0574799122e+01    0.0882719   0.07398895 -66.94 0.0003960039    1.647    0.393
       117 -10.9246     69.2018     40.9380   6.2109581261e+01   6.0225526821e+01    0.3105723    0.2165956 -59.27  0.001509783    2.237    0.553
       118  -9.1503    113.7297     41.3113   4.7608801228e+01   5.1111037505e+01    0.1364341    0.1141486 -70.17 0.0002056386    1.548    0.354
       119 -10.0968    106.4745     41.5094   4.9719816057e+01   5.2729251355e+01    0.1431006    0.1335976  27.36 0.0001346295    1.043    0.041
       120 -10.2105     36.7376     39.9110   7.5717245886e+01   6.4997397213e+01    0.2451352    0.1475116 -48.52  0.001213545    1.613    0.380
       121 -10.0397     95.6764     38.3259   5.1764305924e+01   5.5550270102e+01    0.1352462    0.1145192 -77.50 0.0004019639    1.689    0.408
       122  -9.6812    112.3143     34.6705   4.5537026171e+01   5.2369106534e+01    0.1397303    0.1128312 -72.94 0.0007044651    1.676    0.403
       123 -10.2166     60.5094     32.0436   6.1933723002e+01   6.3110174003e+01    0.1999426    0.1211674 -34.72  0.001035364    1.600    0.375
       124 -10.4877      4.9127     40.1934   9.1388095690e+01   6.7497753818e+01    0.4886903    0.1552546 -67.20  0.001868863    3.861    0.741
       125 -10.1225     72.2244     31.2097   5.6943365106e+01   6.1226376349e+01    0.2056854   0.09890761 -43.79 0.0007146136    2.489    0.598
       126 -10.4783     27.8536     29.3348   7.5949087005e+01   6.7860298042e+01    0.3570762     0.120549 -35.02  0.001440307    2.996    0.666
       127 -11.8280    237.5825    229.6789   6.6396560860e+01  -7.3680225351e+00    0.3154761    0.1921606  17.75   0.00155144    1.413    0.292
       128  -9.5085     40.8426     21.2089   6.5923720295e+01   6.7686864719e+01    0.1703117    0.1202009  -4.69 0.0002390818    1.299    0.230
       129  -9.8340      3.6073     25.4191   8.7465622731e+01   7.0454664910e+01     0.298454   0.06793871 -52.81  0.001267431    2.915    0.657
