#   1 NUMBER                 Running object number                                     
#   2 MAG_AUTO               Kron-like elliptical aperture magnitude                    [mag]
#   3 X_IMAGE                Object position along x                                    [pixel]
#   4 Y_IMAGE                Object position along y                                    [pixel]
#   5 X_WORLD                Barycenter position along world x axis                     [deg]
#   6 Y_WORLD                Barycenter position along world y axis                     [deg]
#   7 A_WORLD                Profile RMS along major axis (world units)                 [deg]
#   8 B_WORLD                Profile RMS along minor axis (world units)                 [deg]
#   9 THETA_WORLD            Position angle (CCW/world-x)                               [deg]
#  10 FWHM_WORLD             FWHM assuming a gaussian core                              [deg]
#  11 ELONGATION             A_IMAGE/B_IMAGE                                           
#  12 ELLIPTICITY            1 - B_IMAGE/A_IMAGE                                       
         1 -11.4415      9.3832     24.4480   1.2402168132e+02   6.9241976974e+01    0.4477275    0.2360386 -54.94  0.002644893    1.380    0.275
         2 -10.9485     35.0214     21.4207   1.1041004958e+02   6.7802328642e+01    0.5322714    0.1964236 -49.96   0.00236835    2.248    0.555
         3 -11.6219     25.6360     20.1767   1.1445440292e+02   6.8945775922e+01    0.4874661    0.2585204 -24.07  0.002254804    2.201    0.546
         4 -10.6260    107.7880     18.6639   8.1655777874e+01   5.5991400893e+01    0.3954382    0.2272585 -13.17  0.001726192    1.873    0.466
         5 -11.5802    130.9386     14.1957   7.4041050600e+01   5.1038336106e+01     0.534657    0.3163773  26.72  0.001519038    1.876    0.467
         6 -10.7015     75.7082     16.9888   9.1087157073e+01   6.2749102075e+01    0.3421152     0.216712   2.36  0.001624099    1.953    0.488
         7 -10.4071     19.5240     16.4742   1.1607353323e+02   7.0184594436e+01    0.4099926    0.1370608 -42.71  0.001487016    2.337    0.572
         8 -12.2256     26.1824     13.5369   1.1137435426e+02   7.0179522968e+01    0.2940846    0.2363203  -6.88 0.0004000965    1.288    0.223
         9 -10.3763     23.2127      9.3051   1.1100249755e+02   7.1244407805e+01    0.2005612     0.144786 -34.00 0.0002883877    1.070    0.065
        10  -9.6360    175.5126     12.0421   6.5348804142e+01   3.9657880770e+01    0.2120874    0.1436361 -17.44 0.0003661907    1.486    0.327
        11 -11.1703    119.8050     11.6376   7.5458901066e+01   5.4053304371e+01    0.2889563    0.2338459  15.56  0.000287219    1.175    0.149
        12 -10.9619     75.0629      5.0270   8.5231099001e+01   6.4546737453e+01    0.3912402    0.2040139 -19.25  0.001121584    1.858    0.462
        13 -11.4199     78.4243      9.6692   8.6469400838e+01   6.3297953154e+01    0.4434428    0.2931745  30.17  0.002103381    1.523    0.343
        14 -11.5852     81.3957      6.0118   8.3566417389e+01   6.3196519912e+01    0.2669283     0.208777   6.93 0.0001973151    1.163    0.140
        15  -9.9189      3.1228     10.2195   1.2256140449e+02   7.2495728407e+01    0.2350662    0.1242571 -82.13 0.0008772745    3.411    0.707
        16 -10.0541    107.8397      9.6018   7.7508446030e+01   5.7099177669e+01    0.2239353    0.1773791   4.16 0.0003988914    1.189    0.159
        17 -10.1228     60.9013     10.6973   9.3671592652e+01   6.6233984268e+01    0.3718249    0.2231361  63.16  0.001543875    3.782    0.736
        18 -10.9203    129.0590      7.3587   7.1546789414e+01   5.2236081971e+01    0.3616347    0.2313619  83.92 0.0008150929    2.168    0.539
        19  -9.3575     37.1801      8.5946   1.0338375860e+02   6.9903461798e+01    0.1545047    0.1070479   5.50 0.0003819561    1.575    0.365
        20 -10.5773      9.4513      6.9592   1.1764130635e+02   7.2766468090e+01    0.3192264    0.1367971 -44.32  0.001267303    1.694    0.410
        21 -10.2036    115.8244      4.1959   7.3048601654e+01   5.5801828975e+01     0.328585    0.1887203 -12.49  0.001263534    1.753    0.430
        22  -9.1668    120.6664      4.3321   7.2018594677e+01   5.4614151379e+01    0.1457421    0.1084686 -55.65 0.0007052218    1.730    0.422
        23  -9.3840    100.6417      3.7409   7.6623276336e+01   5.9383055269e+01    0.1791783     0.122067 -24.52 0.0003897081    1.421    0.296
        24 -10.5067     91.7738      3.9473   7.9233707338e+01   6.1304700685e+01    0.2175153    0.1823048  28.28 0.0004135892    1.123    0.109
        25 -11.8593     27.4446      2.9462   1.0549482761e+02   7.1962560426e+01    0.5159556    0.2644757  28.21  0.002849169    2.249    0.555
        26 -10.1064     18.8065      4.0057   1.1088000118e+02   7.2606692995e+01    0.1651836    0.1286716 -40.22 0.0003152082    1.144    0.126
        27  -9.3289    124.4403      1.4125   6.9917099665e+01   5.3959845147e+01    0.1416451    0.1308987  23.06  2.18855e-05    1.042    0.040
        28 -10.9692    144.3382    227.2013   1.2248598405e+02   1.2510447363e+01     0.220614    0.1580981 -75.95  0.001520442    2.089    0.521
        29  -9.7266    243.0740    247.4954   1.0917623379e+02  -3.6257833757e+00    0.1491432    0.1140235  23.93 0.0005385548    1.248    0.199
        30 -10.9992    247.2668    250.1118   1.0890905623e+02  -4.3768565025e+00    0.3562448    0.1470324  32.91  0.002144877    1.701    0.412
        31 -11.3412    250.5297    243.9393   1.0758439937e+02  -4.3321242128e+00    0.4051661    0.1887062 -29.64  0.001751623    2.652    0.623
        32 -12.3039    226.3577    245.6790   1.1145061577e+02  -1.2299273775e+00    0.4839669    0.2556326  12.17  0.003013278    2.187    0.543
        33  -9.4101    168.6270    250.7091   1.2106043458e+02   6.2997150583e+00    0.1049873   0.06395132  23.68 0.0007023024    1.725    0.420
        34 -10.0944    127.8976    249.6528   1.2742781916e+02   1.1954391269e+01    0.1399999    0.1330377  29.43 0.0009782951    1.366    0.268
        35  -9.7930     72.8365    250.1003   1.3608569729e+02   1.8697490754e+01    0.1217083    0.1106917  18.28  0.001111907    1.723    0.420
        36 -11.9190     34.9356    241.5509   1.4140158445e+02   2.3916062349e+01    0.4097526    0.2106941  44.31  0.003190923    1.503    0.335
        37 -12.6246     19.4203    247.9612   1.4391995527e+02   2.4474644016e+01    0.6615166    0.1085433  50.00  0.003735295    2.975    0.664
        38 -11.7569     27.7917    245.9365   1.4263681138e+02   2.3980213130e+01    0.3506635    0.1485637 -84.08  0.002533945    2.374    0.579
        39 -10.4161     31.8224    237.3090   1.4169094846e+02   2.4836175884e+01    0.2256773    0.1149386  68.40  0.001009907    1.570    0.363
        40 -10.4245     29.0504    233.0099   1.4193247635e+02   2.5739441196e+01     0.429039   0.07817403  40.82  0.002267705    3.209    0.688
        41 -10.6058     11.0214    250.4279   1.4518495651e+02   2.4882658440e+01    0.2448105   0.08462831  37.42  0.001670099    2.440    0.590
        42 -10.8511    115.9948    226.8952   1.2729579942e+02   1.6526396973e+01    0.2833434    0.1065597 -60.04  0.001505455    3.472    0.712
        43  -9.8148     86.1673    233.4810   1.3285740407e+02   1.9439080292e+01    0.1803018   0.09752613  76.59  0.001142447    2.281    0.562
        44 -10.2638    190.5142    226.5058   1.1461368604e+02   5.7756534767e+00    0.1804278     0.144449  -4.94 0.0007294626    1.416    0.294
        45 -10.3762    129.8999    226.7571   1.2490514303e+02   1.4624758327e+01    0.3012088    0.1243703  51.35  0.001598844    2.252    0.556
        46 -10.2715     88.1192    227.1432   1.3204673802e+02   2.0119244536e+01     0.147989    0.1252645  43.37  0.001225235    1.280    0.219
        47 -10.4516     66.4343    226.4179   1.3561327077e+02   2.2814143209e+01    0.2157669    0.1186459  44.80 0.0009371614    1.427    0.299
        48  -9.5274      6.6685    227.3045   1.4512460989e+02   2.8622656042e+01   0.09857522   0.04173346  60.60  0.000493037    1.658    0.397
        49 -10.3478     81.3742    224.6340   1.3298896921e+02   2.1321734166e+01    0.1886486    0.1302698  74.31 0.0009417725    1.380    0.276
        50 -10.8158     13.1147    222.1380   1.4396683171e+02   2.8861079341e+01    0.1495425    0.1202892  70.66 0.0004062896    1.243    0.196
        51 -11.3927    141.4286    221.3866   1.2233463569e+02   1.3701570540e+01    0.3303428    0.2146778  15.63   0.00196978    2.291    0.564
        52 -10.9542    123.3749    221.5144   1.2548901271e+02   1.6266111245e+01    0.2185472     0.167659  47.44 0.0009628223    1.013    0.013
        53  -9.1960     51.5041    222.5370   1.3783574825e+02   2.5062065322e+01   0.09866115   0.07305645  61.60 7.249101e-05    1.029    0.028
        54 -10.3091    174.0211    219.9623   1.1652998231e+02   9.0188804825e+00    0.1781997    0.1345682  36.48 0.0006394284    1.027    0.027
        55  -9.2575     21.7279    220.3203   1.4254492060e+02   2.8371947824e+01   0.09862024   0.04781997  64.04 0.0003242791    1.568    0.362
        56  -9.6049    250.2805    219.0558   1.0395777101e+02  -2.2560356969e+00    0.1515024    0.1092889  11.50 0.0006574249    1.105    0.095
        57 -10.9297    192.5732    216.6221   1.1291613588e+02   6.5757648201e+00    0.3424001    0.1874921  20.01  0.001877364    2.176    0.540
        58  -9.6175     49.8806    218.3715   1.3785874536e+02   2.5888729409e+01    0.1298594   0.08367372  32.87 0.0007567485    1.763    0.433
        59 -10.7675     10.1821    217.1048   1.4424519957e+02   2.9906240528e+01    0.2093969    0.1256545  57.74 0.0008694339    1.193    0.162
        60  -9.3204     37.5658    217.4726   1.3985109075e+02   2.7303287163e+01   0.09697896   0.07134849  65.24 0.0001142901    1.032    0.031
        61 -10.1024     24.7489    217.0114   1.4191945150e+02   2.8615921421e+01    0.1870151    0.0812742  52.75  0.001289545    1.670    0.401
        62 -10.2402    234.8093    216.6124   1.0598657997e+02   1.9460029521e-01     0.155358   0.08758137  44.13 0.0009474572    1.759    0.432
        63 -10.5387    201.5929    215.9664   1.1130400644e+02   5.2640093013e+00     0.217639    0.1322349  31.50  0.001387294    1.295    0.228
        64  -9.1829    179.6790    215.6975   1.1498873476e+02   8.6712936574e+00    0.1146099    0.0753587  18.95 0.0005784369    1.630    0.386
        65  -9.5293    137.2053    215.6187   1.2241546751e+02   1.5112510983e+01    0.1625392   0.08785182  34.47 0.0009446202    1.688    0.408
        66 -10.4031    208.9800    212.1464   1.0950474021e+02   4.5469344325e+00    0.1789934    0.1446897  12.52 0.0004845074    1.148    0.129
        67 -10.2115    170.2100    213.1683   1.1628908273e+02   1.0448866130e+01    0.1527445     0.120437  52.02 0.0009787985    1.325    0.245
        68  -9.7136    142.7943    213.4020   1.2116190379e+02   1.4595210566e+01    0.1579628   0.08934571  34.18   0.00047562    1.599    0.374
        69 -10.8945     20.6420    211.5925   1.4234961652e+02   2.9866954099e+01    0.2483926    0.1135653  66.37 0.0008891275    1.756    0.431
        70  -9.3540    213.0147    212.0301   1.0881609698e+02   3.9377019008e+00    0.1382617    0.1051204  23.88 0.0005031316    1.020    0.020
        71 -11.9445      4.4063    207.4014   1.4482582427e+02   3.1955431879e+01    0.3516388    0.1957107  76.04  0.002777949    1.360    0.265
        72  -9.5526    218.0252    207.7586   1.0732659669e+02   3.6216745276e+00    0.2922022    0.1371534  -5.61  0.001100227    5.126    0.805
        73  -9.4156    238.5164    201.4447   1.0296327864e+02   1.1194408687e+00    0.1196913   0.08559605  18.75 0.0001483113    1.061    0.058
        74  -9.9583    222.9413    200.9536   1.0542174020e+02   3.5854694933e+00    0.2352097    0.1827613  85.74  0.001234392    3.600    0.722
        75 -10.0508    218.4203    201.4892   1.0626169959e+02   4.2397971401e+00    0.1189602   0.09063599  21.46 0.0001262518    1.021    0.020
        76 -10.3321    210.7917    201.2161   1.0750289263e+02   5.4818672041e+00    0.1700043    0.1319984  78.43 0.0009568739    2.808    0.644
        77  -9.1146     34.6600    200.7437   1.3943425438e+02   3.0348796017e+01   0.07929952   0.07852525 -46.13 0.0002506323    1.580    0.367
        78 -10.1856    227.0703    196.8697   1.0406104834e+02   3.3746703680e+00    0.2054556    0.1461629   7.78 0.0005917479    1.270    0.212
        79 -11.6574    192.2649    195.0042   1.0972675848e+02   9.2369183602e+00    0.2973401    0.2566799 -61.70  0.002008018    1.742    0.426
        80  -9.6854    202.9010    196.0863   1.0803210998e+02   7.3576908622e+00    0.1722521    0.1465814  33.62 0.0006594869    1.200    0.166
        81  -9.5304      7.0000    195.9677   1.4397639529e+02   3.3657347690e+01    0.1451295   0.04424728 -81.31 0.0005243826    2.873    0.652
        82 -11.2762    215.4311    194.2820   1.0557940192e+02   5.5290995207e+00     0.276274    0.1622098 -28.60  0.001628216    1.895    0.472
        83 -10.9729    232.5011    191.4293   1.0223681785e+02   3.0982408740e+00    0.3291315    0.1754497  17.12  0.001732127    2.028    0.507
        84 -11.3971    187.5765    189.3223   1.0965225500e+02   1.0754127710e+01    0.2918642    0.1509876 -28.21  0.001489126    2.420    0.587
        85  -9.7942    250.4704    190.0038   9.9096319666e+01   4.3034208636e-01    0.1613214    0.1021451 -18.35  0.000489633    1.552    0.356
        86  -9.4294    205.5901    190.2431   1.0659893332e+02   7.6248934919e+00      0.15198    0.1071665  -9.92 0.0005578534    1.540    0.351
        87 -10.0129    163.0000    191.4882   1.1451600079e+02   1.4544485674e+01    0.2343939    0.0704069 -44.63  0.000939905    3.977    0.749
        88 -10.5050    218.3541    186.9976   1.0383665925e+02   5.8955622776e+00    0.2494252    0.1103361 -31.41  0.001242228    2.487    0.598
        89 -11.7512     16.2822    183.3460   1.4178046549e+02   3.5096418730e+01    0.3526015    0.1617667  83.12  0.002196896    1.928    0.481
        90 -10.5131    168.0366    184.0881   1.1242484728e+02   1.4781416211e+01    0.4119374    0.2278545  62.77  0.001764256    3.286    0.696
        91  -8.9317     62.0000    185.0052   1.3327807728e+02   3.0199344840e+01    0.1675568   0.05723012 -69.31 0.0008056564    2.965    0.663
        92 -11.2092    248.4435    182.7366   9.8109236126e+01   1.4845269719e+00    0.4055206    0.1463842  31.95  0.001803316    2.648    0.622
        93  -9.9135    236.2268    182.3863   1.0001889962e+02   3.4816885035e+00    0.1607024    0.1025658  43.85 0.0008792878    1.606    0.377
        94 -10.1451     22.8029    180.7994   1.4044214682e+02   3.4987178237e+01     0.157812   0.09516111 -43.10   0.00096625    2.921    0.658
        95 -10.5254      2.2216    180.2107   1.4418002617e+02   3.6802924484e+01    0.1919501    0.1064491  61.38 0.0005177399    1.385    0.278
        96 -11.9176    244.7753    177.6844   9.7763534424e+01   2.6045728276e+00    0.2808264     0.175337  -2.24  0.001649704    1.556    0.357
        97  -9.3090     36.0735    178.5028   1.3778272935e+02   3.4165617036e+01    0.1428165   0.09082439  43.15 0.0007015456    1.481    0.325
        98 -10.7988    200.0313    176.6680   1.0523136069e+02   1.0300959818e+01    0.2265359    0.1577296   6.31 0.0007773215    1.565    0.361
        99  -9.3839     70.2017    177.6035   1.3097731339e+02   3.0580337721e+01    0.1364958    0.1019518  33.49 0.0004469233    1.499    0.333
       100 -11.4601    224.3432    178.3550   1.0126987045e+02   5.9106665290e+00    0.2782499    0.2065508  25.50 0.0005591928    1.098    0.090
       101  -9.8673    183.4821    173.0197   1.0763847165e+02   1.3716205406e+01    0.1742949    0.1059529  -8.30 0.0008100021    2.516    0.603
       102  -9.6223     59.6239    171.7719   1.3256004171e+02   3.2928544015e+01    0.1555845   0.09332483 -87.24 0.0009451217    1.657    0.396
       103  -9.6846     74.4972    171.4901   1.2947297105e+02   3.1192997153e+01    0.1147153   0.09796997  70.03  4.71526e-05    1.024    0.024
       104 -10.4572    196.5330    169.4735   1.0455914400e+02   1.1892767349e+01    0.1304029    0.1093134  22.79 8.283967e-05    1.001    0.001
       105  -9.7501      4.5112    168.0095   1.4322301796e+02   3.8870008081e+01    0.1561434   0.07882217 -84.68  0.001040685    1.614    0.380
       106  -9.7078    210.0049    166.2915   1.0150991478e+02   9.9093723770e+00    0.1858192    0.1456763  25.35 0.0005994151    1.076    0.071
       107  -9.1790     21.6652    166.6711   1.3981728976e+02   3.7730417803e+01   0.09661441   0.07390286 -52.83 -0.0001460841    1.725    0.420
       108 -10.6921     51.7549    164.4908   1.3350899533e+02   3.5212714266e+01    0.3098191    0.1738871 -40.53  0.001605607    3.102    0.678
       109 -10.4621     40.9995    165.0560   1.3579166665e+02   3.6230035569e+01    0.1803441    0.1013441  67.24 0.0005060777    1.646    0.393
       110 -10.1959     10.0001    165.2638   1.4202883782e+02   3.8964899162e+01    0.1396905    0.1051774  71.35 0.0003133177    1.064    0.060
       111  -9.1119    229.5071    164.5321   9.7769500581e+01   6.6776379722e+00    0.1312512    0.1030575  14.62 0.0001060131    1.042    0.040
       112 -10.5566     36.2899    161.4167   1.3647254772e+02   3.7407071964e+01    0.3468088      0.12252 -69.81  0.001774327    2.484    0.597
       113 -10.1628    238.4991    158.5034   9.5064497355e+01   5.8292343383e+00    0.1325817    0.1023632  12.06 -9.275099e-05    1.063    0.060
       114 -11.4063    247.9250    158.9258   9.3618714516e+01   4.1550343814e+00    0.3808351    0.2360371 -19.35  0.002180147    1.517    0.341
       115  -9.9293      8.0378    158.4334   1.4204986531e+02   4.0428693096e+01     0.130683    0.0938355  39.70 0.0005048656    1.522    0.343
       116 -10.9598     22.0714    156.2286   1.3904598895e+02   3.9727980669e+01    0.2953205     0.230544  52.84  0.002276047    1.269    0.212
       117 -10.6995    178.3111    152.0524   1.0470051569e+02   1.7830783869e+01    0.4156672    0.2587055 -45.76   0.00209629    1.872    0.466
       118  -9.3125    235.6632    154.6922   9.4758774065e+01   6.7866259553e+00    0.1384483   0.08468649  14.81 0.0006697501    1.678    0.404
       119  -9.5192    217.0010    155.0000   9.8028680046e+01   1.0130213821e+01    0.2198587   0.06810666  45.53 0.0008110095    3.002    0.667
       120 -10.0036    205.2699    152.2981   9.9593057963e+01   1.2685480636e+01    0.2327636     0.160082 -22.53  0.001265232    1.496    0.331
       121  -9.8765    197.2133    153.6092   1.0135900614e+02   1.4017285483e+01    0.1980469    0.1108772  34.66 0.0009519775    1.664    0.399
       122  -9.2801    151.6727    153.3320   1.1039465897e+02   2.2573561571e+01    0.1328324    0.1039947  77.31 0.0007051463    1.713    0.416
       123  -9.7896     13.3546    153.3128   1.4066699255e+02   4.1020716248e+01    0.1616401   0.09502176 -45.80 0.0007282168    2.473    0.596
       124 -10.1807     10.3545    152.7033   1.4125178891e+02   4.1373801601e+01    0.1705767   0.05685642  41.37 0.0007690768    2.562    0.610
       125  -9.3775     92.9794    148.0085   1.2245566684e+02   3.3290356216e+01     0.153194    0.1382633  69.74 0.0009135452    1.017    0.016
       126  -9.4134    233.5247    147.0083   9.3513585772e+01   8.1218966617e+00    0.1947093    0.1193246 -22.77  0.001026227    1.576    0.365
       127 -10.5590    207.1035    145.9333   9.7928182022e+01   1.3236163040e+01     0.275636    0.1754713  37.33 0.0007316619    1.432    0.302
       128  -9.7484    215.6632    145.6666   9.6320934449e+01   1.1636389788e+01    0.1456409   0.09278542  13.54 0.0007052032    1.741    0.426
       129 -11.0924      7.6566    145.1143   1.4136145191e+02   4.3088181900e+01    0.1804392    0.1190356  55.12 0.0007632158    1.384    0.278
       130 -11.0654      4.3302    142.1090   1.4189413325e+02   4.3930258200e+01     0.273484    0.1516327 -62.74  0.001803251    1.780    0.438
       131 -11.6699      3.5974    136.3109   1.4170396965e+02   4.5158953309e+01    0.4579178    0.1891576 -57.92  0.002047585    2.487    0.598
       132 -11.8324      9.0788    136.7807   1.4051490894e+02   4.4681521912e+01    0.1961234    0.1811893  74.83 0.0002488126    1.283    0.220
       133  -9.9838     37.5238    142.3029   1.3452702028e+02   4.1156432265e+01    0.1845013   0.09880667  33.48  0.001071631    2.021    0.505
       134 -10.1920    212.4149    141.6059   9.6031575159e+01   1.2821818781e+01    0.3769732    0.1763086  29.74  0.001530139    2.482    0.597
       135  -9.6757    230.6550    141.6852   9.2855998283e+01   9.3307168419e+00    0.1442688   0.08974261  14.75 5.993506e-05    1.715    0.417
       136 -10.7044    236.1190    138.6583   9.1281031338e+01   8.6944274693e+00    0.2304961    0.2018201 -14.09 0.0005581219    1.213    0.176
       137 -11.2500     57.6908    138.6059   1.2941646610e+02   3.9817537766e+01    0.2923619    0.1787411  66.61 0.0005672433    1.714    0.416
       138 -10.1947     21.9368    136.1599   1.3755040979e+02   4.3824487921e+01    0.1783326    0.1212603  70.52  0.001013319    1.295    0.228
       139  -9.9411    138.3291    135.2633   1.0979814667e+02   2.8296983160e+01    0.2573873    0.1608433  32.38 0.0008128005    1.714    0.417
       140  -9.9939     79.9855    133.3124   1.2329438839e+02   3.8154564822e+01    0.1720672    0.1550686  64.06 0.0004129355    1.086    0.079
       141 -12.1607     36.5957    130.9375   1.3359495395e+02   4.3643783783e+01    0.3396642    0.2566531 -76.17  0.001583785    1.146    0.127
       142  -9.7270     29.0165    130.7235   1.3539825360e+02   4.4374734091e+01    0.1493984    0.1282631  84.61            0    1.092    0.084
       143 -10.0307     74.0229    129.3642   1.2415578666e+02   3.9791608338e+01    0.2066605     0.162467 -57.48 0.0006840896    1.264    0.209
       144  -9.9118    126.5089    129.4866   1.1135231314e+02   3.1568458934e+01    0.1347228    0.1310427  50.64 0.0002314892    1.006    0.006
       145  -9.4234    243.0217    128.4671   8.7886159351e+01   8.6793756138e+00    0.1864686    0.1244112  42.09 0.0004882865    1.504    0.335
       146  -9.5060     60.0637    128.5270   1.2751919222e+02   4.1697862242e+01    0.1630829     0.116673  41.14 0.0004040424    1.464    0.317
       147 -10.4466    219.5251    124.5589   9.0918852481e+01   1.3804115071e+01     0.242062    0.2088249   5.86 0.0005270767    1.009    0.009
       148 -10.4523    249.6578    130.2433   8.7240306094e+01   7.2202713944e+00    0.2210714    0.1989381 -16.48  0.001302925    1.276    0.216
       149  -9.2659     82.3210    124.3381   1.2124703244e+02   3.9749141181e+01    0.1287119   0.09888412 -29.07 0.0006067367    1.713    0.416
       150 -11.6510     10.8124    122.2806   1.3903863620e+02   4.7597613330e+01    0.4117886    0.2789931 -25.94  0.002657611    2.313    0.568
       151 -10.0103     10.6459    102.3040   1.3728458961e+02   5.1942178966e+01    0.2194122    0.1518781  66.80  0.001480016    1.422    0.297
       152 -10.9479     17.7528    116.0241   1.3675968718e+02   4.8447681093e+01    0.2692594    0.1906282  87.71  0.001194767    1.175    0.149
       153 -10.2842     20.1596    112.8179   1.3581926013e+02   4.8967662890e+01    0.1803619    0.1509201 -45.65 0.0008381953    1.439    0.305
       154 -12.1462     16.7450    108.6338   1.3628639250e+02   5.0136474800e+01    0.3459807    0.2876533  75.77 0.0005203929    1.160    0.138
       155  -9.3589     20.5456    121.5480   1.3658472695e+02   4.7039923906e+01    0.1139591    0.0902542 -87.50 0.0001314476    1.008    0.008
       156  -9.5816    221.5355    119.9971   8.9493004694e+01   1.4032836883e+01    0.2110682    0.1297099 -24.87 0.0006726402    1.563    0.360
       157  -9.4963     54.6888    117.6703   1.2734704396e+02   4.4683812344e+01    0.1228132   0.08799158 -41.06 0.0007042385    1.669    0.401
       158 -10.1033    179.3098    116.2372   9.6576442406e+01   2.3500563940e+01    0.2441985    0.1844742  32.96  0.000577435    1.287    0.223
       159  -9.9749    100.6633    116.3200   1.1503331140e+02   3.8701932800e+01    0.1406249    0.1035105  78.50 0.0007049765    1.707    0.414
       160  -9.1834     86.2957    116.6281   1.1883299246e+02   4.0847634420e+01    0.1383614    0.0981148  82.09 0.0007027412    1.734    0.423
       161 -11.3402     36.0582    110.9101   1.3137736944e+02   4.8068049719e+01    0.4954026    0.2415087 -69.75  0.001835922    1.716    0.417
       162 -10.1735     66.8023    113.0430   1.2337892085e+02   4.4278946012e+01    0.1846864    0.1518082  89.54 0.0002581367    1.184    0.155
       163  -9.5415      5.5459    113.5026   1.3963163963e+02   4.9824750161e+01    0.1767438   0.07951164  42.52  0.001017655    2.264    0.558
       164  -8.9234    212.6933    112.3238   8.9190131846e+01   1.6970768492e+01    0.1362974    0.1143102 -61.29  0.000433138    1.645    0.392
       165  -9.7681    106.9361    110.6978   1.1221364002e+02   3.8852687377e+01    0.1880715    0.1744751  52.50 0.0003615444    1.098    0.090
       166  -9.8434     42.4952    110.4897   1.2957757279e+02   4.7553807401e+01    0.1222906    0.1025525 -80.25 3.565855e-05    1.001    0.001
       167  -9.5737    167.4712    109.0171   9.7279537368e+01   2.7281217685e+01    0.2200061    0.1436189 -35.03 0.0005565453    1.543    0.352
       168 -10.2304    242.0312    108.1959   8.3291441621e+01   1.1450973119e+01    0.2001381    0.1662933 -80.16 0.0007560509    1.930    0.482
       169  -9.3583    133.3811    107.7642   1.0483572956e+02   3.4586989735e+01    0.2073766    0.1332739 -33.55 0.0009443425    1.690    0.408
       170 -11.9082     62.1971    106.5655   1.2351921886e+02   4.6286798926e+01    0.4185259    0.1847711 -55.74 0.0008542552    1.995    0.499
       171 -11.1273     23.0996    107.0567   1.3440969350e+02   5.0013203955e+01    0.2130796    0.1525387 -77.01 0.0004324739    1.125    0.111
       172  -9.0870     49.6230    107.3222   1.2714875218e+02   4.7537223516e+01    0.1329163   0.08436018  70.64 4.543608e-05    1.823    0.451
       173 -10.3930      6.3843    106.2045   1.3879615003e+02   5.1353678431e+01    0.2409499    0.1317574 -74.81 0.0008017956    1.413    0.292
       174 -10.7802      2.8283    105.1582   1.3964239352e+02   5.1792477684e+01    0.2498669    0.1541926  78.98 0.0004565331    1.431    0.301
       175  -9.1702    126.5907    106.5396   1.0621934512e+02   3.6150766239e+01    0.1400847    0.1370922 -42.65 6.258569e-05    1.019    0.019
       176  -9.8721    223.3221    103.9901   8.5268882265e+01   1.5895745857e+01    0.2036445    0.1683537 -16.61 0.0005251862    1.121    0.108
       177  -9.3672     93.3385    104.2674   1.1442337247e+02   4.2465196375e+01    0.1321621    0.1068527 -13.43 0.0004305653    1.596    0.374
       178 -11.1309     70.4931    102.4693   1.2042243794e+02   4.6162056329e+01    0.3574078    0.2633989  11.40   0.00126172    1.866    0.464
       179 -10.6948    247.8064    102.1812   8.0955339786e+01   1.1056053092e+01    0.1986089    0.1453037   9.95 0.0008119785    1.329    0.248
       180  -9.8987    119.8802    101.4529   1.0667828920e+02   3.8461612107e+01    0.2706039    0.1863845  -9.90  0.001172793    2.266    0.559
       181  -9.6984     91.6231    101.1878   1.1421184408e+02   4.3405285092e+01    0.1943633    0.1182187 -45.09  0.000394915    1.623    0.384
       182 -10.0491     36.4851    101.4975   1.2996708789e+02   5.0135716873e+01    0.2285114    0.1186204  30.09  0.001225785    2.229    0.551
       183 -10.3604     27.6899    100.9142   1.3238410282e+02   5.1020368986e+01    0.1836335    0.1564401  60.28 0.0001729309    1.264    0.209
       184 -10.8075      3.8848    100.4536   1.3894791148e+02   5.2758090700e+01    0.2741416    0.1947289  72.89  0.001308974    1.315    0.240
       185 -10.5045     50.4373     99.2908   1.2560179798e+02   4.9259060437e+01    0.2113279    0.1773038 -87.79 0.0003681076    1.131    0.116
       186 -10.5387     20.5012     96.9832   1.3393094889e+02   5.2452843447e+01    0.4087357    0.1078886 -77.28  0.001438459    4.068    0.754
       187 -10.7462     62.2056     98.5732   1.2204906168e+02   4.8080544184e+01    0.2533992    0.1316744  31.85  0.001231068    2.200    0.546
       188  -9.7900     92.8376     95.8406   1.1263773862e+02   4.4377090179e+01    0.2130323    0.1809004 -33.62 0.0008040676    1.240    0.194
       189 -10.3587     38.6902     96.1272   1.2851593934e+02   5.1145990635e+01    0.1908834    0.1563848  61.33 0.0003719963    1.308    0.236
       190 -11.0459      8.3530     94.8800   1.3716072440e+02   5.3725124702e+01    0.2170561    0.1675888 -68.02 0.0003237647    1.149    0.130
       191 -10.8853     10.6944     91.3525   1.3609914274e+02   5.4367797943e+01    0.2475453    0.1792218   6.69   0.00146584    1.919    0.479
       192 -10.7017      7.1087     88.8420   1.3686916211e+02   5.5139329999e+01    0.1774402    0.1389041  82.37 0.0003127426    1.190    0.160
       193 -10.4206      1.4873     94.0660   1.3902125508e+02   5.4292371736e+01    0.2416358   0.07478108 -70.39  0.001161846    2.291    0.563
       194 -10.4816    109.4263     92.9128   1.0729225497e+02   4.2167980706e+01    0.3592966    0.1323415 -45.44  0.001167952    2.607    0.616
       195  -9.8167    227.0574     93.3266   8.1931848252e+01   1.6563372629e+01    0.1948432    0.1757811  27.80 0.0004058699    1.132    0.117
       196 -10.1911     57.6546     92.7018   1.2225494387e+02   4.9945791370e+01    0.1297851   0.09224087 -33.63 0.0007035423    1.676    0.403
       197  -9.3476    171.3317     91.3071   9.1736535481e+01   2.9508896125e+01    0.1591568    0.1143614  14.36 0.0007039761    1.664    0.399
       198 -10.5228     96.5162     90.3507   1.1024500628e+02   4.4963116162e+01    0.3209528     0.213842  -5.20  0.001352079    2.663    0.624
       199  -9.2758     77.6699     89.7056   1.1559990009e+02   4.8027645733e+01    0.1347813    0.1016996 -24.61 0.0007024215    1.633    0.387
       200  -9.3967     73.0465     88.7522   1.1676763304e+02   4.8887114423e+01    0.1520588     0.115347  38.42 0.0002730516    1.456    0.313
       201  -9.9827     49.4490     87.9966   1.2383995563e+02   5.1923724576e+01    0.3276965    0.1154455 -67.22  0.001272633    2.835    0.647
       202 -10.6336     46.2650     82.9867   1.2385731566e+02   5.3392899468e+01    0.4870448    0.1914636 -63.55  0.002143075    2.184    0.542
       203 -10.6778    113.1825     86.8041   1.0463166929e+02   4.2743786938e+01    0.2961787    0.1992333  54.90 0.0008502568    1.714    0.416
       204  -9.9246      3.1926     85.8898   1.3770845720e+02   5.6010041705e+01    0.2453948    0.1544661  18.63   0.00160649    2.091    0.522
       205 -11.2379    118.3916     82.9578   1.0212958829e+02   4.2524291726e+01    0.3711059    0.3037052 -10.28  0.001541123    1.393    0.282
       206 -12.5908     72.1283     78.8380   1.1466248936e+02   5.1218548765e+01    0.4518494    0.3554795 -35.93 0.0005370428    1.295    0.228
       207 -11.1056     77.8094     71.9552   1.1101102692e+02   5.1909341225e+01    0.2874817    0.2585405  69.10 0.0003645455    1.296    0.228
       208 -11.0556     85.2357     81.0938   1.1117522845e+02   4.8790919043e+01    0.3626559    0.2057325 -52.09  0.001152678    1.621    0.383
       209 -11.2837     23.5256     78.9560   1.3044901356e+02   5.6300637053e+01    0.4098716    0.2516936 -75.97  0.001990982    1.391    0.281
       210 -11.3449     19.9494     82.0135   1.3206625580e+02   5.5863491841e+01    0.2846974    0.1662055 -81.25 0.0003127079    1.527    0.345
       211 -10.8054     15.5853     81.5150   1.3337058139e+02   5.6268140152e+01    0.3657348    0.1736073 -50.85  0.001853562    1.925    0.480
       212  -9.7816    126.0403     80.4898   9.9365655342e+01   4.1473691522e+01     0.209583    0.1474964  45.08 -2.872657e-05    1.468    0.319
       213 -10.1117      2.3978     71.8152   1.3631593379e+02   5.9186503906e+01    0.2182718    0.1633919 -62.49  0.001551955    1.148    0.129
       214 -11.8052      3.1976     77.4348   1.3675052811e+02   5.7892597187e+01    0.3935243    0.2948289  56.09  0.001697435    1.507    0.336
       215 -11.5064      6.7823     73.7980   1.3513778762e+02   5.8521225380e+01    0.3643999    0.2218902   5.70  0.002257864    2.300    0.565
       216 -11.2527    150.9445     78.5061   9.2573571589e+01   3.6419534458e+01    0.2938326    0.2511281 -51.33  0.000410788    1.284    0.221
       217 -11.1874    108.2366     75.7735   1.0285704135e+02   4.5941491521e+01    0.3554696    0.2594355 -16.93 0.0004551949    1.670    0.401
       218 -10.2687     54.6834     72.2919   1.1873677415e+02   5.4894869151e+01    0.2267788    0.1768822  89.11 0.0002569505    1.516    0.340
       219 -11.2963     58.4910     75.4901   1.1824190916e+02   5.3729758917e+01    0.4195712    0.2503852 -84.00  0.001868645    2.554    0.608
       220 -12.1409     62.4742     72.7252   1.1623815813e+02   5.3855592361e+01    0.5173435    0.3226885 -49.99  0.002152855    1.392    0.282
       221  -9.9593    121.5935     76.2037   9.9269349717e+01   4.3227413115e+01    0.2150065    0.1368063 -30.64 0.0007934406    1.646    0.392
       222 -10.9861     40.2580     72.8756   1.2375358018e+02   5.6278647223e+01    0.2889539    0.2167674 -81.86 0.0006059853    1.359    0.264
       223 -10.8736     36.9333     67.5229   1.2374388462e+02   5.7796898607e+01     0.408452    0.2161332 -59.19  0.001600923    1.515    0.340
       224 -10.8585    152.4290     72.0494   9.0248257081e+01   3.7218459503e+01    0.3000021    0.2073066  33.48 0.0008778782    1.542    0.352
       225 -10.4863    116.0262     71.3616   9.9305704379e+01   4.5306468245e+01    0.3110618    0.2064828 -39.80 0.0005775641    1.433    0.302
       226 -10.0300    145.2744     71.6503   9.1808023570e+01   3.8940348135e+01    0.1528866    0.1196098 -63.96 0.0007002237    1.634    0.388
       227 -10.8825     49.0172     70.9370   1.2033449571e+02   5.5830333245e+01    0.2869304     0.184814  33.03  0.001596345    1.805    0.446
       228 -10.2452     50.7274     67.6640   1.1895140446e+02   5.6377330802e+01     0.253011    0.1655745 -40.61 0.0006979267    1.483    0.326
       229 -11.1900     26.0009     69.0941   1.2788741369e+02   5.8351162839e+01    0.3793051    0.2476917  88.08  0.001874621    1.713    0.416
       230 -11.1314     21.3277     65.8800   1.2891816746e+02   5.9417338774e+01    0.2564393    0.1836739  24.61  0.001332261    1.740    0.425
       231 -11.0774     68.8633     67.1898   1.1261253330e+02   5.4229266144e+01    0.4340185    0.2247639 -43.53   0.00112878    1.778    0.438
       232  -9.6450     71.5870     61.5537   1.1003415859e+02   5.5059317444e+01    0.1879093    0.1585649 -78.59 -7.76906e-06    1.422    0.297
       233 -10.4459     70.2588     58.5592   1.0956706309e+02   5.5886397109e+01    0.2771451    0.1785981 -41.03 0.0008423051    1.398    0.284
       234 -10.2544    160.2677     69.4414   8.7665074628e+01   3.5814547963e+01    0.2149815    0.1533407  64.98 0.0009590246    1.674    0.403
       235 -11.5946    130.2823     65.4928   9.3576283862e+01   4.3419390710e+01    0.6650937    0.2713232 -39.62  0.002403353    2.353    0.575
       236 -11.0507     94.9612     66.6938   1.0402478416e+02   5.0227059576e+01    0.4937613    0.2777139 -42.40  0.002231574    1.643    0.391
       237 -10.7752     42.9003     65.7708   1.2123590197e+02   5.7623519444e+01    0.3441505    0.2464011 -73.95  0.001710696    1.398    0.285
       238 -11.2418     31.1361     66.2525   1.2551692148e+02   5.8586469911e+01    0.2827703    0.2032814 -70.66 0.0004531197    1.218    0.179
       239 -10.1228      6.7104     67.8897   1.3433809494e+02   5.9849980954e+01    0.1724041    0.1396242 -46.18 0.0008397918    1.301    0.231
       240 -10.0607    156.3016     66.3300   8.7559876827e+01   3.7282176345e+01    0.1611123    0.1170067  12.47 0.0006296756    1.648    0.393
       241  -9.9908    119.0877     65.6546   9.6629426551e+01   4.5784662850e+01     0.283411    0.2038991  24.26  0.001124657    1.612    0.380
       242 -10.9587    122.6393     61.6949   9.4342751752e+01   4.5776781361e+01    0.3802763    0.2429911   5.97  0.001479129    2.530    0.605
       243 -11.2483      2.3194     63.3904   1.3520754660e+02   6.1071744907e+01    0.4603786    0.2086197 -80.27  0.002449785    1.894    0.472
       244 -10.1402    138.4982     65.4992   9.1490977864e+01   4.1581273497e+01     0.152115    0.1454098 -17.33 0.0008103279    1.042    0.041
       245 -10.7519    106.0763     64.4160   9.9938623476e+01   4.8633003512e+01    0.3329982    0.1839437 -45.49  0.001439143    1.744    0.427
       246 -11.2222     83.6998     62.7628   1.0636137741e+02   5.2947161371e+01    0.4343663     0.320676 -66.17  0.001285151    1.629    0.386
       247 -10.4991     86.1649     58.1615   1.0406501454e+02   5.3486113297e+01    0.3093721    0.1986267 -41.52 0.0007618634    1.410    0.291
       248 -10.6262     76.7046     65.2289   1.0942179958e+02   5.3521137021e+01    0.3107265    0.1784456  52.90  0.001396819    2.331    0.571
       249 -10.6891    174.1555     63.6865   8.2943772622e+01   3.3368642655e+01    0.3376068     0.253372 -50.41  0.001477249    1.520    0.342
       250 -10.1430    141.9395     63.6591   9.0041973158e+01   4.1116475935e+01    0.2078084    0.1893068  42.86 0.0002484075    1.134    0.118
       251 -10.3595     51.6991     62.4852   1.1727115471e+02   5.7419240260e+01     0.254674    0.1886283 -41.77 0.0008479213    1.236    0.191
       252 -11.4953     10.8776     62.6064   1.3205603357e+02   6.0810823687e+01    0.2185619    0.1754751 -67.98 0.0003895622    1.044    0.042
       253  -9.4283     56.4326     62.4373   1.1557392619e+02   5.6875940243e+01    0.1322666    0.1129196 -50.10 3.948082e-05    1.007    0.007
       254 -11.0132     57.6296     58.8936   1.1413946306e+02   5.7503232878e+01    0.3181832    0.2209613 -44.37  0.001236749    1.252    0.202
       255 -11.2785     26.9954     61.3896   1.2597734538e+02   6.0013053267e+01    0.3283179    0.2127299   9.56  0.001933397    2.046    0.511
       256 -10.3647     33.1368     60.0662   1.2342048002e+02   5.9808167675e+01    0.3161352    0.2038014 -23.65  0.001641293    1.944    0.486
       257  -9.6476     93.0388     61.2262   1.0286972514e+02   5.1679499475e+01    0.1957477    0.1801541 -25.22 0.0004387873    1.027    0.026
       258 -10.1402     18.3849     59.7601   1.2880986232e+02   6.0993886897e+01     0.262599    0.1438768 -87.18  0.001116907    2.126    0.530
       259 -10.9971     64.4356     59.9406   1.1202704095e+02   5.6400059177e+01    0.2961833    0.1987118  40.25 0.0008438715    1.717    0.418
       260 -11.0323    114.0882     57.4447   9.5264758391e+01   4.8365616560e+01    0.4054993    0.2819345  51.74  0.001700482    1.592    0.372
       261 -10.0923      6.3026     58.6330   1.3305088980e+02   6.1943360805e+01    0.1173669   0.07611819  77.46  0.000703454    1.740    0.425
       262  -9.2510    170.3091     57.6439   8.1785400065e+01   3.5248277241e+01    0.1601824    0.1183344 -60.02 0.0003760221    1.728    0.421
       263 -10.5623    137.8356     54.8012   8.8046941100e+01   4.3585659409e+01    0.3553358    0.2312597 -17.88  0.001542065    1.695    0.410
       264 -11.3785    135.0980     49.8876   8.6988982970e+01   4.5040693525e+01     0.436115    0.3005717 -60.60  0.001880885    2.023    0.506
       265 -10.7717    122.7397     56.6016   9.2570530505e+01   4.6681443218e+01    0.3608415    0.2490741  89.83  0.001414577    2.806    0.644
       266  -9.6139     80.9594     57.0385   1.0541800145e+02   5.4572559391e+01    0.1665365    0.1482963 -35.13 0.0003962573    1.004    0.004
       267 -11.0252     98.5803     55.4004   9.9162143679e+01   5.1820114663e+01    0.4818517    0.3604437  52.69  0.001906324    1.561    0.359
       268 -12.4051    127.8657     52.0154   8.9589260334e+01   4.6347690421e+01    0.4427958    0.3180946 -24.73 0.0007315566    1.370    0.270
       269 -11.7040     38.4265     51.6540   1.1926972618e+02   6.1191124840e+01    0.5978759    0.3424425 -40.64  0.003213094    1.618    0.382
       270 -10.2126     44.7597     51.4401   1.1675505332e+02   6.0598926433e+01    0.2511573    0.1872136   3.74 0.0009781659    1.659    0.397
       271 -11.2686     46.1478     47.1055   1.1490036549e+02   6.1381327386e+01    0.2616918    0.1797655 -51.08 0.0002533766    1.212    0.175
       272 -11.6913      4.3118     52.9994   1.3284322675e+02   6.3295294054e+01    0.5230429    0.2204806 -37.35  0.002663195    2.604    0.616
       273 -11.1839     13.0053     49.9521   1.2887829078e+02   6.3516461716e+01     0.389498    0.1542254 -58.25  0.001870628    1.799    0.444
       274 -12.2164      9.4513     45.5436   1.2937732231e+02   6.4689964277e+01    0.4691608    0.3161248 -37.84  0.001559077    1.465    0.317
       275 -10.2809      6.9702     40.9630   1.2941911151e+02   6.5824665595e+01    0.2460618    0.1221749 -61.01 0.0008197715    1.458    0.314
       276 -10.6886     87.1341     52.6530   1.0186330822e+02   5.4423277408e+01    0.2052309    0.1794362  56.75  0.001153176    1.383    0.277
       277 -10.5210    114.6457     49.6156   9.2313444892e+01   4.9666219075e+01    0.3409142    0.2379688 -13.41  0.001482883    1.623    0.384
       278 -10.8710     73.1072     52.1311   1.0647180523e+02   5.6804571835e+01    0.3665957    0.2784829  67.84  0.001637467    1.941    0.485
       279  -9.7699     98.8720     44.1911   9.4970060254e+01   5.3855871409e+01    0.2041471    0.1843682   8.98 0.0005956953    1.101    0.092
       280 -11.1196    100.7879     48.3706   9.5949994445e+01   5.2721913036e+01    0.3432994    0.2966591 -33.09  0.001016593    1.091    0.083
       281  -9.1981    104.3137     46.3110   9.4104997646e+01   5.2395015491e+01    0.1503752    0.1102225   2.72  0.000442199    1.632    0.387
       282  -9.9375    157.8433     51.9650   8.2479729312e+01   3.9214467849e+01    0.2400943    0.1966784  15.15 0.0004625348    1.272    0.214
       283 -11.4691    143.2690     46.5794   8.3843009644e+01   4.3621704999e+01    0.4134245    0.3552335  29.06  0.001349381    1.151    0.131
       284 -11.0559    137.7296     43.7144   8.4107738019e+01   4.5401097027e+01    0.4000663    0.2932962 -75.92 0.0008340156    2.087    0.521
       285 -10.6922     51.6196     47.6608   1.1293821199e+02   6.0638638682e+01    0.4154334    0.1818436 -58.19  0.001781838    2.289    0.563
       286  -9.2917    217.4845     48.4272   7.0987374957e+01   2.4725890595e+01    0.1450713    0.1364872 -16.75 2.996034e-05    1.030    0.030
       287 -10.5571    157.6921     45.3140   8.0222469132e+01   4.0247378319e+01    0.3379768    0.1289294 -31.70  0.001163087    2.469    0.595
       288  -9.3359     81.2751     46.7102   1.0170340722e+02   5.6583767463e+01    0.1288533    0.1091763 -70.23 0.0001735941    1.516    0.341
       289 -10.2513     22.8592     46.1964   1.2403598206e+02   6.3701032294e+01    0.1714993    0.1385427 -66.45 0.0004768005    1.143    0.125
       290  -9.6031    233.3527     45.2334   6.7999063504e+01   2.1302841076e+01    0.1955691    0.1185683 -31.30 0.0004464461    1.495    0.331
       291 -10.8519    122.8703     44.0827   8.7995517346e+01   4.8804624839e+01    0.4039522    0.3227506 -14.64  0.001343361    1.233    0.189
       292  -9.9493     85.8194     45.1648   9.9579641847e+01   5.6100399809e+01    0.1932222    0.1557408  -3.44 0.0003732184    1.328    0.247
       293  -9.4002     75.0176     43.7873   1.0281799410e+02   5.8174870607e+01    0.1681179    0.1124898  36.98 0.0008566107    1.658    0.397
       294 -10.7540     64.1000     41.5092   1.0599995347e+02   6.0272507188e+01     0.276489    0.1844575 -43.37 0.0009354814    1.299    0.230
       295  -9.9944    162.8288     41.9037   7.7993164853e+01   3.9433643862e+01    0.2149364    0.1798245 -53.20 0.0007161779    1.354    0.261
       296 -11.0320     70.1312     36.3248   1.0172500599e+02   6.0375063733e+01    0.5843149    0.2829731 -25.88  0.001767912    2.796    0.642
       297  -9.2851     52.2807     42.3200   1.1089000778e+02   6.1674264903e+01    0.1346027   0.08773787 -28.49 0.0001975754    1.584    0.369
       298  -9.9409     23.8571     41.5480   1.2238804793e+02   6.4640880700e+01    0.1946681    0.1479712 -72.17  0.001245428    1.324    0.245
       299 -10.3162    226.3718     40.3784   6.7495011181e+01   2.3530423598e+01    0.2581182    0.2326415 -45.99 0.0005563552    1.143    0.125
       300 -10.4191     95.3175     40.0575   9.4483577936e+01   5.5282541990e+01     0.337691     0.276951  80.62   0.00136296    1.803    0.445
       301 -10.0608     96.6701     36.7315   9.2719704283e+01   5.5595111882e+01    0.2240982    0.1659569 -28.07 0.0002494756    1.243    0.196
       302 -10.2160     44.0876     39.7588   1.1332869648e+02   6.3154455263e+01    0.3260422    0.1616953 -54.92  0.001034035    1.779    0.438
       303  -9.0260    235.7313     40.6172   6.6433835135e+01   2.1275127754e+01    0.1474279     0.101224  15.86 0.0006990574    1.696    0.410
       304 -10.7519     88.8402     38.6128   9.6022562342e+01   5.6762836675e+01    0.3415097    0.2615173 -69.22 0.0008767354    1.967    0.492
       305 -10.0111    159.4021     39.2378   7.7739431126e+01   4.0676643209e+01    0.2170419    0.1356028 -36.62 0.0003548051    1.600    0.375
       306  -9.8767    119.5257     39.0754   8.6972753178e+01   5.0367337807e+01    0.2250676    0.1410794 -28.78 0.0004306026    1.528    0.346
       307 -11.6602     82.3939     36.6026   9.7407532371e+01   5.8285945996e+01     0.362069    0.2969484 -16.50  0.001360781    1.139    0.122
       308 -11.2375     19.1519     37.8331   1.2338587904e+02   6.5783511537e+01    0.2081155    0.1498742 -48.13 0.0002510302    1.110    0.099
       309 -11.4117     24.9659     35.7069   1.2020640640e+02   6.5809158515e+01     0.288902    0.2506628  44.11   0.00139535    1.493    0.330
       310 -10.2802    137.1187    247.3853   1.2574764273e+02   1.0996485496e+01    0.1440708    0.1321474  22.45 0.0006733825    1.348    0.258
       311 -10.2203      1.3928     31.6984   1.2976990510e+02   6.8094679026e+01    0.2122848    0.1239145 -46.32 0.0008006562    1.397    0.284
       312 -11.0121     13.8114     32.8943   1.2439526885e+02   6.7192451235e+01    0.3633257    0.2040721 -61.14  0.002134205    1.395    0.283
       313 -10.7504      9.0600     33.9799   1.2684372186e+02   6.7233534055e+01    0.3546407     0.168733 -59.24  0.001652682    1.524    0.344
       314 -11.0047      5.9886     30.9889   1.2747932588e+02   6.8035299840e+01    0.4177186    0.1658053 -51.46  0.001169459    1.788    0.441
       315  -9.9980    103.9896     37.0000   9.0571686420e+01   5.4067999841e+01    0.2836132    0.1673019  47.30   0.00128282    1.786    0.440
       316 -10.7695    106.0927     34.1723   8.8796106016e+01   5.4088128523e+01    0.3427936    0.2738213  19.40 0.0009979085    1.279    0.218
       317 -11.2366     55.7101     31.8519   1.0558061379e+02   6.3323037633e+01    0.4504803    0.2445795 -20.86  0.001950511    2.580    0.612
       318 -10.7576    111.1227     34.0683   8.7300364381e+01   5.3021905823e+01    0.4708606    0.2400806 -27.50 0.0006554074    1.928    0.481
       319 -10.6927     76.5608     33.7221   9.8295658766e+01   5.9810180594e+01    0.2410237    0.1861952  31.10  0.001213969    1.391    0.281
       320  -9.9445     32.0390     33.8405   1.1647076910e+02   6.5598516138e+01    0.2454741    0.1556923  11.59  0.001026299    1.970    0.492
       321  -9.1926     61.0229     33.7726   1.0421185346e+02   6.2219471195e+01     0.150848    0.1105714  31.37 0.0003854428    1.534    0.348
       322 -11.0135    145.2401     31.7293   7.7926466551e+01   4.5287167139e+01    0.2589909    0.2300311  16.65 0.0002573816    1.082    0.076
       323 -10.0307     97.7110     31.9343   9.0408742400e+01   5.6185512864e+01     0.209455    0.1706285 -20.73 0.0004874284    1.121    0.108
       324 -10.3289     18.1931     30.9535   1.2181214324e+02   6.7318453104e+01    0.2204747    0.1509584 -73.69 0.0006236375    1.576    0.365
       325 -10.2730     78.6486     29.9509   9.5948904616e+01   6.0117206403e+01    0.1969354    0.1594097 -27.06 0.0006575813    1.090    0.083
       326 -10.1102    124.8421     27.8759   8.1123036176e+01   5.0805934337e+01    0.2234461    0.1830025  15.40 0.0002941852    1.207    0.171
       327 -10.2672     50.2465     27.4184   1.0605268041e+02   6.4886704462e+01     0.316127     0.133303 -35.70   0.00118001    2.284    0.562
       328  -9.4855     48.6816     23.3154   1.0497844435e+02   6.5856865095e+01    0.1786692    0.1523097 -55.85  0.001063284    1.414    0.293
       329  -9.8981    172.5191     27.4440   7.1183736710e+01   3.8785441424e+01    0.1484669    0.1446245   5.20 0.0001698956    1.035    0.034
       330 -10.8779     70.8654     26.0070   9.7090477028e+01   6.2119966594e+01     0.460731    0.2521612  25.51  0.002078712    2.304    0.566
       331 -10.1108    150.2907     26.6489   7.4962382101e+01   4.4662186774e+01    0.4537995   0.08555679  53.70  0.001244274    4.053    0.753
       332  -9.3774     90.5091     26.5673   9.0400214529e+01   5.8478908855e+01    0.1419388    0.1261212  -9.69 8.894529e-05    1.024    0.023
       333 -11.3471     60.8137     23.7654   1.0003895348e+02   6.4091517722e+01    0.4528962    0.2203504 -52.35  0.001891602    2.697    0.629
       334  -9.4552     24.5408     26.5060   1.1736530445e+02   6.7764596357e+01    0.1234866   0.09675559 -45.67  0.000115179    1.031    0.030
       335  -9.4372    179.8221     25.6458   6.9385673313e+01   3.7075793220e+01    0.2007437    0.1429598  80.18 0.0001127486    1.628    0.386
       336  -9.8728    113.0621     25.0504   8.3001545170e+01   5.3932047144e+01    0.2169967    0.2031304  -7.00 0.0005044559    1.081    0.075
       337 -10.6246     54.4670     23.4358   1.0253198278e+02   6.5063990726e+01    0.2566633    0.2048625 -16.86 0.0006156943    1.142    0.124
       338  -9.7405     17.6771     23.9314   1.1977671673e+02   6.8819280276e+01    0.1689966    0.1230985 -48.40 0.0004469478    1.047    0.045
       339 -10.2945    100.0119     22.1285   8.5443190106e+01   5.7210472909e+01    0.2481207    0.2016168 -34.35 0.0005568402    1.265    0.209
       340 -10.9489     84.7565     22.0895   9.0305068952e+01   6.0289985850e+01    0.3816305    0.2467913   0.36  0.001791878    1.890    0.471
       341 -10.8598      6.2537    245.1570   1.4570673985e+02   2.6035996349e+01    0.2454238     0.113764  69.56  0.001587572    1.593    0.372
       342 -11.4167      8.3332    241.6026   1.4531037553e+02   2.6364447270e+01    0.3255195    0.1277808  64.74  0.002377786    1.860    0.462
       343 -10.9179     66.3445     21.4044   9.6741557857e+01   6.3639858985e+01    0.2477594    0.2216282 -23.47   0.00114702    1.140    0.123
       344 -10.8838      2.3500     37.5883   1.3066663961e+02   6.6777878998e+01    0.3309415    0.1465136 -36.01 0.0005869861    2.306    0.566
       345  -9.4459    166.6347     20.8342   6.9832634084e+01   4.1090714962e+01    0.2079168    0.1305036 -32.79 0.0003800711    1.582    0.368
       346 -10.5769    124.8388     21.0091   7.8286546743e+01   5.1718472131e+01    0.4105569    0.1955886  28.81 0.0009826642    2.873    0.652
       347 -11.0771    181.9556    247.9611   1.1864751021e+02   4.7305392575e+00    0.3660356    0.2132262 -16.18  0.002306237    2.829    0.647
       348  -9.9129    104.4779     18.4934   8.2505191708e+01   5.6749528229e+01    0.2480699    0.2121411   5.43 0.0007866757    1.068    0.064
       349  -9.2236     45.4949     20.5294   1.0516441379e+02   6.6772894852e+01     0.130428    0.1048445 -28.42 0.0008099261    1.007    0.006
       350 -10.8183    217.3668     16.3265   6.1553754617e+01   2.8343340076e+01    0.5031304     0.173216  53.54  0.001773785    2.774    0.640
       351  -8.9118    151.6372     18.7138   7.1690973950e+01   4.5254982601e+01    0.1640126    0.1027858  32.10 0.0005720098    1.689    0.408
       352  -9.6442    115.5039    244.8861   1.2899653511e+02   1.4176610778e+01    0.1182572   0.09898619 -73.15  0.000557155    1.530    0.346
       353 -11.1993    178.2563    243.6562   1.1874160776e+02   5.7008792297e+00    0.3897561   0.09597844  42.83   0.00174874    3.024    0.669
       354 -10.2580    109.8962    243.2387   1.2976168026e+02   1.5116474847e+01    0.2140631    0.1234865  67.69  0.001337887    2.019    0.505
       355 -10.5435    135.5535     16.5078   7.4009766126e+01   4.9621382249e+01    0.2768154    0.1126482  48.66 0.0008446939    2.270    0.559
       356 -10.2125     55.6425     15.7455   9.8434528257e+01   6.6235956003e+01    0.2379659    0.1454533 -53.73  0.001021442    2.253    0.556
       357 -10.2219     10.2892     15.8266   1.2068099158e+02   7.0962269307e+01    0.2484956    0.1403954 -17.20  0.001441351    2.060    0.514
       358 -10.1959     72.1511    243.9564   1.3581746467e+02   1.9616453878e+01    0.1710156    0.1077835  47.41 0.0009000976    1.198    0.165
       359 -11.9595    155.9758    241.5476   1.2210963835e+02   9.0860643026e+00    0.2986631    0.1612189  32.60  0.001150033    1.622    0.384
       360  -9.5939    123.7832     14.6300   7.5829429692e+01   5.2749294677e+01    0.1925991    0.1416097  68.89 0.0004551662    1.582    0.368
       361  -9.9665     99.6704     14.0631   8.1847383629e+01   5.8382180545e+01    0.2076625    0.1670806 -10.72 0.0007831778    1.140    0.123
       362  -9.3509     90.0423     12.9810   8.4252468029e+01   6.0556039210e+01    0.1659292    0.1449586   5.31 0.0004685552    1.029    0.028
       363 -11.3962     19.5918    238.9627   1.4358621012e+02   2.5745753394e+01    0.3668832     0.194811  52.48  0.002993926    1.307    0.235
       364  -9.5883     89.0000    240.9648   1.3294772981e+02   1.8042233693e+01    0.1289804   0.05484689 -66.17 0.0007953302    2.893    0.654
       365 -11.5683     74.0812    238.4451   1.3516193454e+02   2.0168722689e+01     0.430894     0.199466  48.94  0.002933888    1.568    0.362
       366  -9.3659     50.2867    240.3285   1.3900772488e+02   2.2530750234e+01    0.0739349   0.07215169  57.15 0.0003485345    1.613    0.380
       367 -10.4520    174.3106    238.9365   1.1882978708e+02   6.7751587048e+00    0.2103201    0.1422859  32.17  0.001178682    1.167    0.143
       368 -10.9039    177.5720    234.9421   1.1782066162e+02   6.7472382734e+00     0.229258    0.1465916  19.05  0.001214152    1.718    0.418
       369 -10.8816    147.2408    244.3945   1.2382436891e+02   9.9697894566e+00    0.2117548   0.07651006  38.69  0.001141402    2.125    0.529
       370 -10.4056     11.9208    238.1378   1.4468580641e+02   2.6553706718e+01    0.1447414    0.0766247  61.90 0.0006906621    1.291    0.226
       371 -10.7561    159.7843    235.7238   1.2084454802e+02   9.2290298094e+00    0.1877483    0.1325168  30.62 0.0008087365    1.241    0.194
       372 -11.0305     73.5489    232.9875   1.3488545328e+02   2.1016642227e+01    0.2547616    0.1283098  52.86  0.001267943    1.506    0.336
       373 -10.4610    166.9933    233.8265   1.1943250987e+02   8.4114277091e+00    0.1651194    0.1455724  22.86 0.0009298757    1.218    0.179
       374 -11.3238    153.3900    233.6638   1.2167636653e+02   1.0394215947e+01    0.1882055     0.150961   8.09 0.0007763341    1.545    0.353
       375  -9.5064     51.3289     11.3131   9.8099051956e+01   6.7592740898e+01    0.1343859   0.08784138  -8.03 0.0004938516    1.671    0.402
       376  -9.5756     53.6772    234.6806   1.3817728977e+02   2.2992353667e+01   0.07753519   0.07433841  20.28 0.0007044704    1.672    0.402
       377  -9.9442     79.5710    231.3697   1.3378752464e+02   2.0541615887e+01     0.181408   0.09801213  41.08 0.0005827987    1.520    0.342
       378 -12.4249    233.0831    246.1568   1.1049325536e+02  -2.1834972957e+00    0.4964636    0.1857726  39.20  0.002899014    1.959    0.490
       379  -9.4354     12.6681    230.7116   1.4433297406e+02   2.7588465466e+01   0.07129836   0.06706859  87.33 0.0003657194    1.624    0.384
       380  -9.8199    169.8217    229.1355   1.1839988943e+02   8.5479854317e+00    0.1507629    0.1084054  24.12  0.001069647    1.328    0.247
