#   1 NUMBER                 Running object number                                     
#   2 MAG_AUTO               Kron-like elliptical aperture magnitude                    [mag]
#   3 X_IMAGE                Object position along x                                    [pixel]
#   4 Y_IMAGE                Object position along y                                    [pixel]
#   5 X_WORLD                Barycenter position along world x axis                     [deg]
#   6 Y_WORLD                Barycenter position along world y axis                     [deg]
#   7 A_WORLD                Profile RMS along major axis (world units)                 [deg]
#   8 B_WORLD                Profile RMS along minor axis (world units)                 [deg]
#   9 THETA_WORLD            Position angle (CCW/world-x)                               [deg]
#  10 FWHM_WORLD             FWHM assuming a gaussian core                              [deg]
#  11 ELONGATION             A_IMAGE/B_IMAGE                                           
#  12 ELLIPTICITY            1 - B_IMAGE/A_IMAGE                                       
         1 -19.0696    235.1256     55.4863   7.0007245996e+01   1.9762577056e+01     9.416366     8.971025 -33.89   0.03086318    1.261    0.207
         2 -11.3700    222.7685      8.5880   6.0793743263e+01   2.8783029341e+01    0.2311142   0.09459486  47.79 0.0009105043    3.465    0.711
         3 -10.1903    157.0728      6.7501   6.8319778721e+01   4.4808418588e+01     0.314963    0.1751932  10.63   0.00137997    3.009    0.668
         4 -10.8258    210.1173      7.7528   6.1869043736e+01   3.1858819658e+01    0.1049609    0.0723402 -51.03   0.00058305    1.438    0.305
         5 -12.5293    134.8145    109.4131   1.0336707882e+02   3.4007441675e+01     1.036209    0.2203987 -44.33  0.002607724    4.666    0.786
         6 -12.5912    247.1884    249.0950   1.0874303220e+02  -1.3770621359e+01    0.6925525    0.3499404  30.02  0.003891504    1.710    0.415
         7 -12.6794    121.9181    101.5136   1.0462669790e+02   3.8423969746e+01    0.6041715    0.3641661 -64.81  0.002362203    2.351    0.575
         8 -14.8472     68.9406    144.1505   1.2852788549e+02   3.7709297315e+01     1.632727     1.283225 -21.25  0.003368462    1.764    0.433
         9 -14.4198     16.2279    157.8697   1.4307807001e+02   4.0353548261e+01      1.06408    0.5463038 -65.07  0.006077074    1.568    0.362
        10 -11.4393    143.5415    104.7750   9.9943590503e+01   3.3061428906e+01    0.3991705    0.2794012  23.78  0.001461913    1.876    0.467
        11 -12.4891    152.1419    100.0351   9.6578920418e+01   3.2067503339e+01    0.5431703    0.3755756  33.69  0.002007715    1.652    0.395
        12 -15.3206    216.1417     72.5211   7.6722541536e+01   2.1562975735e+01     1.390835    0.6781103 -60.10  0.004744933    2.807    0.644
        13 -12.1562    136.7728     95.5857   9.9125272588e+01   3.6470036534e+01    0.4409088    0.3428389 -68.57  0.001271348    1.546    0.353
        14 -11.7646    148.4680     92.1367   9.5280391700e+01   3.4498230554e+01    0.3032913    0.2835034 -55.63 0.0003834915    1.086    0.079
        15 -11.8135    126.1832     88.1124   9.9748101518e+01   4.0281134598e+01    0.3574949    0.3022798 -45.66  0.000525358    1.187    0.158
        16 -13.3337    135.8123    126.3037   1.0739093424e+02   3.0081037285e+01     1.267791    0.3646102 -50.20  0.003590332    3.697    0.730
        17 -13.4550    160.3071    128.9655   1.0211863801e+02   2.4098706431e+01    0.5820246    0.5273154  32.35  0.002368811    1.168    0.144
        18 -12.5266    152.7518    127.5481   1.0355041089e+02   2.6106970359e+01    0.4544765    0.3877913 -11.97  0.001410139    1.410    0.291
        19  -9.8920    200.8876     23.6099   6.6737808798e+01   3.2304968707e+01    0.1912012    0.1453364  72.36  0.001080792    1.170    0.146
        20 -10.5736    160.9427     23.5891   7.2589050215e+01   4.2155495427e+01     0.210137    0.1942386 -46.60 0.0008900456    1.194    0.163
        21 -12.2936    154.5060    123.4817   1.0212736832e+02   2.6596390310e+01    0.5051873    0.2784236  55.52  0.001660983    1.990    0.498
        22 -15.1379     33.7324    163.1349   1.3976136476e+02   3.7497691092e+01     1.430252     0.928886 -67.66   0.00682922    1.296    0.228
        23  -9.4137     87.2500    150.9563   1.2509052561e+02   3.3384504560e+01    0.1831741    0.1137388 -61.54 0.0004631991    1.506    0.336
        24 -12.8492    192.3907    193.8345   1.0920451767e+02   3.9348446669e+00    0.9593224    0.4807061 -63.95  0.002793616    5.530    0.819
        25 -11.3745    173.4597    203.9957   1.1499442009e+02   5.7358239733e+00    0.2702712    0.1951967  42.86 0.0003463262    1.262    0.208
        26 -13.3127    125.4035    109.4450   1.0581207872e+02   3.5998060500e+01    0.7236535    0.5915971 -48.13   0.00309897    1.200    0.167
        27 -12.8332     58.0689    150.2867   1.3227204195e+02   3.7693040362e+01      0.46045    0.3964513  62.87 0.0008370496    1.207    0.171
        28 -11.3334    130.0725    117.5373   1.0667611212e+02   3.3246140121e+01    0.3015708    0.2152267 -64.14 0.0007715404    1.597    0.374
