#   1 NUMBER                 Running object number                                     
#   2 MAG_AUTO               Kron-like elliptical aperture magnitude                    [mag]
#   3 X_IMAGE                Object position along x                                    [pixel]
#   4 Y_IMAGE                Object position along y                                    [pixel]
#   5 X_WORLD                Barycenter position along world x axis                     [deg]
#   6 Y_WORLD                Barycenter position along world y axis                     [deg]
#   7 A_WORLD                Profile RMS along major axis (world units)                 [deg]
#   8 B_WORLD                Profile RMS along minor axis (world units)                 [deg]
#   9 THETA_WORLD            Position angle (CCW/world-x)                               [deg]
#  10 FWHM_WORLD             FWHM assuming a gaussian core                              [deg]
#  11 ELONGATION             A_IMAGE/B_IMAGE                                           
#  12 ELLIPTICITY            1 - B_IMAGE/A_IMAGE                                       
         1 -14.5571    166.3297     45.3888   7.7165883471e+01   3.8105730538e+01     1.784705     1.124045  22.42  0.005847313    2.487    0.598
         2 -14.3494    179.7145     30.6000   7.0791134651e+01   3.6722804188e+01    0.9297152    0.8602044 -43.16   0.00384375    1.197    0.165
         3 -13.6743    183.9236     23.8669   6.8375700965e+01   3.6486856662e+01    0.6178898    0.5157468 -78.40  0.001138896    1.168    0.144
         4 -12.9485    189.4028     15.0923   6.5372722778e+01   3.6124455390e+01    0.3301309    0.2513806  53.16  0.001196937    1.341    0.254
         5 -11.1535     61.6180      7.1910   8.9948861331e+01   6.4623097439e+01      0.15748   0.09565446  -9.01  0.000312954    1.622    0.384
         6 -12.7585    199.7850      2.3296   6.1045240133e+01   3.4929601568e+01    0.5616499    0.1887678  66.50  0.002379365    2.398    0.583
         7 -10.5539    133.4523    213.4576   1.2417374479e+02   1.1362611888e+01    0.1383035     0.121541  59.99  8.30422e-05    1.001    0.001
         8  -9.3168    196.7425    250.3570   1.1731253954e+02  -6.1898776238e+00    0.1110464   0.09441677  71.43 0.0004646511    1.616    0.381
         9 -19.6694     42.7699    160.5078   1.3677745698e+02   3.7220369890e+01     19.93281     5.440616 -69.76   0.06941035    3.576    0.720
        10 -12.2765    103.7623    194.2925   1.2764694991e+02   2.0668419493e+01    0.4079934    0.2681946  28.96  0.001967756    1.954    0.488
        11 -10.6943    157.8391    193.0889   1.1555508327e+02   1.0850742306e+01    0.2157898    0.1877543  75.10 0.0003214811    1.224    0.183
        12 -11.5455     98.4191    191.4144   1.2839744560e+02   2.2209003302e+01    0.2854887    0.1869961  61.19 0.0007558836    1.510    0.338
        13 -13.9971    108.8079    208.2831   1.2859098858e+02   1.6784321984e+01    0.8188844    0.6652065  42.41  0.004324927    1.279    0.218
        14 -11.9122    211.7829    181.2643   1.0199593670e+02   2.3886732277e+00    0.3582099     0.281927  -4.55  0.001081616    1.434    0.303
        15 -11.6142    207.6627    185.2381   1.0362004013e+02   2.4699515115e+00     0.372899    0.2937698  24.65  0.001184774    1.288    0.224
        16 -12.0756     99.2671    180.8158   1.2657427123e+02   2.4467484897e+01    0.3190041     0.264994 -56.41 0.0008743723    1.275    0.215
        17 -10.7995    197.6725    176.2990   1.0380302424e+02   6.1351037666e+00    0.3767843    0.2515684 -60.99  0.001687911    1.970    0.492
        18  -9.7469    168.3848    175.7732   1.0991341262e+02   1.2286780179e+01    0.2013619    0.1414412 -34.79 0.0003182033    1.602    0.376
        19 -12.5301    137.1175    170.6313   1.1596245954e+02   1.9792818620e+01    0.4875294    0.3935539  88.19  0.002074119    1.388    0.279
        20 -10.8630     10.4968    213.7371   1.4834889891e+02   2.8921808343e+01    0.1415931   0.09797318  15.43 0.0008758063    2.777    0.640
        21 -11.1273    145.6313    168.1350   1.1349255407e+02   1.8630493534e+01    0.2596636    0.2021762  57.84 0.0004941164    1.290    0.225
        22 -10.1527    165.1367    208.1374   1.1667965640e+02   6.4707733537e+00    0.2069809    0.1841843  17.89 0.0002720606    1.219    0.180
        23 -10.5020      2.1271    162.5383   1.4605100244e+02   4.0573432345e+01    0.1349955    0.1136373  38.13 0.0007292124    1.537    0.349
        24 -12.8872    102.1027    156.2780   1.2162543736e+02   2.9710401013e+01    0.6633082    0.4522377 -37.33  0.001599756    1.817    0.450
        25 -10.3331    139.6049    156.1557   1.1243036302e+02   2.2556078935e+01     0.246947    0.1998938  60.11 0.0003983754    1.254    0.203
        26 -11.2516    162.1298    154.1622   1.0673492803e+02   1.8227310655e+01    0.2399991    0.2196971   5.82 0.0008587235    1.239    0.193
        27 -13.8197     11.4584    206.4838   1.4768467151e+02   3.0315666311e+01    0.4484558    0.3034141  39.51   0.00310576    1.748    0.428
        28 -11.8986    133.8306    145.1156   1.1143510874e+02   2.6266241526e+01     1.125422    0.2890079 -54.54   0.00271581    5.283    0.811
        29 -10.8718    174.6778    149.0656   1.0277119215e+02   1.6574674907e+01    0.2723574    0.2169129  61.05 0.0006576743    1.334    0.250
        30 -11.7695      5.5157    206.5388   1.4874567322e+02   3.0874232946e+01    0.1969835    0.1381735  83.49  0.000886403    1.019    0.019
        31 -10.6800     88.8039    147.0355   1.2323169523e+02   3.4144012014e+01    0.2191684    0.2009318  61.44 0.0002728639    1.126    0.112
        32 -13.3835    195.3364    195.1170   1.0805314587e+02   3.0655106568e+00    0.9534162    0.7319628  87.24  0.003305901    2.011    0.503
        33 -12.1847    111.3882    140.8783   1.1615965258e+02   3.1668946017e+01    0.5143895    0.3343075 -33.52  0.002218264    1.962    0.490
        34 -12.4719    100.3940    141.2418   1.1908206913e+02   3.3572263908e+01    0.2721809    0.2671259  55.87 0.0003397003    1.113    0.102
        35 -10.4035    117.5029    139.5196   1.1429392451e+02   3.0825288772e+01    0.3609016    0.2032593  67.75  0.001257695    2.981    0.665
        36 -10.7817    142.8190    139.3993   1.0793907673e+02   2.5680629260e+01    0.2256857    0.1482147  34.03 0.0009494919    1.728    0.421
        37 -11.2740     12.7489    136.7030   1.4097258337e+02   4.5539575248e+01    0.1998125     0.154542 -80.96 0.0002918316    1.066    0.062
        38 -11.6536    117.6518    130.5636   1.1222754903e+02   3.2877858332e+01    0.3795458    0.3048762 -26.87  0.001169521    1.476    0.322
        39 -11.9470    105.7583    128.9156   1.1498766282e+02   3.5511870668e+01    0.5949596    0.2930349 -55.67  0.002356227    2.015    0.504
        40 -11.7920    135.3725    122.7504   1.0578959268e+02   3.1020483305e+01    0.6358734    0.1467083 -48.96  0.001601884    4.565    0.781
        41 -11.2196    143.0343    127.7004   1.0510147906e+02   2.8259686907e+01    0.3773366    0.2709472  84.76  0.001578825    1.967    0.492
        42 -10.8744    160.4959    127.5065   1.0087875088e+02   2.4401262939e+01    0.2960785    0.1457126 -54.59  0.001038591    2.367    0.578
        43 -11.2214    125.0519    127.0421   1.0947513148e+02   3.2209317181e+01    0.3129684    0.2046945  70.42  0.001256894    2.165    0.538
        44 -12.0088    103.4935    201.4733   1.2875596307e+02   1.9142410863e+01    0.3056974    0.2298307  57.52 0.0009487905    1.205    0.170
        45 -10.3282    112.0742    119.7861   1.1113939624e+02   3.6433145135e+01    0.2199246    0.1999061  84.85  0.000374876    1.170    0.145
        46 -10.8107    136.7429    197.3246   1.2088999388e+02   1.4057451440e+01    0.3436288    0.1921059  77.43  0.001135262    3.923    0.745
        47 -12.7221    112.1770    196.4539   1.2612697388e+02   1.8737205333e+01    0.5740156    0.3918938   2.59  0.002277402    3.469    0.712
        48 -11.0336    168.7072    113.6302   9.5508940760e+01   2.5435172659e+01    0.3648862    0.2683812 -71.86 0.0008216831    1.699    0.411
        49 -10.7009    163.9413    111.1376   9.5938911652e+01   2.7072547365e+01    0.3112344    0.2302679  60.49 0.0005037995    1.423    0.297
        50 -10.5257    205.3637    110.2264   8.7126574648e+01   1.7435474535e+01    0.3206722     0.214557  47.95  0.001029065    1.555    0.357
        51 -10.4158    134.5058    102.9414   1.0086282006e+02   3.5511307585e+01    0.2399347    0.1511365 -43.52   0.00102804    1.576    0.365
        52  -9.8006     83.4376     76.4961   1.0776897094e+02   5.0783653381e+01    0.1377761    0.1250905 -23.68 7.871498e-05    1.008    0.008
        53 -10.5189      1.1852    250.2808   1.5190409581e+02   2.2836284364e+01    0.1879068   0.06022653 -84.99 0.0009750109    2.747    0.636
        54 -10.3817    168.1763    248.1519   1.2236942348e+02  -1.0249078839e+00    0.1684233     0.134782  59.99 0.0003821942    1.310    0.236
        55 -11.8374    158.1063    246.4688   1.2405108661e+02   9.8081126567e-01    0.2009778      0.16548  69.95 0.0006661638    1.336    0.252
        56 -10.9127    179.9685    193.2262   1.1086169234e+02   6.4367974282e+00    0.4432797    0.2386062 -64.69  0.001585959    3.399    0.706
        57 -11.7274    120.8047    217.4858   1.2738755302e+02   1.2813271828e+01    0.4483932    0.2497558  82.44  0.001534624    3.255    0.693
        58 -11.9996    183.6840    215.5327   1.1416305048e+02   1.6210693853e+00    0.2769211      0.21986  55.44  0.001429014    1.323    0.244
