#   1 NUMBER                 Running object number                                     
#   2 MAG_AUTO               Kron-like elliptical aperture magnitude                    [mag]
#   3 X_IMAGE                Object position along x                                    [pixel]
#   4 Y_IMAGE                Object position along y                                    [pixel]
#   5 X_WORLD                Barycenter position along world x axis                     [deg]
#   6 Y_WORLD                Barycenter position along world y axis                     [deg]
#   7 A_WORLD                Profile RMS along major axis (world units)                 [deg]
#   8 B_WORLD                Profile RMS along minor axis (world units)                 [deg]
#   9 THETA_WORLD            Position angle (CCW/world-x)                               [deg]
#  10 FWHM_WORLD             FWHM assuming a gaussian core                              [deg]
#  11 ELONGATION             A_IMAGE/B_IMAGE                                           
#  12 ELLIPTICITY            1 - B_IMAGE/A_IMAGE                                       
         1 -14.4254    158.7198     56.2826   7.6572968156e+01   3.8293440534e+01      1.49646     1.310644  34.22  0.003034753    1.140    0.123
         2 -14.7458    171.8308     41.2082   6.8998871839e+01   3.7195675075e+01      1.32653     1.056159  -1.00  0.004023055    1.351    0.260
         3 -14.9671    193.2316      8.6018   5.4885071132e+01   3.5295979440e+01       2.9122    0.9911107  61.50    0.0104372    2.577    0.612
         4 -10.4066    125.0009    247.9247   1.1906598910e+02   1.3208723656e+01    0.1365017    0.1189274  89.16 0.0006098516    1.412    0.292
         5 -10.6681    139.4347    249.9745   1.1704218238e+02   1.0961196701e+01    0.2110199    0.1175191  52.88   0.00149205    1.405    0.288
         6 -19.5800     61.1175    160.2259   1.2208796809e+02   3.5603165896e+01     15.07007     4.761277 -71.29   0.06575432    3.340    0.701
         7 -10.5407    125.1534    243.9063   1.1869298023e+02   1.3681546304e+01    0.1335154    0.1115917  89.76 0.0005095395    1.434    0.303
         8 -11.1258    112.9700    196.0411   1.1597077661e+02   2.2194248962e+01    0.4374155    0.2946585  10.23  0.002179034    3.600    0.722
         9 -11.1830    109.6009    190.3519   1.1594055821e+02   2.3613700850e+01    0.4696969    0.3470771  29.33  0.003064825    1.680    0.405
        10 -11.3384    106.2695    206.3302   1.1826099482e+02   2.1560506690e+01    0.3223762    0.2448261 -40.18  0.001977348    2.016    0.504
        11 -11.6284    103.6697    201.8094   1.1825969770e+02   2.2635162203e+01    0.2363672    0.1851323  41.29 0.0007261401    1.322    0.244
        12 -12.7455    103.4301    195.7686   1.1767146509e+02   2.3634515613e+01    0.3979538    0.2258117  71.33  0.002273262    2.073    0.518
        13 -11.1213     30.2567    205.5334   1.3115708048e+02   3.0929271460e+01    0.1061749   0.08293475  46.12 0.0004008237    1.461    0.316
        14 -10.2162    169.1352    201.1883   1.0661695472e+02   1.2483901177e+01    0.1582417    0.1238178  58.70 0.0007749831    1.315    0.239
        15 -10.0873    135.1515    198.5993   1.1227396094e+02   1.8389026630e+01    0.1768733    0.1473272  88.16 0.0007056263    1.356    0.263
        16 -10.4417    121.1825    197.8198   1.1468977101e+02   2.0677720821e+01    0.1579334     0.127367  63.92 0.0004089034    1.102    0.092
        17 -11.0363      7.4003    196.6603   1.3447225194e+02   3.4517319835e+01    0.1147879   0.07330981  46.28 0.0003576037    1.482    0.325
        18 -11.1778    180.5111    193.1496   1.0346767464e+02   1.1618551884e+01    0.2332926    0.1748868  61.95  0.001473084    1.541    0.351
        19 -11.2394    205.7345    189.9437   9.8625107516e+01   7.6547233185e+00    0.1650465    0.1406516  22.11 0.0007269153    1.096    0.087
        20 -12.2509    172.1291    189.1267   1.0433843666e+02   1.3607162294e+01      0.36147    0.1663231  43.27  0.001262845    1.786    0.440
        21 -12.1160    175.7824    186.4742   1.0327955971e+02   1.3337029219e+01     0.313084    0.2283754 -59.66   0.00183993    1.892    0.472
        22 -11.3210    164.5249    183.0597   1.0478701613e+02   1.5790562909e+01    0.2054732     0.121543 -51.40  0.001130692    2.115    0.527
        23 -10.6563    150.8545    245.9738   1.1490852711e+02   9.7971326697e+00    0.1471901    0.1241214  51.70 0.0005637587    1.194    0.162
        24 -11.0292    167.9989    245.5911   1.1222566943e+02   7.3464888284e+00    0.1543635    0.1407569  42.65 0.0003773049    1.284    0.221
        25 -12.7730    168.7404    177.5771   1.0315099066e+02   1.5847048721e+01    0.4842205    0.3398392  89.55  0.001607364    2.504    0.601
        26 -12.5191    165.9785    173.0332   1.0292566475e+02   1.7018337203e+01    0.4519162    0.2898643 -74.80 0.0008724212    2.995    0.666
        27 -12.3911    204.5131    176.1043   9.6492355098e+01   9.5792788631e+00    0.3787646    0.3661672  53.91  0.001239412    1.305    0.233
        28 -11.2785    197.6992    176.7246   9.7789409934e+01   1.0734943662e+01     0.560618    0.3545876 -69.21  0.002341879    4.262    0.765
        29 -12.3037    189.4515    155.3288   9.5379538804e+01   1.5249895597e+01    0.4443723    0.3983926  26.89  0.001608474    1.038    0.037
        30 -12.3167    193.3747    165.6563   9.6594704199e+01   1.3027008058e+01    0.3207372    0.2872024 -23.80 0.0008305935    1.257    0.204
        31 -11.9360    190.0775    161.1735   9.6369088704e+01   1.4283595535e+01    0.3606724    0.2755302  56.67  0.001206985    1.406    0.289
        32 -11.5661    230.2063    167.0916   9.0499403012e+01   6.0166030841e+00     0.349652    0.1465681 -43.72  0.001445806    3.650    0.726
        33 -11.2655    202.0733    167.6236   9.5400241638e+01   1.1130742173e+01    0.5216641     0.230942  35.87  0.002194193    2.201    0.546
        34 -11.9390     25.1629    165.7613   1.2969929882e+02   3.8375370457e+01    0.1939669    0.1598512  36.63 0.0007360096    1.566    0.361
        35 -11.7313    132.2272    160.4039   1.0745806569e+02   2.5070633399e+01    0.3410363    0.1388158  42.85  0.001502234    2.229    0.551
        36 -11.0251    236.8094    158.3840   8.7739838757e+01   5.8311818896e+00    0.1826307   0.09896254  35.72 0.0004333722    1.634    0.388
        37 -13.8274    133.9657    145.9694   1.0466518616e+02   2.7339465358e+01     1.294091      0.39149 -56.57  0.003985736    5.200    0.808
        38 -11.7323    134.6247    108.9082   9.6933849652e+01   3.4208715118e+01      1.00423    0.1501951 -45.33  0.002348237    6.794    0.853
        39 -13.4849    135.7924    127.7171   1.0078320341e+02   3.0386247221e+01     1.661269    0.3196243 -51.04  0.004016368    7.221    0.862
        40 -13.6083    143.4260    143.9320   1.0230206244e+02   2.5969713278e+01    0.9985743    0.4275675 -59.78  0.003586759    3.853    0.740
        41 -11.7465    165.9525    154.0467   9.9618816842e+01   1.9984429498e+01    0.3645807    0.2416352  71.94  0.001439128    2.237    0.553
        42 -10.9142    174.3922    148.8396   9.6983270980e+01   1.9181706566e+01     0.270389    0.2278274  72.07 0.0008160382    1.406    0.289
        43 -12.3431    119.0245    240.5395   1.1935261661e+02   1.4952776026e+01    0.1771672    0.1349033 -76.67 0.0008198999    1.633    0.387
        44  -9.9738    165.8223    132.5997   9.5395620033e+01   2.3566105393e+01    0.2019851    0.1250917  57.38 0.0009429642    1.741    0.425
        45 -11.9975    160.5668    127.6535   9.5423272487e+01   2.5492324082e+01    0.3957383    0.3176681 -59.15   0.00140125    1.433    0.302
        46 -12.7860    113.6555    118.6288   1.0401899952e+02   3.6220107984e+01    0.3965967    0.2944888 -53.63 0.0008808242    1.349    0.258
        47 -12.8285    150.5199    149.7599   1.0191259890e+02   2.3621784106e+01    0.6504214    0.3899856  81.59  0.002396444    4.057    0.754
        48 -11.2220    168.2148    113.1971   9.0531646919e+01   2.6397816075e+01       0.3832    0.2924894 -84.46   0.00136696    1.893    0.472
        49 -12.8315    117.8246    109.5742   1.0108869403e+02   3.7292828657e+01    0.4022949    0.2895324  86.42  0.001598046    1.869    0.465
        50 -10.8082    205.3798    110.1314   8.2550280690e+01   1.8673181278e+01    0.3234358     0.202507  43.54 0.0009483735    1.523    0.343
        51 -12.3675    197.8640    246.0334   1.0771465164e+02   2.9061080636e+00    0.2641207    0.1141206  49.26  0.001463576    2.027    0.507
        52 -12.9132    176.0229    232.1098   1.0945102101e+02   7.6200209571e+00    0.4169788    0.1815807 -37.73  0.002375426    3.254    0.693
        53 -10.3236    130.9826    235.1314   1.1696926507e+02   1.3964076512e+01    0.2164982     0.161258 -84.04  0.001672604    1.712    0.416
        54 -10.0282    126.1668    237.5619   1.1796275367e+02   1.4338246007e+01     0.125423   0.07791119  40.11 0.0003152203    1.386    0.279
        55 -10.9317     23.7713    229.9210   1.3329465893e+02   2.7772856422e+01   0.08760305    0.0585102  83.93 0.0007630259    1.286    0.222
        56 -10.4611    147.8627     81.1258   8.6606311785e+01   3.6628465816e+01    0.2219725    0.2073546 -79.73 0.0004615097    1.178    0.151
        57 -10.2641     25.5760    222.9539   1.3272993311e+02   2.8644743919e+01   0.09862345   0.06790848 -60.00 0.0007947943    2.156    0.536
        58  -9.8285     20.4767    219.3425   1.3335182095e+02   2.9690442540e+01   0.09394698    0.0599438  63.46 0.0007876255    1.073    0.068
        59  -9.8835    142.0510     71.5404   8.5138247813e+01   3.9665565419e+01     0.218573    0.1473066  52.84 0.0005257358    1.523    0.343
        60  -9.7253    159.8598    248.8228   1.1381049299e+02   8.1810007086e+00     0.126609      0.09521  56.89 0.0004078284    1.288    0.224
        61 -10.7654    133.7793    247.5102   1.1768363980e+02   1.2042504123e+01    0.1336411    0.1177596  58.57 0.0002436936    1.261    0.207
        62 -10.9007     13.5376     59.5459   1.2105469495e+02   6.1253305511e+01    0.2096918    0.1520658 -60.68 0.0006828705    1.105    0.095
        63 -11.4323     16.7216    217.4609   1.3384789579e+02   3.0334883913e+01   0.09167384   0.07527903  57.11 0.0008274406    1.413    0.292
        64 -13.0963    175.8219     34.2858   6.5972825062e+01   3.7071064978e+01    0.4803953    0.4106624  21.10 0.0009270336    1.204    0.169
