#   1 NUMBER                 Running object number                                     
#   2 MAG_AUTO               Kron-like elliptical aperture magnitude                    [mag]
#   3 X_IMAGE                Object position along x                                    [pixel]
#   4 Y_IMAGE                Object position along y                                    [pixel]
#   5 X_WORLD                Barycenter position along world x axis                     [deg]
#   6 Y_WORLD                Barycenter position along world y axis                     [deg]
#   7 A_WORLD                Profile RMS along major axis (world units)                 [deg]
#   8 B_WORLD                Profile RMS along minor axis (world units)                 [deg]
#   9 THETA_WORLD            Position angle (CCW/world-x)                               [deg]
#  10 FWHM_WORLD             FWHM assuming a gaussian core                              [deg]
#  11 ELONGATION             A_IMAGE/B_IMAGE                                           
#  12 ELLIPTICITY            1 - B_IMAGE/A_IMAGE                                       
         1 -10.4620     23.8907     33.8030   8.4878982337e+01   6.7730356798e+01    0.5827436    0.3702443   1.24  0.001628298    1.528    0.346
         2 -10.4076      7.6742     28.0813   9.1321859044e+01   7.0136661885e+01    0.5788926    0.4225428  75.35  0.002962817    3.801    0.737
         3  -8.9143     91.5063     25.4754   5.4279563751e+01   5.7812302719e+01    0.3961101    0.1896043 -34.95  0.001808311    2.299    0.565
         4  -9.6198    198.6265     19.8559   3.4073237020e+01   3.3587665499e+01    0.4924164    0.2322878 -74.75  0.002169013    2.658    0.624
         5  -9.2405     73.6707     19.4367   5.7288330225e+01   6.2125006309e+01    0.2713963    0.1959597 -29.12 0.0006809803    1.532    0.347
         6  -9.3623     85.4703     12.9041   5.0993587877e+01   6.0392017059e+01    0.3491899    0.2203277 -56.05  0.001423851    2.588    0.614
         7  -9.0339      2.4862     14.3695   8.8634607816e+01   7.2779299118e+01    0.2296222    0.1947309 -54.54  0.001423256    1.771    0.435
         8 -10.6064     37.4704      9.8413   6.7120791489e+01   6.9454920956e+01    0.5367651    0.2092498 -36.95  0.001248677    2.878    0.653
         9  -8.0666     80.1233     10.1774   5.1383832059e+01   6.1755897677e+01    0.1528726    0.1494102 -71.81 0.0007051186    1.325    0.245
        10  -8.2570    102.1611      8.3507   4.5082249990e+01   5.7167371887e+01    0.1862372    0.1449625 -25.85 0.0005385858    1.482    0.325
        11 -10.0398     18.6493      4.5476   7.4074342810e+01   7.2598213635e+01    0.3681043    0.2676475 -50.32  0.001788956    2.541    0.606
        12  -9.9118      7.0860      4.8969   8.1152153140e+01   7.3781165567e+01    0.4768148    0.2224181   8.39  0.002235639    2.371    0.578
        13  -9.0968      5.6996      1.6847   8.0315456332e+01   7.4340722240e+01    0.2005197    0.1135207  17.03 0.0007327079    1.560    0.359
        14  -8.3093     89.5912      4.0709   4.6367645491e+01   6.0276223972e+01    0.2621483    0.1365766 -34.56  0.001360727    2.267    0.559
        15  -9.2424    210.7806      3.3527   2.9353674205e+01   3.2665091112e+01    0.1913027    0.1561587 -63.71 0.0008503319    1.135    0.119
        16  -7.7054    126.4393      4.5134   3.9123973740e+01   5.1910862902e+01    0.1258344    0.1074922  67.93 0.0001438136    1.032    0.031
        17  -8.3901    115.2091      3.9387   4.0879937762e+01   5.4560997918e+01    0.1853512    0.1591439 -86.08 0.0008580741    1.277    0.217
        18  -9.4550     63.8737      2.6875   5.3109816686e+01   6.5635997829e+01    0.2715386    0.2310251 -63.14  0.001555697    1.818    0.450
        19  -8.4285     78.8373      3.0454   4.8744016631e+01   6.2626997951e+01    0.1686075     0.163525  88.12 0.0007397935    1.323    0.244
        20  -8.2684    105.6897      1.7692   4.1936088278e+01   5.6896030575e+01    0.3222761    0.1085628  58.24  0.001402478    2.236    0.553
        21  -8.1918    136.5235      1.5018   3.6642153442e+01   4.9787555381e+01    0.1259246    0.1052238  69.65 9.381597e-05    1.005    0.005
        22  -8.3353    120.9467    145.3393   8.2192711515e+01   2.8460413156e+01    0.2398951    0.2066941 -63.18 0.0004166349    1.211    0.174
        23 -12.8523     32.3298    246.0248   1.1786809671e+02   1.7787917388e+01     3.330861    0.6691032  32.21   0.01222519    4.334    0.769
        24  -8.0847    182.9953    145.5460   6.7121401523e+01   1.5986270047e+01    0.2169155    0.1494355  41.20 0.0003123988    1.532    0.347
        25  -9.8447     66.9435    144.0852   9.7684471534e+01   3.7811808569e+01    0.3633969    0.2747865  63.12   0.00160761    1.506    0.336
        26  -9.1118    112.3446    133.6804   8.1909686615e+01   3.2934840559e+01    0.3335978    0.2529191  80.37  0.001110639    1.811    0.448
        27  -8.6252     87.0263    134.0000   8.9498516226e+01   3.7362400376e+01    0.3672312    0.2097322  39.39  0.001250219    1.808    0.447
        28  -9.1511     82.5236    131.0182   9.0232164864e+01   3.8845554969e+01    0.4312207    0.2640832 -81.31  0.001628104    2.539    0.606
        29  -9.6871    136.0000    130.9987   7.4769111643e+01   2.8855055709e+01    0.9642338    0.1566431 -45.42  0.002070656    6.021    0.834
        30  -9.2877    132.5118    131.5170   7.5816200805e+01   2.9453088092e+01    0.3213178    0.2370983 -71.13  0.001048941    1.721    0.419
        31 -10.6271    134.6169    120.7778   7.2565864157e+01   3.1476628466e+01    0.5226617    0.3689699 -57.20  0.001751502    1.537    0.349
        32 -10.5672    129.8178    118.7057   7.3310164602e+01   3.2956308266e+01    0.5047141    0.4794142  33.46  0.002152115    1.070    0.065
        33 -10.3725     71.4813    125.8827   9.2606801247e+01   4.1838131150e+01    0.5471701    0.3801996 -89.95  0.001457592    1.990    0.497
        34 -10.4086     66.6972    128.0946   9.4621781622e+01   4.1960710855e+01    0.6578158     0.263584 -41.80  0.002238065    2.873    0.652
        35 -10.2863    117.3315    125.2760   7.8443548464e+01   3.3983634475e+01    0.7848569    0.5162762 -89.29  0.001658764    2.963    0.662
        36 -10.8237    109.1603    114.7900   7.8132323866e+01   3.8061435451e+01    0.9261856    0.6049062  79.54  0.001959933    3.036    0.671
        37 -10.2445     58.5887    124.4774   9.6513498752e+01   4.3972672779e+01    0.6132613    0.3799915  75.99  0.001986908    2.613    0.617
        38  -9.7876     41.9622    122.3252   1.0160809257e+02   4.6471741486e+01    0.6433421    0.3335043 -87.28  0.002355459    3.126    0.680
        39  -9.7596     27.6961    122.8808   1.0643505245e+02   4.7695668591e+01    0.5663288    0.2956701  67.76  0.002246195    3.040    0.671
        40  -9.9775     98.6147    128.4032   8.4693546766e+01   3.6768057237e+01    0.6687524    0.4196044  71.52  0.002364355    2.846    0.649
        41  -7.9876     92.3754    122.7679   8.5254343470e+01   3.9258264140e+01     0.215911     0.136903 -42.86  0.000246416    1.556    0.357
        42  -8.3240    158.4766    121.9683   6.6942339921e+01   2.6087959032e+01    0.2228389    0.1338761 -64.96 0.0008092779    2.471    0.595
        43 -10.0636    140.7754    118.2173   7.0308246772e+01   3.0734313513e+01    0.4778221    0.3455755 -77.03  0.001418438    1.978    0.494
        44  -8.1220      1.4629    116.4757   1.1409472235e+02   5.1102587192e+01    0.2379182    0.1071102 -86.50  0.001030039    2.395    0.583
        45 -10.9464    149.3207    102.4105   6.4007795699e+01   3.2215443331e+01    0.8147107    0.4215162 -62.09  0.001787601    3.346    0.701
        46 -11.2167    134.1101    108.9489   6.9586003819e+01   3.4205905610e+01    0.9618438    0.3529209 -46.66   0.00311878    2.736    0.635
        47 -11.4717    139.4091    102.1844   6.6378710797e+01   3.4481125420e+01    0.9884138    0.4898887 -47.61   0.00182201    2.060    0.514
        48 -11.8595    120.9120    108.0823   7.2939635179e+01   3.7210397645e+01     1.734185     0.502456 -45.23  0.005046684    3.397    0.706
        49 -11.7916    109.6091    101.1830   7.4300530211e+01   4.1065204304e+01     1.114609    0.8506033  83.54  0.004941148    1.916    0.478
        50 -11.0811    123.3744     91.4040   6.7546945025e+01   4.0243961986e+01    0.5625224    0.4894037  -4.82  0.001267749    1.271    0.213
        51 -10.3218     78.3230    112.7727   8.7313878021e+01   4.4053774897e+01    0.5653047    0.3706222 -84.16  0.001802291    2.509    0.601
        52 -10.5466     66.5698    111.2699   9.0903159323e+01   4.6199650764e+01    0.5820431    0.3855675  65.28   0.00200928    2.258    0.557
        53  -9.3771     14.5250    111.4666   1.0904586135e+02   5.1570722010e+01    0.3778935    0.2108049  77.28  0.001387384    2.512    0.602
        54  -9.1108    159.0722    111.8173   6.4216703852e+01   2.8097468134e+01    0.2359832    0.2072848 -74.17 0.0004570875    1.259    0.206
        55 -10.8155    139.4368     92.9631   6.3801448699e+01   3.6354194627e+01    0.7276323    0.4769117  79.83  0.002010201    2.561    0.610
        56 -10.6609     62.3175    106.4208   9.1205076984e+01   4.7981640966e+01     1.034781    0.5625113  -3.65  0.003458236    3.797    0.737
        57 -11.0798    127.4813    103.5063   6.9867351815e+01   3.6816194029e+01     0.755203    0.4993802 -24.58  0.003142601    1.890    0.471
        58 -10.8966     44.9346    102.1693   9.6424236219e+01   5.1182955234e+01     0.825408    0.4772875  72.35  0.002951486    3.728    0.732
        59  -8.0898     40.4632    106.5394   9.9002630902e+01   5.0593216084e+01    0.1400762     0.124793 -52.08 0.0001535201    1.031    0.030
        60 -10.5996     21.5876    101.7776   1.0489352223e+02   5.3457109881e+01    0.7302966    0.3782537  68.07  0.002759927    3.756    0.734
        61  -8.9145    166.1118    103.7241   6.0550816412e+01   2.8164866828e+01    0.2729491    0.1976339 -53.75 0.0006944829    1.423    0.297
        62  -8.8318      6.3858    103.2096   1.1060080026e+02   5.4095907182e+01    0.2769168     0.189818  81.28 0.0008480579    1.696    0.411
        63  -9.7527    184.2448    101.7540   5.6367915660e+01   2.4493755673e+01    0.3614234    0.2659037 -26.13  0.001189764    1.519    0.342
        64 -10.5369     63.1695     96.0992   8.8275071300e+01   5.0323746789e+01    0.7460291    0.4232787 -70.10  0.002107048    2.594    0.615
        65  -9.6948     81.5710    100.0730   8.2913329795e+01   4.6539347577e+01    0.4140496    0.2867899 -65.81  0.001075077    1.760    0.432
        66  -8.8644    159.0730    101.0740   6.1398272060e+01   3.0280783029e+01    0.2357681    0.2204945 -62.34 0.0005575346    1.074    0.069
        67  -9.7483     94.4296     97.0387   7.7822610820e+01   4.4941658070e+01    0.3365053    0.2863481 -79.83 0.0007231698    1.472    0.321
        68 -10.2911    157.3751     91.8708   5.9297713864e+01   3.2462998447e+01    0.3878495    0.3257201 -23.54  0.001964996    1.304    0.233
        69  -9.4657    164.4749     94.3331   5.8427830182e+01   3.0362256286e+01    0.2884978    0.2582477 -79.88 0.0007254274    1.185    0.156
        70  -8.5736    188.6536     94.3098   5.3692464714e+01   2.4895757195e+01    0.1526549    0.1104965 -74.92 0.0007044922    1.706    0.414
        71 -10.1841     34.4332     89.8478   9.7516807368e+01   5.5221152836e+01    0.6004818    0.2831815 -73.44  0.001946843    3.157    0.683
        72  -8.8378     35.2478     81.7639   9.5189239914e+01   5.7008688820e+01    0.3766798    0.1605119 -33.21  0.001463336    2.747    0.636
        73 -10.3623     92.2144    112.8082   8.2816991808e+01   4.1700573904e+01     0.642898    0.4641618  67.00  0.001562525    1.912    0.477
        74  -9.8569      4.2311     89.5408   1.0916979151e+02   5.7487381288e+01    0.5166429    0.3023252 -75.99  0.001982876    1.658    0.397
        75 -11.4423    140.5068     82.4582   6.0529377035e+01   3.8134905236e+01    0.9084267    0.5773476 -81.86  0.003209718    3.091    0.677
        76 -11.2279    150.2603     88.3797   5.9930785400e+01   3.4768695142e+01    0.6578383    0.4848724 -61.83  0.002576926    1.559    0.359
        77 -10.8120    150.1797     81.3340   5.7965659535e+01   3.6097259026e+01    0.5200501    0.3200369 -53.09  0.001692816    1.803    0.445
        78  -9.4206    111.0409     89.3020   7.0432148365e+01   4.3309928733e+01    0.4137486    0.1770251  31.71  0.001283055    3.410    0.707
        79 -10.3645     85.5206     86.3583   7.7624527868e+01   4.8905992404e+01    0.5410135    0.4311721  69.41 0.0009295173    1.723    0.420
        80  -9.7231     89.5756     78.3304   7.3775627118e+01   4.9823849494e+01     1.012611    0.3064269  34.03  0.002790283    4.587    0.782
        81  -7.6014    174.6906     88.3583   5.4781799816e+01   2.9130608735e+01    0.1571198    0.1118471 -71.34 0.0007042038    1.735    0.423
        82 -10.2049    163.4012     86.6221   5.6582663555e+01   3.2052344772e+01    0.3372183    0.2668808 -39.17  0.001699369    1.259    0.206
        83  -9.4407    140.0018     75.5078   5.8615028187e+01   3.9518115000e+01    0.3493319    0.2091518 -46.19 0.0006096011    1.738    0.425
        84 -10.3575     48.0724     83.5608   9.0561374731e+01   5.5187298140e+01    0.6930572    0.4431023 -69.44  0.001838927    2.031    0.508
        85  -8.2234     19.3139     87.6618   1.0295303863e+02   5.7010212381e+01    0.1262855   0.09824823  72.35 0.0007046949    1.696    0.410
        86 -10.5492    157.9456     83.0448   5.6750998430e+01   3.3974196671e+01    0.5827713    0.2989118 -28.70  0.001718599    2.439    0.590
        87 -10.8202    155.1571     56.1515   4.9718384724e+01   3.9098968926e+01    0.6748014    0.3979072 -81.60  0.002595603    2.913    0.657
        88 -10.2171    157.0231     75.0505   5.4717834243e+01   3.5606029738e+01    0.4968052    0.2569655 -38.27   0.00131771    1.946    0.486
        89 -11.2859    162.3569     71.0698   5.2532778899e+01   3.5022830448e+01    0.6764784    0.4303313 -50.17   0.00226523    1.628    0.386
        90 -10.6932    156.9518     68.1604   5.2790927149e+01   3.6784174400e+01    0.5859265    0.3320848 -18.53  0.002226057    2.763    0.638
        91  -9.0293    157.6197     62.8435   5.1152936456e+01   3.7482113308e+01    0.2751825    0.1798253 -41.40  0.000642642    1.547    0.354
        92 -10.3919    104.0591     82.4114   7.0435690552e+01   4.6154030292e+01    0.5070152    0.3196749 -55.65 0.0008778194    1.913    0.477
        93  -8.5540     65.1388     85.2807   8.4537481024e+01   5.2496846179e+01    0.2495935    0.1429009 -16.22 0.0009451678    2.756    0.637
        94  -8.9678    170.2439     83.4105   5.4341210684e+01   3.1045517929e+01    0.2086628    0.1412641  68.98 0.0009508028    1.663    0.399
        95  -8.6514    119.0484     80.3522   6.5437710262e+01   4.3375762638e+01    0.2808767    0.2060308 -58.70 0.0006165646    1.621    0.383
        96  -9.2655     74.2151     79.9108   7.9598831182e+01   5.2225361643e+01    0.3903237    0.2452384 -60.22 0.0009600165    2.039    0.509
        97 -10.4260     25.8899     77.9669   9.8056800697e+01   5.8729469782e+01    0.5574508    0.3573237  87.99  0.001899015    2.710    0.631
        98  -9.5388    166.6851     78.3890   5.3689186612e+01   3.2758211805e+01    0.2730873    0.1691844 -50.14   0.00095898    1.657    0.397
        99  -8.4567    240.6897     78.3581   4.2378405600e+01   1.6725444404e+01    0.1386811   0.08351289 -62.97 0.0007042453    1.737    0.424
       100  -9.3233    184.3539     77.5941   5.0231546095e+01   2.8797857752e+01    0.2620942    0.2449152 -26.26 0.0007387369    1.184    0.156
       101  -9.9141    127.4288     74.9721   6.1552430516e+01   4.2506697396e+01    0.3683529    0.2578436 -53.98 0.0007950133    1.622    0.383
       102  -8.8988    119.8357     75.6844   6.3783846060e+01   4.4080296937e+01    0.2404064    0.1820943  27.34 0.0008740011    1.449    0.310
       103 -10.0175     81.7301     72.2882   7.4495934208e+01   5.2471162536e+01    0.4278429    0.3058191 -64.83  0.001061714    2.002    0.500
       104  -9.8502    105.7126     70.7742   6.6248985126e+01   4.8042302224e+01    0.5859873    0.3942705 -12.05  0.002576444    2.004    0.501
       105 -10.1827    169.4207     71.0681   5.1185539694e+01   3.3357681839e+01    0.3672574    0.2456109 -37.68  0.001429818    1.508    0.337
       106  -9.5187    114.9731     72.1003   6.4001887630e+01   4.5808245719e+01    0.5320412    0.3646519 -14.44  0.002137814    1.902    0.474
       107 -10.6855     55.3137     70.8358   8.3912691883e+01   5.6996941215e+01    0.6240174    0.3655272  47.88  0.001572825    2.297    0.565
       108 -10.7601    147.0376     68.3484   5.4917073625e+01   3.9101305509e+01    0.6422874    0.2779305 -42.98  0.001673861    2.359    0.576
       109  -9.6877     16.3765     70.1539   1.0014540315e+02   6.1205550540e+01    0.2918686    0.2285937 -79.98 0.0008363508    1.586    0.369
       110  -9.7442     94.8306     68.1003   6.8727899108e+01   5.0769579853e+01    0.3654271    0.2756191 -53.44  0.000888881    1.557    0.358
       111 -10.1360    138.2544     66.3070   5.6274530726e+01   4.1509715948e+01     0.333433     0.300517  -7.30  0.000726725    1.229    0.186
       112  -9.7968    130.9790     64.3080   5.7379268128e+01   4.3538628654e+01    0.5039183    0.2622645 -43.88  0.002031862    2.031    0.508
       113  -9.2975    121.3288     66.2846   6.0431792573e+01   4.5417741607e+01    0.3106214      0.26608 -47.75 0.0007304355    1.246    0.197
       114  -9.5694     31.8475     64.5923   9.1821672320e+01   6.1091612853e+01    0.5318107    0.2085138 -33.75  0.002082039    2.851    0.649
       115  -9.1709     86.7706     63.0282   6.9650710632e+01   5.3268435182e+01    0.4062808     0.179278  33.23  0.001523278    2.592    0.614
       116  -9.2848    170.7475     64.7512   4.9238747370e+01   3.4065952393e+01    0.2501528    0.1771252  58.91  0.001116702    1.383    0.277
       117  -9.6836    109.8657     63.8601   6.2778041714e+01   4.8375847366e+01    0.3482177    0.2936265 -59.72 0.0009477112    1.403    0.287
       118  -9.0444     55.3876     62.5993   8.1173141638e+01   5.8637172775e+01    0.3086829    0.2029108  10.95  0.001424697    1.685    0.407
       119  -8.8295     97.9887     57.2562   6.4048038671e+01   5.2014611432e+01    0.4020699    0.2304512  11.75  0.001415498    3.457    0.711
       120  -8.5855    152.5063     60.4770   5.1484402278e+01   3.9071492609e+01    0.2478442    0.1247058 -46.70 0.0008172155    2.115    0.527
       121  -9.8724     73.2098     58.8397   7.2950063707e+01   5.6504689020e+01    0.4789661     0.240997 -47.93 0.0008872949    2.260    0.558
       122  -9.1781     67.5095     60.6740   7.5731830827e+01   5.7137181450e+01    0.4307784    0.1753027  34.03  0.001697629    2.522    0.604
       123  -8.9680     61.7305     60.3266   7.7849210833e+01   5.8125542002e+01    0.3190764     0.220743  43.17  0.001121292    1.641    0.391
       124  -9.0499      6.5882     61.2320   1.0228232530e+02   6.3754477261e+01    0.3249137    0.1755807   6.04  0.001767014    2.042    0.510
       125  -8.7799    164.5477     60.0363   4.9064149461e+01   3.6269515011e+01    0.2111085    0.1383357 -37.17 0.0008160438    1.563    0.360
       126  -9.0808     15.9586     60.5032   9.7786342820e+01   6.3311008727e+01    0.1765152    0.1180422  10.48  0.001032033    1.587    0.370
       127 -10.0811    146.9725     58.2517   5.1958815877e+01   4.0734598372e+01    0.4371231    0.2398159 -30.82  0.001135281    2.014    0.503
       128  -8.4851     87.9226     58.4043   6.7656074097e+01   5.3854829808e+01    0.2463053    0.1988626 -56.74 0.0007368401    1.561    0.359
       129  -9.4997    130.0633     57.4220   5.5445210361e+01   4.4856137335e+01    0.3072594    0.1894194 -44.86 0.0009362273    1.745    0.427
       130 -10.9339     21.8774     53.1428   9.2820383395e+01   6.4348532409e+01    0.6462111    0.4294645 -87.35  0.002703905    3.388    0.705
       131  -9.7763    138.9117     56.2745   5.3077573238e+01   4.2952061703e+01    0.3883737     0.202152 -39.46 0.0008119845    1.985    0.496
       132 -10.1147    141.6262     49.5359   5.0446362411e+01   4.3299594509e+01    0.3991731    0.3297058   5.96  0.002162508    1.484    0.326
       133  -9.7762    118.2622     55.2971   5.7675381693e+01   4.7903744888e+01    0.3996356    0.2666862 -42.98  0.001490285    1.614    0.380
       134  -9.3230    121.0533     46.8205   5.4177418325e+01   4.8522087215e+01    0.2777174    0.1958917 -38.76 0.0005747994    1.520    0.342
       135 -10.5982    174.2150     51.9863   4.5229934614e+01   3.5168444024e+01    0.6991759    0.4332544 -84.69  0.003167644    2.097    0.523
       136  -9.9039     50.2230     54.3119   8.0416602534e+01   6.0934133599e+01    0.3487223    0.3011034 -75.67  0.001258573    1.772    0.436
       137  -8.7763     43.2402     55.4391   8.3823897238e+01   6.1643174726e+01    0.3475172    0.1449233 -32.75  0.001391845    2.672    0.626
       138  -9.7819    163.2426     50.0029   4.6510128201e+01   3.8060129927e+01    0.3819353    0.1321047 -36.89  0.001418102    2.843    0.648
       139  -8.6551    105.6411     53.0700   6.0342432052e+01   5.1055945975e+01    0.2707775    0.2033873 -54.53 0.0006818905    1.638    0.389
       140  -8.9692     90.6611     52.3104   6.4596186879e+01   5.4318917894e+01    0.2533387    0.1961792  37.21  0.001370231    1.210    0.173
       141  -9.2559     78.9307     50.0201   6.7686023833e+01   5.6970017815e+01    0.5016315    0.2441954  44.36  0.002209905    2.005    0.501
       142  -7.8851    213.5986     49.8014   3.9311873694e+01   2.6513114952e+01    0.1796266    0.1041983 -49.16 0.0004817187    1.549    0.355
       143 -10.1164     85.2826     47.8379   6.4715316717e+01   5.6093559913e+01    0.3809412    0.2935838 -67.17  0.001145639    2.008    0.502
       144  -8.6129    194.2920     47.3842   4.1135420946e+01   3.1143561156e+01    0.3569321    0.2452644   8.22  0.001645839    2.768    0.639
       145  -9.7234    149.9937     47.8530   4.8289591734e+01   4.1535678401e+01    0.2991916    0.1933177 -47.06 0.0007188017    1.637    0.389
       146  -9.4067    130.2769     47.7742   5.2337005063e+01   4.6238381908e+01    0.3212292    0.2299908 -42.58  0.000873194    1.499    0.333
       147  -8.8348    157.2021     48.2156   4.7066738589e+01   3.9757005995e+01    0.2005089    0.1564803 -70.24  0.001068301    1.387    0.279
       148  -9.0136    111.8157     47.2051   5.6638027616e+01   5.0569660980e+01    0.2786615    0.2483158 -18.18 0.0007715172    1.186    0.157
       149  -9.3924     13.8598     44.8951   9.4059999521e+01   6.6606646515e+01    0.2959963    0.1638313 -21.55  0.001017629    1.740    0.425
       150 -10.0572      5.1639     41.8614   9.7525806622e+01   6.7778584054e+01    0.4736402    0.3044696 -59.05  0.001863105    1.607    0.378
       151  -8.9055      9.9641     47.2396   9.6764736673e+01   6.6426301734e+01    0.2288354    0.1864362  -9.93 0.0009374566    1.179    0.152
       152  -9.0612      6.4962     46.5012   9.8278123238e+01   6.6792211287e+01    0.2461061    0.1499554  -3.49  0.001260765    1.657    0.396
       153  -9.5143     69.2140     42.5903   6.8363313952e+01   5.9910750137e+01    0.3746014    0.3112229  36.95  0.001586722    1.233    0.189
       154  -8.9216     56.0734     43.4017   7.3848425519e+01   6.1970977575e+01    0.3936625    0.2148414  -4.26  0.001551434    3.186    0.686
       155  -9.4777     31.0667     42.6646   8.4766570549e+01   6.5428078138e+01     0.815668    0.1859961  36.97  0.002657416    5.307    0.812
       156  -9.6978     37.7965     41.7779   8.1242786005e+01   6.4797706362e+01    0.3529656     0.288485  70.43  0.001994791    2.337    0.572
       157  -9.2158     35.5844     37.5156   8.0596235753e+01   6.5792524279e+01    0.2313202    0.1927138 -18.90 0.0004267807    1.117    0.105
       158  -8.7166    223.0171     43.0551   3.6783679176e+01   2.5423769522e+01    0.1912402    0.1630012 -70.62 0.0005122189    1.041    0.039
       159  -9.3966    153.9422     41.3624   4.5675429996e+01   4.1465466746e+01    0.2591755    0.1778941 -53.36 0.0006183573    1.567    0.362
       160  -8.9072    105.0539     40.7661   5.6195752745e+01   5.2974001164e+01    0.2771345    0.1859753 -50.72 0.0008692704    1.871    0.466
       161  -9.1590    139.8323     40.4745   4.8035326353e+01   4.4962071017e+01    0.2646603    0.2027715 -68.15 0.0007081631    1.513    0.339
       162  -8.5112     53.6628     39.2863   7.3209967931e+01   6.3002616024e+01     0.193808     0.157998 -41.33 0.0006515461    1.452    0.312
       163  -9.3254     49.7309     37.0134   7.3958711562e+01   6.3953688010e+01    0.3642209    0.2116349  31.41  0.001479843    1.634    0.388
       164  -9.0665     81.0101     38.3093   6.2519649362e+01   5.8335448621e+01    0.1924739    0.1626586  32.71 0.0005681064    1.088    0.081
       165 -10.2700    190.2472    236.6394   8.3358257542e+01  -2.5880917739e+00    0.3424344    0.2909893 -74.36  0.001410631    1.991    0.498
       166  -8.5664    225.8972     36.9788   3.5193394954e+01   2.5617403746e+01    0.1819362    0.1497928 -71.27 0.0003914066    1.016    0.015
       167  -9.2672    144.3097     36.4373   4.5952115922e+01   4.4404532232e+01    0.2798359    0.2069133 -68.92 0.0007785889    1.563    0.360
       168  -9.0633     92.0525     37.0822   5.8553496579e+01   5.6264643118e+01    0.3832577    0.1767218  44.41  0.001129817    1.954    0.488
       169  -8.9180    133.1106     35.6729   4.7879071716e+01   4.7170634629e+01    0.2206089     0.183016 -48.07 0.0005368018    1.317    0.241
       170  -9.1580    110.4130     33.9462   5.2392834309e+01   5.2658270905e+01    0.4031624     0.238806 -39.34  0.001762059    1.879    0.468
       171  -9.8367     75.5656     32.4970   6.2060656097e+01   6.0180314946e+01    0.5562689    0.3257165  32.25  0.002580361    1.636    0.389
       172  -8.5331    118.9918     34.6784   5.0599026957e+01   5.0604917865e+01    0.2254615    0.1899023 -26.83 0.0006749137    1.303    0.232
       173  -9.1700     60.3580     33.6957   6.8174852244e+01   6.2760254427e+01    0.3178318    0.2249771 -47.45  0.001131303    1.872    0.466
       174  -9.5324      6.8299     32.3684   9.3406887373e+01   6.9440763107e+01    0.2600505       0.1622  -2.32 0.0008669298    1.518    0.341
       175 -10.3771    210.9649    231.3257   7.8366975758e+01  -4.6549101086e+00    0.2187706     0.188099   4.11 0.0002715344    1.143    0.125
       176  -8.9041    101.1091     31.7805   5.4010810888e+01   5.4996999172e+01    0.3237793    0.1715124 -42.32  0.001188802    2.235    0.553
       177  -8.5130    238.1291     32.0996   3.3086902080e+01   2.3744644714e+01     0.161635    0.1525009 -77.54 0.0004508771    1.307    0.235
       178  -9.3364    172.8912     26.2173   3.8601572138e+01   3.8795396189e+01    0.3795619    0.2441262 -83.43  0.001106724    1.656    0.396
       179  -8.4896    173.8841     31.8169   3.9937488969e+01   3.7904717404e+01    0.2744811    0.2034077  46.75  0.001487517    1.502    0.334
       180  -8.7707    178.4534     30.1329   3.8889467193e+01   3.7031707815e+01    0.2933807    0.1892944 -89.21 0.0008948011    1.601    0.375
       181  -9.6559    191.3176     28.8802   3.6997301998e+01   3.4201163236e+01    0.5626693     0.258832 -75.51  0.002149036    3.401    0.706
       182  -9.6720    134.1078     30.7012   4.6107873069e+01   4.7530242280e+01    0.2250509    0.2140196  49.62 0.0002220918    1.080    0.074
       183 -11.9399     48.9536    224.3716   1.1278903778e+02   2.0421876473e+01     1.287658    0.6419749  54.28  0.006186439    1.863    0.463
       184  -8.3558    250.3029     26.3343   3.1004858336e+01   2.2084403641e+01   0.09681825   0.09086212  31.41 0.0007036848    1.661    0.398
       185 -10.3185     46.1024     29.1148   7.2204666271e+01   6.5677615684e+01    0.4240915    0.3249629 -52.30  0.001501242    1.968    0.492
       186  -8.4692    128.6860     25.7989   4.5596537923e+01   4.9367976520e+01    0.2278625    0.1677374 -53.34  0.001066096    1.568    0.362
       187  -7.8591    144.5331     25.4967   4.2623151469e+01   4.5631823546e+01    0.1334609     0.117854  81.97 0.0008087256    1.072    0.067
       188  -8.4779     25.5079     25.0212   8.0336643349e+01   6.8976602774e+01     0.181851    0.1021867 -35.28  0.001035183    1.611    0.379
       189  -8.4239     78.9148     24.0336   5.7500687311e+01   6.0572845087e+01    0.2633147    0.1549044  31.40  0.001349576    1.647    0.393
       190  -9.0102     84.3257     21.4188   5.4765680396e+01   5.9767390806e+01    0.3045647    0.2508407  33.57   0.00152363    1.035    0.034
       191  -8.4116    113.7731     24.1329   4.8162134352e+01   5.3023525261e+01    0.3641423    0.2106995 -71.03  0.001449055    3.421    0.708
       192  -9.2160    118.9194     21.2252   4.6051122922e+01   5.2140815600e+01    0.2677893    0.2095603  89.72 0.0005468735    1.475    0.322
       193  -8.6559    103.2548     21.2908   4.9604333079e+01   5.5705620402e+01    0.2278249     0.201494 -50.93 0.0009245021    1.355    0.262
       194  -9.1199     63.3251     21.1163   6.1638581472e+01   6.3881600825e+01    0.2591947    0.2173613 -43.53 0.0008990673    1.597    0.374
       195  -9.1083    178.7221    231.1107   8.4824452193e+01   2.3431370737e-02    0.2751443    0.1693045  34.65  0.001453691    1.499    0.333
       196  -9.0294    180.0169    226.8055   8.3841007289e+01   5.7144214842e-01    0.2051511    0.1772352 -17.04  0.000425332    1.141    0.123
       197  -9.0074     32.7953     19.8034   7.4239769606e+01   6.8848977257e+01    0.4103006   0.08187249  38.02  0.001377983    4.994    0.800
       198  -8.9113     10.7797     18.3272   8.5451294667e+01   7.1489232948e+01    0.3958483     0.171462  -8.21   0.00160804    3.852    0.740
       199  -8.1718     96.0140     16.5183   4.9617909642e+01   5.7785819267e+01    0.1851451    0.1620571  -9.69 0.0004944189    1.255    0.203
       200  -8.7655    112.4936     15.3466   4.5368959920e+01   5.4203049894e+01    0.2035359    0.1742517 -64.08 0.0005917508    1.390    0.281
       201  -8.0828    189.6925     15.0440   3.3849827596e+01   3.6125176891e+01    0.1734027      0.14689 -70.28  0.001058363    1.091    0.083
       202  -8.4426    181.0093    222.0420   8.2826964278e+01   1.2554745458e+00     0.197099      0.17072   7.47 0.0003215424    1.012    0.012
       203  -9.8792    147.6752    215.7162   8.9056106886e+01   7.7595186215e+00    0.2420365    0.2296966  -8.48 0.0004640267    1.085    0.078
       204  -8.8072     53.0714     13.8821   6.2310171930e+01   6.6509385519e+01    0.2678694    0.1572478  50.42  0.001459502    1.898    0.473
       205  -8.5537    125.3766     13.1912   4.2118973454e+01   5.1413927596e+01    0.1633053    0.1165425 -40.37 0.0003526232    1.591    0.371
       206  -8.7310     64.9134     13.0374   5.7473738086e+01   6.4477550314e+01    0.1890037    0.1516658  25.17 0.0003953289    1.019    0.018
       207  -8.2799     99.6284    210.9599   9.9579849344e+01   1.6466041977e+01    0.1821783    0.1684275 -69.93 0.0004315047    1.139    0.122
       208  -7.4363    141.7062     12.3084   3.9126218244e+01   4.7640077339e+01    0.1278731   0.09040678 -71.60 0.0003004278    1.586    0.369
       209  -8.0578     59.2653    210.3421   1.0909624471e+02   2.2301881955e+01    0.1261656   0.09873843 -41.30  0.000230085    1.600    0.375
       210  -7.9660      8.1964    207.6292   1.2034859866e+02   2.8450706839e+01    0.1470367    0.1157734  13.76 0.0009488856    1.734    0.423
       211  -8.8057    170.5303    201.5178   8.1443304532e+01   6.7816554553e+00    0.2327588    0.2097486   4.32  0.000436084    1.009    0.009
       212  -9.5568    192.3991    194.3738   7.5395432376e+01   4.5040724163e+00    0.8703833    0.4481014 -63.19   0.00243961    6.370    0.843
       213 -10.0459     61.7765    199.3945   1.0727375759e+02   2.4547163189e+01    0.4631402    0.1110676  39.56  0.001564912    3.426    0.708
       214  -9.0757     31.8841    197.4402   1.1426165867e+02   2.8526075075e+01    0.2090793    0.1606808 -74.14 0.0003881393    1.215    0.177
       215  -7.7332     97.6436    187.4824   9.6564788373e+01   2.2230215424e+01    0.1417741     0.136366 -75.65 3.521685e-05    1.050    0.048
       216  -8.8812     34.0850    182.0059   1.1223537551e+02   3.2040086675e+01    0.1918422    0.1687921 -89.03 0.0003177008    1.038    0.037
       217  -9.8101    101.0035    175.9967   9.3758182212e+01   2.4479294187e+01    0.2096009    0.2023358  73.19  0.001157438    1.020    0.019
       218  -8.4941    230.7863    168.1724   6.2784110172e+01   3.0402738884e+00    0.3071269   0.09204964 -45.71   0.00103652    3.444    0.710
       219  -9.4848    177.6773    148.6625   6.8972754301e+01   1.6391987289e+01    0.2658983    0.2386428 -22.35  0.000341388    1.082    0.076
       220  -8.8144    133.7771    146.6458   7.9054028811e+01   2.5650548204e+01    0.6451363    0.1775198 -52.42  0.001701576    4.125    0.758
