#   1 NUMBER                 Running object number                                     
#   2 MAG_AUTO               Kron-like elliptical aperture magnitude                    [mag]
#   3 X_IMAGE                Object position along x                                    [pixel]
#   4 Y_IMAGE                Object position along y                                    [pixel]
#   5 X_WORLD                Barycenter position along world x axis                     [deg]
#   6 Y_WORLD                Barycenter position along world y axis                     [deg]
#   7 A_WORLD                Profile RMS along major axis (world units)                 [deg]
#   8 B_WORLD                Profile RMS along minor axis (world units)                 [deg]
#   9 THETA_WORLD            Position angle (CCW/world-x)                               [deg]
#  10 FWHM_WORLD             FWHM assuming a gaussian core                              [deg]
#  11 ELONGATION             A_IMAGE/B_IMAGE                                           
#  12 ELLIPTICITY            1 - B_IMAGE/A_IMAGE                                       
         1 -14.1118    170.1011     52.6353   6.5861624963e+01   3.6156415037e+01     2.000252     1.360252  19.58  0.006098629    1.928    0.481
         2 -14.2379    184.2606     37.6709   5.8503981594e+01   3.4659660376e+01       1.0777    0.9989029 -21.14  0.003455795    1.108    0.097
         3 -13.6840    188.9992     31.0782   5.5670746382e+01   3.4279841931e+01    0.6527631    0.6499028  74.23  0.001199827    1.025    0.024
         4 -14.6994    206.5116      6.2398   4.5853359836e+01   3.2500920155e+01     1.933792     1.446187  15.54  0.005117431    1.662    0.398
         5 -12.1671     58.5137      4.0599   7.7054970899e+01   6.6349755364e+01    0.4046525    0.1902427  22.38  0.001829275    2.901    0.655
         6 -13.5020    189.5850     14.8520   5.0558210176e+01   3.6045345594e+01    0.7009981    0.5847258 -16.15  0.002348078    1.295    0.228
         7 -10.5514    107.1012      1.6375   6.1021916899e+01   5.7726671436e+01    0.2540928    0.1289045  66.51 0.0009095131    2.509    0.601
         8 -11.6983     64.5571    208.4326   1.2081086131e+02   2.5074668924e+01    0.3623412    0.2783499 -52.69  0.002060088    1.914    0.478
         9 -13.6180    246.9419    243.1217   9.4261301348e+01  -8.5927006811e+00     1.066811    0.5810133 -17.56  0.006715114    2.189    0.543
        10 -17.9285     50.1298    240.9693   1.2543518405e+02   2.1363071533e+01     7.418954     5.958034  81.15   0.06392145    1.310    0.236
        11 -12.5514     66.3707    197.6122   1.1953966538e+02   2.6818745599e+01    0.4294352    0.2455195 -70.56  0.001964804    1.670    0.401
        12 -10.7328     82.0677    195.1937   1.1645581061e+02   2.5153976103e+01    0.2735476    0.2584025  79.58  0.002052707    1.371    0.270
        13 -10.7209    207.4764    192.9600   9.2723001523e+01   3.8442359310e+00     0.177977     0.127732 -33.46 0.0009979801    1.581    0.368
        14 -13.0054    149.8460    188.2213   1.0267528080e+02   1.5377892207e+01    0.6282744    0.4091403 -84.66  0.002696592    2.365    0.577
        15 -11.3387    155.0092    187.4433   1.0156005169e+02   1.4564015815e+01    0.3201031    0.2431911 -89.46 0.0009950578    1.647    0.393
        16 -11.1965     76.2982    207.4690   1.1870003145e+02   2.3702475967e+01    0.3429626    0.1923016 -62.57  0.001987634    1.915    0.478
        17 -19.0410     26.3265    102.3473   1.1715792425e+02   5.1008188969e+01     14.56241    0.8385985 -67.19   0.02803268   13.446    0.926
        18  -9.8274     59.6611    188.1933   1.1987869020e+02   2.9453837332e+01     0.186787    0.1167515 -71.46 0.0007864743    1.492    0.330
        19 -11.9147    193.6935    195.7345   9.5687586159e+01   6.0163619483e+00     1.001462    0.5618038 -67.96  0.003410839    5.720    0.825
        20 -11.4392     19.0746    185.5480   1.2690676517e+02   3.4408805985e+01    0.1424922    0.1039364  80.52 0.0004129118    1.049    0.047
        21 -11.8310     99.0316    181.0152   1.1156866229e+02   2.5358453311e+01    0.3232611    0.2471181  29.21 0.0009834426    1.763    0.433
        22 -11.1299    149.2381    180.1437   1.0150540664e+02   1.6912822398e+01    0.2546118    0.2041653 -75.60 0.0007152607    1.415    0.293
        23 -10.8636    204.6047    176.6408   9.0256578415e+01   6.7780630640e+00    0.3758588    0.2853206 -52.51   0.00143884    1.654    0.395
        24  -9.8005     69.5255    172.9817   1.1642556900e+02   3.1188845440e+01    0.1943773    0.1344025  66.22 0.0003848996    1.279    0.218
        25  -9.9120     65.8584    171.0991   1.1694129118e+02   3.2047714613e+01    0.1822721    0.1286294  73.23 0.0005799446    1.238    0.192
        26 -10.6813    164.1924    170.4125   9.6861491588e+01   1.5793645951e+01    0.2320764    0.2028142 -79.54 0.0004074201    1.292    0.226
        27 -11.8116    204.3232    199.2621   9.4375714988e+01   3.5490546116e+00    0.4638271    0.1663082  39.03  0.001893752    2.580    0.612
        28 -11.1761    230.2257    166.5352   8.3634662759e+01   3.2486262309e+00    0.3104759     0.175458 -49.91  0.001389308    2.548    0.608
        29  -9.0985    169.2900    178.3157   9.7268995675e+01   1.3423832218e+01    0.1298629    0.1031798  12.83 0.0002781562    1.593    0.372
        30 -10.7602    192.6510    164.9680   9.0242362769e+01   1.1018780618e+01    0.2772726    0.2508872 -39.76 0.0007533099    1.216    0.177
        31 -12.2024    153.4301    199.8409   1.0375454044e+02   1.2772908473e+01    0.4460155    0.2132683 -53.35  0.002161372    2.496    0.599
        32  -9.2348      7.1477    161.1153   1.2740403799e+02   4.0206676193e+01     0.137854    0.1072049 -80.54 0.0003248754    1.243    0.195
        33 -12.8076     99.8743    152.3968   1.0727046026e+02   3.1028256043e+01    0.5659131    0.4520496 -36.98   0.00326649    1.656    0.396
        34 -11.1169    188.2806    154.5614   8.8981516919e+01   1.3682155416e+01    0.6052483    0.3089094  52.28  0.002571369    1.968    0.492
        35 -11.7601    134.0027    146.0544   9.8615659972e+01   2.6343873911e+01     1.144887    0.2931937 -55.57   0.00301614    5.695    0.824
        36 -10.6865    113.2852    151.2321   1.0412944164e+02   2.9042308520e+01    0.3540268    0.2138742 -82.46  0.001253861    2.286    0.562
        37 -10.5425    174.4806    148.9630   9.0584647905e+01   1.7582627755e+01    0.2784818    0.2367791  66.67 0.0007315408    1.253    0.202
        38 -11.4403    160.0161    197.7065   1.0221069977e+02   1.1934736343e+01    0.3940023     0.275832 -82.30 0.0006480892    2.065    0.516
        39 -11.3489    144.1416    147.0772   9.6601265860e+01   2.4167018878e+01    0.4397568    0.2519776 -65.39  0.001851031    2.326    0.570
        40 -12.1091    109.6320    138.7957   1.0272372523e+02   3.2296993451e+01     0.548858    0.3170213 -38.16  0.002439583    2.338    0.572
        41 -12.5395     98.5727    138.2363   1.0517521447e+02   3.4259554989e+01    0.2660633     0.247984  88.86 0.0003677655    1.082    0.076
        42  -9.1519    117.6457    146.3149   1.0229194745e+02   2.9305648288e+01    0.1457609    0.1008579  78.40 0.0007045571    1.739    0.425
        43 -11.6116    105.9785    130.8173   1.0205985811e+02   3.4639761165e+01    0.3770422    0.2924888 -75.00    0.0012516    1.287    0.223
        44 -11.2362    104.1776    125.5304   1.0144630963e+02   3.6094424169e+01    0.2537731    0.2365117 -30.68 0.0006476649    1.271    0.213
        45 -10.8844    135.8307    127.6332   9.4396319401e+01   2.9787961923e+01    0.5342237    0.1487722 -52.17  0.001548838    4.144    0.759
        46 -10.9630    116.4085    129.4366   9.9316221155e+01   3.3106336983e+01    0.2697468    0.2415369 -20.39 0.0006832698    1.389    0.280
        47 -10.4086    160.7005    127.8231   8.8847750761e+01   2.4558929332e+01     0.339494    0.2296357 -58.29  0.001548347    1.691    0.409
        48 -10.3012    120.6689    123.8547   9.7129898778e+01   3.3518367105e+01    0.2218438    0.1739702 -37.05 0.0006731582    1.431    0.301
        49  -9.5860    135.0000    119.9746   9.2862529135e+01   3.1552617463e+01    0.2418108   0.08209055 -47.08  0.000679273    2.921    0.658
        50 -10.1947    111.2542    118.7723   9.8307365807e+01   3.6334087023e+01    0.2179651    0.1822295  63.38 0.0004393317    1.232    0.188
        51 -10.3612    168.0149    112.8811   8.3639581940e+01   2.5851553339e+01    0.3348438    0.2574235 -74.10    0.0011274    1.665    0.399
        52 -11.0868    118.1124    109.7847   9.4565824840e+01   3.7014589499e+01    0.4124103    0.2677872  67.78  0.001829076    2.045    0.511
        53 -10.4071    205.4610    110.1574   7.5322242708e+01   1.7611407177e+01    0.3352509    0.2110435  41.65  0.001052365    1.619    0.382
        54 -10.2287    134.5973    105.7464   8.9516639940e+01   3.4603549282e+01     0.291182    0.1406685 -41.92  0.001135497    2.084    0.520
        55  -9.7272     74.5266    103.9830   1.0458427315e+02   4.5410877188e+01    0.1996296    0.1159243 -57.81 0.0003987103    1.507    0.337
        56 -12.2980     72.4749    211.7143   1.1974134188e+02   2.3460128927e+01    0.2121277    0.1538478  70.61 0.0004470051    1.053    0.050
        57  -9.3462    128.2859     95.3678   8.8372568909e+01   3.8054540076e+01    0.2046151    0.1395937  57.14 0.0009376498    1.625    0.385
        58  -9.6049     74.6373     73.9305   9.7373239459e+01   5.1911376122e+01    0.1862565    0.1473584 -49.82 0.0003500733    1.105    0.095
        59 -12.2117    167.4658     67.4304   7.1027685312e+01   3.4403096619e+01     1.132533    0.6201752 -66.68  0.001886703    4.030    0.752
        60 -11.3761    157.8387    235.7204   1.0775523594e+02   6.6368410725e+00    0.3434082     0.204493  40.30  0.001105972    1.437    0.304
        61  -9.7566    167.7384    233.4415   1.0581376841e+02   5.3075098064e+00     0.283772    0.1592141  64.57  0.001213615    2.375    0.579
        62 -11.3752     71.9286    230.4909   1.2137167266e+02   2.0339480354e+01    0.2403038    0.1513811  58.16  0.001401976    1.205    0.170
        63 -10.9994     13.9528    201.5102   1.2871335701e+02   3.1950065787e+01   0.09590013   0.08390962 -47.54 0.0007889892    2.019    0.505
        64 -12.1200     10.6806    206.7077   1.2950367184e+02   3.1333228686e+01    0.4201606    0.2231772  37.23  0.002959508    2.236    0.553
        65 -12.5422     57.3610    213.1253   1.2240069727e+02   2.5143029927e+01     0.280097    0.1775988  53.81  0.001021889    1.334    0.250
