#   1 NUMBER                 Running object number                                     
#   2 MAG_AUTO               Kron-like elliptical aperture magnitude                    [mag]
#   3 X_IMAGE                Object position along x                                    [pixel]
#   4 Y_IMAGE                Object position along y                                    [pixel]
#   5 X_WORLD                Barycenter position along world x axis                     [deg]
#   6 Y_WORLD                Barycenter position along world y axis                     [deg]
#   7 A_WORLD                Profile RMS along major axis (world units)                 [deg]
#   8 B_WORLD                Profile RMS along minor axis (world units)                 [deg]
#   9 THETA_WORLD            Position angle (CCW/world-x)                               [deg]
#  10 FWHM_WORLD             FWHM assuming a gaussian core                              [deg]
#  11 ELONGATION             A_IMAGE/B_IMAGE                                           
#  12 ELLIPTICITY            1 - B_IMAGE/A_IMAGE                                       
         1 -10.2111    155.3422      9.6783   2.8414990982e+01   4.4802615200e+01    0.1594274    0.1027499 -57.81 0.0007050346    1.725    0.420
         2 -10.6533    148.7092      8.5669   2.8910993185e+01   4.6692758416e+01    0.2686397    0.1586125 -44.23  0.001186715    1.752    0.429
         3 -11.9598    110.4317      5.4500   3.4147150289e+01   5.7012591338e+01    0.4088651    0.1421759 -29.54  0.001132482    2.641    0.621
         4 -10.4074    134.3193      4.6441   2.9476987108e+01   5.0896132065e+01    0.1568229    0.1018941 -54.63 0.0007045698    1.755    0.430
         5 -10.7887     90.6534      3.3302   3.7648347112e+01   6.2022393284e+01    0.1423617    0.1032803 -55.92 0.0007049812    1.759    0.431
         6 -10.2513    159.3428      2.6719   2.5301209319e+01   4.4355599916e+01     0.158652   0.09878638 -56.77 0.0006337228    1.743    0.426
         7 -11.2275    117.0183      2.4968   3.1473631409e+01   5.5606072415e+01    0.2015636    0.1173499 -74.75  0.000809824    2.512    0.602
         8 -11.0389     98.0172      2.5086   3.5415816681e+01   6.0349328682e+01    0.1929556     0.119694 -77.50 0.0008103991    2.553    0.608
         9 -10.7897    128.5041      1.5149   2.9063683366e+01   5.2701212084e+01     0.141566    0.1362068  39.00 0.0008104868    1.006    0.006
        10 -11.3245     29.8900    240.1258   1.0565496901e+02   2.3762062899e+01    0.2415717   0.07976855  59.78  0.001383348    2.381    0.580
        11 -11.3043    187.3263    246.1243   7.9813853641e+01   2.7272474708e+00    0.2290423    0.1189028 -26.51  0.001420283    2.652    0.623
        12 -11.3215    168.3059    249.9742   8.3335005213e+01   4.9317706297e+00     0.145729    0.1112504  31.26 0.0007249558    1.067    0.063
        13 -11.7200     15.9224    240.5058   1.0792475371e+02   2.5085505239e+01    0.2640479   0.05824257  48.07  0.001475032    2.487    0.598
        14 -12.5099      3.2064    243.0006   1.1000079741e+02   2.5877624001e+01    0.2854339    0.1137007  55.74  0.002023618    1.612    0.380
        15 -12.4708      5.7209    235.9070   1.0941094141e+02   2.6763357414e+01    0.2345123    0.1136769  68.13  0.001726937    1.505    0.335
        16 -10.8657     20.4309    234.2891   1.0697166237e+02   2.5634320819e+01    0.2625173   0.03167041  39.77  0.001215863    3.637    0.725
        17 -11.0714    202.8536    232.6104   7.5566915450e+01   1.9782627761e+00    0.1549237   0.08280107  44.17 0.0009468177    1.737    0.424
        18 -12.6796      5.1324    228.3463   1.0928424654e+02   2.8039603877e+01    0.3366925     0.117497  62.32  0.002081953    2.069    0.517
        19 -11.6359      1.6390    220.0140   1.0961672685e+02   2.9741370397e+01    0.2050021   0.07476914 -85.44  0.001240109    2.458    0.593
        20 -12.6909     13.0731    216.5989   1.0754424759e+02   2.9289158026e+01    0.2863193    0.1080056  60.20  0.001730817    1.969    0.492
        21 -12.0234      2.5170    212.1992   1.0922622023e+02   3.1010509034e+01    0.2135853    0.1001567  59.32  0.001465127    1.501    0.334
        22 -11.8158     15.5468    212.1911   1.0693496059e+02   2.9824686325e+01    0.2792208   0.03382564  44.30   0.00127689    3.392    0.705
        23 -12.1054      6.9685    206.7346   1.0825373044e+02   3.1584142208e+01    0.2533889   0.09233414  75.80   0.00140109    2.427    0.588
        24 -11.2043      1.5808    205.2826   1.0916637935e+02   3.2317545609e+01    0.1850788   0.07658852  88.48  0.001132084    2.056    0.514
        25 -12.3214      3.7067    197.0390   1.0849186861e+02   3.3638152316e+01    0.4074322    0.1085781  69.46  0.001791472    3.694    0.729
        26 -12.7320      4.0876    188.8163   1.0810491569e+02   3.5153064264e+01    0.3687031    0.1092181  55.09  0.001931666    2.461    0.594
        27 -11.8281      1.9936    178.0190   1.0807633495e+02   3.7428120505e+01    0.2827914     0.103691  81.33  0.001468454    2.401    0.584
        28 -10.1589    219.5025    178.5096   6.4153324968e+01   5.6727008290e+00    0.1227372    0.1033275  13.29 0.0008099679    1.057    0.053
        29 -10.1448    197.6955    176.3478   6.7522138599e+01   9.6386526334e+00    0.1148389    0.1026788  88.73 0.0007041298    1.696    0.410
        30  -9.8464    101.0128    175.9860   8.6807058337e+01   2.6144738641e+01      0.13795    0.1198784  62.23            0    1.004    0.004
        31 -12.1352      5.1757    173.7720   1.0724261802e+02   3.8012726517e+01     0.301791   0.06806768  51.41  0.001375297    3.118    0.679
        32 -12.2634      1.8151    170.6281   1.0779502674e+02   3.8922707710e+01    0.3137818    0.0818019 -74.79  0.001455206    3.112    0.679
        33 -10.0769    240.6978    164.3456   5.8025362576e+01   3.9247596438e+00    0.1098773   0.09648339 -47.33 0.0007039246    1.685    0.407
        34 -10.7072    213.0000    162.9954   6.2288709306e+01   8.8025739003e+00    0.2027819   0.06953534 -33.56 0.0007169023    2.949    0.661
        35 -10.0983    247.3265    162.6829   5.6680085620e+01   3.0491430891e+00    0.1072799    0.0964915 -46.70 0.0003713372    1.675    0.403
        36 -10.3254    216.5148    156.4911   6.0378976075e+01   9.0645263278e+00     0.129931    0.1130763   6.96 0.0002099511    1.038    0.037
        37 -11.8869      3.2632    154.8496   1.0671731515e+02   4.2086375299e+01    0.1952905    0.1066201  75.08   0.00120474    1.466    0.318
        38 -10.4059    212.0000    150.9970   6.0015671233e+01   1.0648058633e+01    0.2085461   0.07140576 -33.43 0.0007951564    2.892    0.654
        39 -10.9778    244.6574    149.2784   5.4362783697e+01   5.0904544720e+00    0.2935841    0.1659782 -42.91  0.001478473    2.258    0.557
        40 -11.4469    235.4666    147.3526   5.5376283336e+01   6.9143527165e+00    0.2826523    0.2221128 -36.76  0.001662393    1.456    0.313
        41 -11.9629      8.5043    145.4746   1.0495434730e+02   4.3701302907e+01    0.1803754   0.08611543  84.92 0.0002027535    1.784    0.439
        42 -10.0084    229.2979    148.3184   5.6561975376e+01   7.8783536975e+00    0.1346983   0.08901038   8.49 0.0003562645    1.615    0.381
        43 -10.4462    209.3320    138.6704   5.7820081085e+01   1.2934827197e+01    0.1296404    0.1097424 -68.98  0.000705189    1.719    0.418
        44 -12.3322      4.4939    137.4635   1.0540904811e+02   4.5781383793e+01    0.2495421   0.09141531 -80.31  0.001218567    2.191    0.544
        45 -11.1595    234.8085    135.6211   5.2944651001e+01   8.5628682809e+00    0.2344107    0.2043819 -61.07  0.001216913    1.658    0.397
        46 -11.3134    242.5028    134.5260   5.1528424001e+01   7.3162557717e+00    0.2313391    0.1024506 -37.64  0.001031422    2.273    0.560
        47 -10.2892    222.3125    132.6775   5.4281881553e+01   1.1300995064e+01    0.1273346    0.1062176 -58.51 0.0004050063    1.655    0.396
        48 -11.4779    248.3968    129.6194   4.9576270385e+01   6.8908715738e+00    0.2714949    0.2054292 -39.35  0.001605593    1.492    0.330
        49 -10.2035    192.5257    129.5053   5.8768535428e+01   1.7704000773e+01    0.1406384     0.131396   0.34 0.0001676405    1.032    0.031
        50 -11.1988    241.0500    126.1731   4.9880461059e+01   8.6624525837e+00    0.3035841    0.1691366 -30.95  0.001530768    1.618    0.382
        51 -11.0507    227.8549    125.0074   5.1635922417e+01   1.1309266855e+01    0.2237727    0.1427904 -48.71  0.001083233    2.014    0.503
        52 -10.8468    179.5639    124.2921   6.0026774265e+01   2.1274463211e+01    0.2781624    0.1347686 -41.04   0.00113383    2.075    0.518
        53 -12.0130      4.3952    131.1938   1.0501480852e+02   4.7195205577e+01    0.2147747   0.09721775  70.94  0.001109306    2.041    0.510
        54 -10.3494    194.3842    121.1852   5.6448184385e+01   1.8663896335e+01     0.207556    0.1264802 -42.78 0.0009071479    1.713    0.416
        55 -11.4027    248.3846    119.1881   4.7226202542e+01   8.2196032420e+00    0.1963538    0.1034357 -35.40 0.0009538086    1.769    0.435
        56 -10.4070    209.3846    118.2361   5.3068715608e+01   1.5991054922e+01    0.1977478    0.1226231 -39.23 0.0006307134    1.612    0.380
        57 -10.5664    247.6707    113.2828   4.5962304673e+01   9.1117102854e+00    0.1241657   0.09911535 -52.17  0.000382204    1.607    0.378
        58 -10.5831    222.4881    105.0202   4.7674500813e+01   1.5222912268e+01    0.2237882    0.1273159 -28.97  0.001034392    1.595    0.373
        59 -11.7110      2.6972    104.9851   1.0341662685e+02   5.3363643256e+01    0.1802188    0.1242108 -84.75 0.0008106559    1.118    0.106
        60 -10.6723    230.0060    102.9853   4.6027451580e+01   1.3957462327e+01    0.1785786    0.1474361 -19.38    0.0010105    1.069    0.064
        61 -10.3100    200.7866    103.0257   5.0735417713e+01   2.0190573964e+01    0.2000102    0.1118042 -31.90 0.0006394534    1.681    0.405
        62 -10.4090    248.6810     98.3285   4.2277334068e+01   1.0855774021e+01    0.1344928   0.09561497 -50.46 0.0007047243    1.684    0.406
        63 -10.4827    195.3784     97.2251   5.0153333229e+01   2.2325367665e+01     0.221851    0.1267272 -41.10 0.0009502111    1.724    0.420
        64 -10.0954    171.2699     95.6348   5.4279737467e+01   2.8143459203e+01    0.1557417    0.1162193 -62.28 0.0005402737    1.659    0.397
        65 -11.7292    242.1250     92.7259   4.1776171970e+01   1.2887075103e+01      0.25411    0.1624631 -34.70  0.001166046    1.403    0.287
        66 -10.1717    235.5230     95.5044   4.3370447253e+01   1.3857740176e+01    0.1398893     0.121475 -21.06 0.0008099189    1.039    0.037
        67 -10.2898    231.4935     90.9855   4.2796290600e+01   1.5314904896e+01    0.2079443   0.09642655 -46.37 0.0008102075    2.519    0.603
        68 -10.9593    237.0123     90.0175   4.1787400331e+01   1.4294378967e+01    0.2222193    0.1530289 -50.55 0.0009069548    1.673    0.402
        69 -10.3471    226.3599     88.1310   4.2791802930e+01   1.6806038039e+01    0.2168595    0.1113439 -37.74 0.0009431937    1.786    0.440
        70 -10.3703    249.2935     87.6545   3.9596551830e+01   1.2112904779e+01    0.1381595   0.09259965 -48.53 0.0005117352    1.665    0.399
        71 -10.8674    247.9878     92.4829   4.0947416149e+01   1.1748524438e+01    0.1658829    0.1165393 -74.02  0.000806445    2.323    0.569
        72 -10.6317    159.3828     82.1879   5.2842659621e+01   3.3351995573e+01    0.2350842    0.1353697 -44.95 0.0009523381    1.751    0.429
        73 -10.3430    214.9945     79.9611   4.2278939327e+01   2.0488536953e+01    0.1898424    0.1515064 -26.30 0.0009298928    1.137    0.121
        74 -10.4033    201.3843     78.1903   4.3888725075e+01   2.3907077470e+01    0.2278414    0.1231607 -39.65 0.0009507206    1.749    0.428
        75 -10.7038    174.5855     77.7708   4.8455549984e+01   3.0430003486e+01    0.2296489    0.1346109 -42.46 0.0009522595    1.677    0.404
        76 -11.2213    166.8513     78.0148   5.0039331275e+01   3.2276148766e+01    0.2685959    0.1650893 -55.02  0.001082161    1.976    0.494
        77 -10.2651    211.4921     76.4978   4.1849820326e+01   2.1793103266e+01    0.1477908     0.134256 -27.16 8.150371e-05    1.024    0.023
        78 -10.3064    248.2924     73.6592   3.6227804162e+01   1.4102392580e+01     0.141133    0.0912623 -48.97 0.0005925164    1.652    0.395
        79 -12.0175    244.2817     77.0149   3.7556152289e+01   1.4502667502e+01    0.2442789    0.2109746 -90.00  0.001440941    1.461    0.316
        80 -10.7880    214.4845     69.9764   3.9601968856e+01   2.2028387666e+01    0.2203853   0.09884221 -47.09 0.0008097713    2.491    0.599
        81 -10.9051    203.5085     66.5491   4.0227116981e+01   2.5118771614e+01    0.2841941    0.1122662 -39.22  0.001027965    2.319    0.569
        82 -10.6507    248.7504     65.0121   3.3983649421e+01   1.5091399208e+01    0.1880957    0.1009885 -27.05 0.0006976096    1.578    0.366
        83 -10.1429    158.0000     61.9946   4.6734314247e+01   3.7175522506e+01    0.2611224   0.08633146 -31.99 0.0007978702    2.911    0.656
        84 -10.2069    206.7636     59.0055   3.7564167057e+01   2.5394863728e+01    0.2062854      0.11596 -28.01 0.0008845151    1.635    0.388
        85 -10.8698    250.5029     56.0000   3.1500448735e+01   1.5825720054e+01    0.2175683    0.1155444 -26.93  0.001033239    1.591    0.371
        86 -11.1062    246.4698     46.9804   2.9582316013e+01   1.7762389530e+01    0.2080531    0.0783644 -44.07 0.0008089546    2.472    0.596
        87 -11.1109    247.3160     43.3355   2.8556729851e+01   1.8005054396e+01    0.1350504   0.09882239  16.70 0.0007047629    1.694    0.410
        88 -11.1785    250.5107     25.9550   2.3812625256e+01   1.9243671188e+01    0.2073354     0.113775 -25.91 0.0009223761    1.573    0.364
        89 -10.4200    156.2371     17.2458   3.1123233136e+01   4.3796816464e+01    0.2487053   0.09338517 -34.61 0.0008853773    2.433    0.589
        90 -10.3081    148.4975     15.4975   3.1631630087e+01   4.6059645664e+01    0.1463467    0.1423689 -56.30 0.0008103265    1.042    0.040
        91 -12.0901    193.2835    247.0056   7.8971128018e+01   1.8195771514e+00    0.3287136    0.1430597 -33.48  0.001962658    2.964    0.663
        92 -10.6166    151.5197    249.5096   8.6029135928e+01   7.2945302163e+00    0.1066559   0.07852318  37.30 0.0002963525    1.028    0.027
        93 -10.3343     50.0328    250.0000   1.0284359759e+02   2.0116324341e+01    0.1607516   0.04220583  37.52  0.000804602    2.957    0.662
        94 -10.9405     20.1610    248.8128   1.0753733515e+02   2.3399933155e+01    0.2465271    0.0582962  49.91   0.00141355    2.400    0.583
        95 -11.7973     12.0873    248.6757   1.0878556137e+02   2.4193665382e+01    0.2686807   0.06982341  52.80   0.00161211    2.270    0.560
        96 -12.5927    176.7049    244.2323   8.1304154398e+01   4.4034889589e+00    0.3240437    0.1930914  -3.72  0.001870979    2.896    0.655
        97 -10.8131    202.1789    241.1917   7.6820345109e+01   1.1892166275e+00    0.1932864   0.07507779 -28.71  0.001010907    3.507    0.715
        98 -11.4072    170.0127    240.4792   8.1958156404e+01   5.7684230628e+00    0.2083955    0.1201116   3.04  0.001043987    3.574    0.720
