#   1 NUMBER                 Running object number                                     
#   2 MAG_AUTO               Kron-like elliptical aperture magnitude                    [mag]
#   3 X_IMAGE                Object position along x                                    [pixel]
#   4 Y_IMAGE                Object position along y                                    [pixel]
#   5 X_WORLD                Barycenter position along world x axis                     [deg]
#   6 Y_WORLD                Barycenter position along world y axis                     [deg]
#   7 A_WORLD                Profile RMS along major axis (world units)                 [deg]
#   8 B_WORLD                Profile RMS along minor axis (world units)                 [deg]
#   9 THETA_WORLD            Position angle (CCW/world-x)                               [deg]
#  10 FWHM_WORLD             FWHM assuming a gaussian core                              [deg]
#  11 ELONGATION             A_IMAGE/B_IMAGE                                           
#  12 ELLIPTICITY            1 - B_IMAGE/A_IMAGE                                       
         1 -12.6642    207.5122     11.0314   5.5381834419e+01   3.2687507419e+01    0.5006782    0.4460625 -10.30  0.001115779    1.705    0.413
         2 -14.3354    187.3499     76.8494   7.2812527413e+01   2.8210513046e+01     5.195286     1.758148 -39.94   0.01657933    2.907    0.656
         3 -16.0948    213.3826     71.0288   6.7477457123e+01   2.3329876174e+01     10.08257     4.446742 -58.86   0.02286045    2.743    0.635
         4 -13.4361    215.1117     15.7655   5.5624072683e+01   3.0535028199e+01    0.7583412    0.5339707  67.68  0.001045678    1.383    0.277
         5 -14.3074    222.1203     61.5903   6.4296823749e+01   2.2923628262e+01     2.047492     1.136243 -83.75  0.009395598    2.311    0.567
         6 -15.0638    234.0252     50.2234   6.0597038710e+01   2.2105928157e+01      3.77177     1.070216 -56.01   0.01200313    4.857    0.794
         7 -14.7062    248.7924      5.2917   5.1009362227e+01   2.4864016893e+01    0.8453966    0.6436491 -24.23  0.003747252    2.155    0.536
         8 -14.9355    240.6773     44.8435   5.8863978780e+01   2.1509366143e+01     1.809063    0.7316127 -62.37  0.005161216    2.844    0.648
         9 -11.6550    144.8564     27.6189   6.7422657760e+01   4.4996919526e+01    0.5544024    0.4123407 -43.73  0.001605347    1.497    0.332
        10 -10.6296    135.3027     15.5855   6.5714698661e+01   4.8381027333e+01    0.2988533    0.2274693  -6.06  0.001849851    1.687    0.407
        11  -9.4333    164.7380     14.8506   6.1051463105e+01   4.1808220910e+01    0.3256858    0.1529745 -19.98  0.001489432    3.212    0.689
        12 -13.6585    229.9707     27.4900   5.6545134120e+01   2.6005668966e+01    0.6650209     0.300331 -49.13  0.001715073    1.951    0.487
        13 -12.0725    119.2160      9.2494   6.6749752579e+01   5.2477120408e+01    0.5836965     0.447258  29.82   0.00294556    1.380    0.275
        14  -8.1572    186.6970      5.6457   5.6307595062e+01   3.7788721037e+01    0.4633099    0.2684098  57.97  0.002708821    1.656    0.396
        15  -9.1746    181.7163      2.8111   5.6204800176e+01   3.9160012928e+01    0.2188969    0.1670076 -49.74  0.001480285    1.410    0.291
        16  -9.3386    129.0000     10.9617   6.5483663261e+01   5.0198331584e+01     0.170755   0.07119605 -25.25 0.0004186577    2.880    0.653
        17  -8.7342    210.6058      2.6361   5.3425968431e+01   3.2903549229e+01    0.2862969    0.1676499 -39.25  0.001767676    1.848    0.459
        18  -8.8704    171.7420      2.5524   5.7239328032e+01   4.1398985280e+01    0.1863188    0.1176178 -64.09 0.0005787589    1.660    0.398
        19  -9.7267    217.7877      1.6873   5.2647708347e+01   3.1489653373e+01    0.1701734      0.12901  87.55 0.0005857067    1.095    0.087
        20 -16.8389    241.7263     30.9044   5.6129968698e+01   2.3171989739e+01     6.587265     2.044849  61.60    0.0294455    3.120    0.680
        21 -13.3880     13.2016    181.2081   1.3874920712e+02   3.4949218268e+01    0.9068387    0.7151865 -84.58  0.003741826    1.007    0.007
        22 -11.6138    231.4221    250.5669   1.0091641028e+02  -1.2484771674e+01    0.2151582    0.1217307  30.47 0.0002905364    1.665    0.399
        23  -8.9044    150.4818    141.4685   9.6348280368e+01   2.3452416599e+01    0.1595674    0.1499405 -79.89 1.330836e-05    1.086    0.079
        24 -11.4504    189.2444    138.5923   8.7078774452e+01   1.5819625900e+01    0.5075924    0.3851267  40.37  0.001499491    1.440    0.306
        25 -10.8693    211.1626    136.2855   8.2345239119e+01   1.1773264573e+01    0.3497092    0.2322911 -39.55  0.001425193    1.419    0.295
        26 -10.5162    159.4276    137.5508   9.3315200052e+01   2.2429595572e+01    0.4444466    0.2655816 -69.66   0.00159454    2.614    0.617
        27  -8.8144    166.3727    135.1501   9.1164680797e+01   2.1463604421e+01    0.3253926    0.1413317 -38.01  0.001096218    2.571    0.611
        28  -8.8809    153.1777    135.3983   9.4269053990e+01   2.4258822592e+01    0.2213583    0.1479686  58.61 0.0009331663    1.696    0.410
        29 -10.7806    190.4565    132.1819   8.5367327800e+01   1.6910230619e+01    0.3269913    0.2672397  41.83  0.001658739    1.334    0.251
        30 -10.3968    159.6883    129.0269   9.1217908389e+01   2.4266596433e+01    0.4797395     0.388756 -14.10  0.002258476    1.553    0.356
        31 -11.4904    133.3516    121.8483   9.5835180099e+01   3.1557829024e+01     1.200702    0.6045372 -66.44  0.003476349    4.098    0.756
        32 -10.5651    128.0111    113.5482   9.5096523061e+01   3.4523798815e+01    0.4111402    0.2780486 -64.48 0.0009207909    1.807    0.447
        33 -10.4661    222.6041    128.3994   7.8627153456e+01   1.1048459112e+01    0.3882881    0.2287664  72.16  0.001477239    2.637    0.621
        34 -10.9941    217.4031    125.1711   7.8805747609e+01   1.2714314440e+01     0.682033    0.3436881 -62.74   0.00105903    3.018    0.669
        35 -10.3730    196.7914    128.4943   8.3282669107e+01   1.6325683370e+01    0.3029735    0.1917559 -72.84  0.001207913    2.354    0.575
        36  -9.7800    152.4316    127.8108   9.2614485272e+01   2.6119126348e+01    0.3254828    0.3013833   1.99  0.001672493    1.221    0.181
        37 -11.0900    230.9078    167.8403   8.5479500630e+01   1.8537701083e+00    0.4233459    0.2487872 -50.09  0.002014675    1.671    0.402
        38  -9.1480    140.9473    121.4497   9.3822017479e+01   3.0022250290e+01    0.2220193    0.1363468  69.42 0.0008079847    2.498    0.600
        39 -11.0487    167.2836    114.6231   8.5998939581e+01   2.5664226564e+01    0.4649465    0.4596147  -4.18  0.001386257    1.103    0.093
        40 -10.4908    158.1543    114.6950   8.8039173331e+01   2.7693550275e+01    0.4783053    0.3100487 -67.90 0.0009476616    2.047    0.511
        41 -10.0267    174.7074    115.1544   8.4552764803e+01   2.3892057251e+01    0.3051196     0.228568  85.94 0.0006253535    1.674    0.403
        42 -10.4849    134.8527    108.8541   9.2116720366e+01   3.4073228258e+01     1.042482    0.2584822 -43.91  0.002852954    4.015    0.751
        43 -11.7050    236.3624    174.2863   8.5821146108e+01  -2.8537646359e-01    0.5524011    0.3201174  50.40  0.002642176    2.155    0.536
        44 -10.7834    249.1566    176.4071   8.4056827558e+01  -2.7229903408e+00    0.5474148     0.224317 -49.31  0.002236251    2.548    0.608
        45  -8.5462    141.3577    105.2787   8.9567479292e+01   3.3399358550e+01    0.1544318    0.1221217  11.93 0.0007011462    1.660    0.398
        46  -9.9360    211.7012    103.3181   7.4917121465e+01   1.8071724286e+01    0.3457843    0.2694307  19.11 0.0009841045    1.967    0.492
        47 -10.3871    126.0345    103.2839   9.2904322268e+01   3.7135072854e+01    0.3789518    0.2762995 -80.32  0.001270229    1.965    0.491
        48 -10.5863    122.6856    103.3288   9.3799598065e+01   3.7831142501e+01    0.3535201    0.2694035  87.93  0.001606675    1.824    0.452
        49 -10.0716    147.3599    101.2780   8.7084713773e+01   3.2878557637e+01    0.3285502    0.2829686 -46.01 0.0007964646    1.158    0.136
        50  -9.9687    133.4373     97.3070   8.9395410362e+01   3.6762603708e+01    0.3663084    0.2766035  67.51  0.001345004    1.535    0.349
        51 -10.8497    157.3525     95.7517   8.3379313693e+01   3.1703397433e+01    0.4782323    0.3196188  33.47  0.002110003    1.852    0.460
        52 -10.0814    168.5154     96.9956   8.1332381888e+01   2.8909007585e+01    0.2806019    0.2206115  57.27 0.0003384703    1.273    0.215
        53 -11.7744    172.5876     87.3717   7.8089311998e+01   2.9768596835e+01    0.5725315    0.4973417  30.02  0.003069732    1.377    0.274
        54 -10.4327    140.9291     91.5486   8.6006164239e+01   3.6232937598e+01    0.3234096    0.2808748 -77.15 0.0005454863    1.269    0.212
        55 -13.1612    170.9695     72.7251   7.4685206473e+01   3.2688150519e+01     1.342211    0.7871826 -27.81  0.001040854    2.185    0.542
        56 -10.8694    243.8993    172.5597   8.4180246608e+01  -1.1946610941e+00    0.3765546    0.2452414  -0.23  0.001758425    2.402    0.584
        57 -10.9242    213.7411    167.4008   8.8544396721e+01   5.0006944397e+00    0.6339473     0.350979  66.04   0.00221021    3.843    0.740
        58 -11.8139    155.1293     86.1364   8.1340411083e+01   3.4020686571e+01    0.4381487     0.346541 -57.38 0.0004678332    1.311    0.237
        59 -11.0380    160.8804     86.7265   8.0277884151e+01   3.2588642090e+01    0.6183918    0.2155022 -52.97  0.001759848    4.337    0.769
        60  -9.7298      5.6641     82.6699   1.2657101039e+02   5.8503904991e+01    0.1320623   0.06714978 -36.65 0.0007052086    1.730    0.422
        61  -8.4202     93.5447    167.4916   1.1658163392e+02   2.8091509589e+01    0.1509253    0.1417416 -66.72 7.777678e-05    1.041    0.039
        62  -8.6124    111.8661     77.8430   8.9532040922e+01   4.5058580651e+01    0.1814037    0.1660481  82.86            0    1.269    0.212
        63 -11.0948    151.4954     72.0731   7.8347243905e+01   3.7316499167e+01    0.3976782    0.2399899 -56.85  0.001582109    1.967    0.492
        64  -8.6145     64.7095     76.3345   1.0363811029e+02   5.3744971566e+01    0.1239923      0.10896 -87.81 0.0003079959    1.634    0.388
        65  -8.8806    159.3098     74.6904   7.7442767461e+01   3.5069099191e+01    0.1476009    0.1094288 -79.07 0.0002852273    1.621    0.383
        66 -10.4182    121.2522     72.3271   8.5428508871e+01   4.4050708584e+01    0.2912554    0.1923599 -50.21  0.001389213    1.693    0.409
        67 -10.2721    106.5376     61.9882   8.6189088196e+01   4.8834113599e+01    0.2031357    0.1349626 -35.41 0.0004583379    1.573    0.364
        68 -12.3054     43.7457    163.7065   1.2911902150e+02   3.6130582819e+01    0.5124278    0.4402548  12.61  0.001324851    1.467    0.318
        69 -12.7782     50.8274    159.4245   1.2659097735e+02   3.6363470453e+01    0.9272117    0.7095851 -74.93  0.002867887    1.189    0.159
        70  -8.7236     72.5453     58.4631   9.5346228673e+01   5.5684069786e+01     0.130497    0.1162186   2.12  0.000133631    1.028    0.027
        71 -12.6626     56.6506    155.2899   1.2433563844e+02   3.6673632663e+01    0.8583016    0.5841386 -73.05  0.001736816    1.407    0.289
        72 -11.1261    122.8453     38.2577   7.4823080991e+01   4.8695516394e+01     0.317139    0.1903597 -39.09  0.001637572    1.851    0.460
        73  -9.5993    163.1684     37.6804   6.7043558740e+01   3.9605779704e+01    0.2129712    0.1525902  84.37 0.0006677568    1.407    0.289
        74  -9.3933    101.5197     38.4830   8.0019655855e+01   5.3179316904e+01     0.130002    0.1141845  33.62 0.0002015437    1.002    0.002
        75 -11.0206    226.5936    172.8724   8.7279609057e+01   1.6338442863e+00    0.4923404    0.3216055  44.31  0.002497586    1.725    0.420
        76 -10.7070     24.9078    165.3749   1.3418085734e+02   3.7710866031e+01    0.2830923    0.1626602 -63.68  0.001476844    1.446    0.308
        77  -9.4221    171.3352     29.2438   6.3683490219e+01   3.8741808328e+01     0.319314     0.133401 -23.18  0.001249836    3.816    0.738
        78  -9.9384    206.8665    162.2917   8.8791280956e+01   7.3230299917e+00    0.2397656    0.2306493 -46.67 0.0003075883    1.066    0.062
        79  -8.9180    195.5167    158.5198   9.0238163209e+01   1.0315276185e+01    0.1499178    0.1404691 -43.61 0.0002545652    1.013    0.013
        80  -9.8323    154.1022     26.5329   6.5592306543e+01   4.3005920712e+01    0.2617632    0.1818034 -36.72 0.0008893457    1.616    0.381
        81 -10.9998    179.6111     23.9086   6.1280387045e+01   3.7463207421e+01    0.4814881    0.3480893  77.68  0.002927361    1.189    0.159
        82  -9.6275    194.5134     20.2329   5.8659336206e+01   3.4523200074e+01    0.2071379    0.1739176  59.45   0.00084941    1.336    0.251
        83  -9.0632    159.9485     20.2930   6.3083881851e+01   4.2340824691e+01    0.1729451    0.1374783  68.06 0.0002655172    1.078    0.072
        84  -8.9741    249.2020    240.1920   9.5907329451e+01  -1.3257849551e+01    0.1449705    0.1310544  -7.34 0.0003228884    1.302    0.232
        85 -14.6303    154.2117    222.4331   1.1178506171e+02   4.5229953745e+00     5.025651     1.254086  38.30   0.01534319    3.807    0.737
        86  -9.6236    191.7002    192.7051   9.8151571023e+01   3.9063067704e+00    0.4220479    0.2291127 -67.06  0.001337527    4.288    0.767
        87  -9.4512    203.8560    152.9135   8.7360743134e+01   9.8367760156e+00    0.2300064    0.1981059 -16.01 0.0008071951    1.279    0.218
        88  -8.9641     94.3903     14.2112   7.3678425646e+01   5.7216866594e+01    0.1443493    0.1116891 -32.89 0.0003616811    1.535    0.349
        89  -9.7887    191.6832    151.8700   8.9562885192e+01   1.2494570996e+01    0.5068715    0.2413542 -58.92  0.001704319    3.005    0.667
        90 -12.3779     68.4880    145.6694   1.1928913892e+02   3.7491630571e+01     1.017207    0.7461627 -86.26  0.003108021    1.570    0.363
        91  -8.4233    219.4718    149.4017   8.3680157543e+01   7.5259161967e+00    0.1424657    0.1293092 -51.68 0.0001296157    1.059    0.056
        92  -8.5539    151.5872    149.4881   9.7936213674e+01   2.1370566128e+01    0.1571574    0.1500264 -59.08 6.814268e-05    1.019    0.019
        93  -9.8222    134.1725    147.8033   1.0184459188e+02   2.5362655306e+01    0.5354397    0.2141945 -59.09  0.001568302    3.475    0.712
        94  -9.6097    199.1957    145.0241   8.6538768697e+01   1.2407729857e+01    0.2525099    0.1678491 -68.40  0.001077214    1.999    0.500
        95  -9.1797    192.1062    144.1213   8.7749373144e+01   1.4052306983e+01    0.2242239    0.2093158 -66.29 0.0004618691    1.075    0.070
