#   1 NUMBER                 Running object number                                     
#   2 MAG_AUTO               Kron-like elliptical aperture magnitude                    [mag]
#   3 X_IMAGE                Object position along x                                    [pixel]
#   4 Y_IMAGE                Object position along y                                    [pixel]
#   5 X_WORLD                Barycenter position along world x axis                     [deg]
#   6 Y_WORLD                Barycenter position along world y axis                     [deg]
#   7 A_WORLD                Profile RMS along major axis (world units)                 [deg]
#   8 B_WORLD                Profile RMS along minor axis (world units)                 [deg]
#   9 THETA_WORLD            Position angle (CCW/world-x)                               [deg]
#  10 FWHM_WORLD             FWHM assuming a gaussian core                              [deg]
#  11 ELONGATION             A_IMAGE/B_IMAGE                                           
#  12 ELLIPTICITY            1 - B_IMAGE/A_IMAGE                                       
         1 -10.7529    139.6833     27.6195   7.8359061197e+01   4.6913904773e+01    0.4804442    0.3572791  80.01  0.002560894    1.553    0.356
         2 -12.1499     76.5347     24.4126   9.3456827073e+01   6.0266064560e+01    0.4445746     0.299165 -36.84  0.001042506    1.647    0.393
         3 -10.4338    114.0264     25.3391   8.3302749642e+01   5.2941137639e+01    0.2370197    0.1891877 -30.46 0.0007303017    1.362    0.266
         4 -11.2454     92.9248      8.3749   8.2384978217e+01   5.8997589969e+01    0.4619606      0.20071 -24.72 0.0006218647    2.403    0.584
         5 -11.3392     90.1688     16.0229   8.6095321887e+01   5.8773370929e+01    0.3324241    0.2011961 -15.08 0.0004276712    1.732    0.423
         6 -10.3352     87.2604     11.9237   8.5313427713e+01   5.9739639797e+01    0.3155555    0.2038613 -14.38  0.001847023    1.578    0.366
         7  -9.5598     88.6120      7.1501   8.3059786445e+01   5.9939525853e+01     0.206601    0.1399831  22.76 0.0008426055    1.365    0.267
         8 -10.4715     12.4899     15.9601   1.1477354493e+02   6.9370925214e+01    0.3108002    0.1936031  32.45  0.002137737    2.099    0.524
         9 -11.1438     41.0696     19.3779   1.0407461359e+02   6.6053854906e+01    0.3603593    0.2479079   2.28  0.002169887    1.309    0.236
        10 -10.4480     26.5493     16.4048   1.0880467213e+02   6.8052921488e+01    0.2453401     0.189421 -18.20  0.001382059    1.108    0.098
        11 -10.3951    100.1523     18.8928   8.4476366788e+01   5.6524398606e+01    0.3259771    0.2809767 -77.33  0.002010378    1.671    0.402
        12  -9.3798    109.5773     12.9930   7.9963176233e+01   5.5185443811e+01    0.2097608    0.1523516  -6.73 0.0006936255    1.475    0.322
        13 -11.6480     38.9435      2.1329   9.7391140051e+01   6.8380666413e+01    0.5680134    0.5113677  36.45   0.00441339    1.711    0.416
        14 -11.5915     30.1112      7.1801   1.0332039310e+02   6.8864114528e+01    0.3059103    0.2347287  -1.00  0.001169923    1.085    0.078
        15 -11.6054     34.8708     13.0997   1.0392927828e+02   6.7595887989e+01    0.4046404    0.2428483 -38.36  0.002109014    1.757    0.431
        16 -11.6173     39.6234     10.4558   1.0085771584e+02   6.7355655989e+01    0.3518896    0.2061651 -17.90 0.0003326901    1.513    0.339
        17 -10.6085    156.3571     13.9112   7.1071703512e+01   4.4405612230e+01      0.25271    0.2420377 -22.86 0.0008824213    1.190    0.160
        18 -10.7261    212.0188     12.0161   6.3225045861e+01   3.1026302177e+01     0.317311    0.2082025 -78.78 0.0007702776    1.481    0.325
        19 -10.1480    210.1776      7.4263   6.2338840113e+01   3.1961933322e+01    0.2039441    0.1455021 -46.40 0.0009805218    1.422    0.297
        20 -10.4913     68.9594     11.7958   9.0806533438e+01   6.2973728337e+01    0.2638133    0.1972505 -42.34  0.001239247    1.825    0.452
        21 -12.2247    150.7594      8.1085   7.0242275522e+01   4.6303115353e+01     0.445121    0.3178058  42.95  0.002542824    1.355    0.262
        22 -10.5147     53.4642      4.5018   9.2966404232e+01   6.6140261033e+01    0.2061118    0.1670633 -18.54  0.000700386    1.334    0.250
        23 -11.3456     57.6024      4.9152   9.1686796884e+01   6.5479379400e+01    0.4482746    0.3007783  60.66  0.002579787    2.596    0.615
        24  -9.8559     60.9687      2.7943   8.9606579673e+01   6.5163462030e+01    0.2137913    0.1425709  45.87 0.0006237407    1.597    0.374
        25 -10.9988     22.1705      9.3671   1.0771762945e+02   6.9420565176e+01    0.2808076    0.1650089  -6.93 0.0008947103    1.602    0.376
        26  -9.6969     10.1065      1.4905   1.0973148661e+02   7.1520121273e+01     0.199174    0.1042075   4.36  0.001267834    1.979    0.495
        27 -11.7150      4.0701      8.8575   1.1578226544e+02   7.1008077541e+01    0.3117848    0.2920199   7.36  0.001360449    1.687    0.407
        28 -10.5206      1.8701      2.9306   1.1433655304e+02   7.1973059835e+01    0.1769281   0.09964057 -24.75  0.001266283    1.327    0.246
        29 -10.9175     11.7656      7.5376   1.1162648761e+02   7.0599303329e+01    0.3750726    0.2878311  20.37  0.002981561    1.562    0.360
        30 -10.4833      7.9028      5.1964   1.1242248658e+02   7.1221813894e+01    0.1883961    0.1346489  14.51 0.0008145467    1.465    0.317
        31  -9.4214    182.3321      8.2656   6.5743554904e+01   3.8628952450e+01    0.1327623     0.087651  47.20   0.00021599    1.580    0.367
        32 -11.8164     69.3010      6.6450   8.8537644763e+01   6.3440166379e+01    0.6390008    0.2191694  47.02 0.0005820298    2.655    0.623
        33 -11.9944     80.5173      1.7470   8.3129646461e+01   6.1924168289e+01    0.3818178    0.1480597  46.73 0.0009301141    2.134    0.531
        34 -10.1283    218.2749      7.3555   6.1508980292e+01   3.0045629633e+01    0.1858179    0.1046711  84.20 0.0009480632    1.639    0.390
        35 -10.5087    144.6261      6.1842   7.0666278430e+01   4.7929610338e+01    0.2745881    0.1305837 -13.39  0.001220065    2.787    0.641
        36 -10.7186    120.1626      4.3155   7.4574928412e+01   5.3678766001e+01    0.3721028    0.1446296  52.06  0.001453419    2.045    0.511
        37 -10.4358    243.6463      2.9697   5.8329588374e+01   2.4703564106e+01    0.2491026    0.2153602  -0.04   0.00164205    1.790    0.441
        38  -9.6684    235.3067      4.3621   5.9302425585e+01   2.6423759740e+01    0.1171722    0.0912445  44.19 0.0007039123    1.737    0.424
        39 -11.1104    194.4513      3.5240   6.3085407148e+01   3.6143985695e+01    0.2726826    0.1590105 -55.74 0.0008803384    1.801    0.445
        40 -11.5711    130.4508      3.5444   7.2321367352e+01   5.1438547853e+01    0.3083347    0.2132544  70.06    0.0011697    1.415    0.293
        41 -10.8487     18.9299      2.6861   1.0618416810e+02   7.0571158970e+01    0.3152413    0.1599646  12.26  0.001926144    2.075    0.518
        42 -10.6266     55.3039      7.9155   9.3808722574e+01   6.5514961773e+01    0.2812883    0.1809548 -36.31  0.001166053    1.852    0.460
        43  -9.3106     67.3453      1.2956   8.6877365936e+01   6.4265617231e+01    0.1245833    0.0710892  21.75 0.0003425651    1.669    0.401
        44 -10.6252     31.8240      1.3048   9.9917284726e+01   6.9343798907e+01    0.2601546   0.07620815  33.16  0.001071282    3.389    0.705
        45 -10.7210     22.0000    117.9890   1.3706067772e+02   4.8944811593e+01     0.259754    0.1514925 -73.44 0.0009705809    1.474    0.322
        46 -10.4823    195.1618    249.8404   1.1913789097e+02  -5.4512431287e+00    0.1732766    0.1287352  21.10 0.0008349559    1.326    0.246
        47 -10.9633      1.8279    248.7859   1.5254427903e+02   2.3288210133e+01    0.3602025    0.1430005 -83.88  0.002218161    2.042    0.510
        48 -13.0561      8.4728    246.2476   1.5143412645e+02   2.3065240529e+01    0.5954104    0.3857697  35.32  0.004285007    2.170    0.539
        49 -12.3108      5.3440    240.8143   1.5162287834e+02   2.4378145405e+01    0.4254412    0.2001184  57.16  0.002841947    1.649    0.394
        50 -10.2897      3.1817    118.9096   1.4210934144e+02   5.0083784346e+01    0.1741946     0.128667 -89.02 0.0006241487    1.262    0.207
        51 -10.5569     65.5990    111.3976   1.2363714103e+02   4.5858876439e+01    0.4543648    0.1574858 -51.75  0.001760963    2.438    0.590
        52 -10.5810      4.0965    113.8375   1.4121241836e+02   5.1139180500e+01     0.274602     0.133317  -0.98  0.001360407    3.749    0.733
        53 -10.2784    249.0188    111.7131   8.1730415676e+01   7.4846961968e+00    0.1944853    0.1864887 -55.67   0.00116143    1.069    0.064
        54 -10.7932      9.0973    111.8618   1.3961153489e+02   5.1252723480e+01    0.1699511    0.1333978  88.64  0.001179655    1.288    0.223
        55 -11.6573      5.0433    108.7636   1.4026133613e+02   5.2189570513e+01    0.2715871     0.218115   0.39   0.00197032    1.674    0.403
        56 -10.7319     57.9974    107.8285   1.2506174365e+02   4.7632391132e+01    0.2773321    0.1687599 -28.75  0.001104116    2.154    0.536
        57  -9.5218     79.3002    106.9898   1.1867756258e+02   4.4921907848e+01    0.2018117     0.170034 -52.37 0.0004539168    1.074    0.069
        58  -9.4553     34.3152    107.3207   1.3183377148e+02   5.0276986395e+01    0.1297381    0.0799893 -39.78 0.0002632405    1.657    0.397
        59  -9.7982    113.4879    102.5145   1.0789335606e+02   3.9981310352e+01    0.1486712     0.142828 -40.32 0.0001254434    1.009    0.009
        60  -9.9113     66.6465    101.8623   1.2116694726e+02   4.7863411864e+01    0.1976491    0.1176481 -63.21 0.0007748629    1.723    0.420
        61 -10.5100     57.9918    101.3173   1.2362180303e+02   4.9089988717e+01    0.1812551    0.1708591 -48.03  0.001165269    1.091    0.084
        62  -9.2719    129.5007     97.5187   1.0227316301e+02   3.7752219996e+01    0.1506444    0.1481359 -44.67 6.741822e-05    1.006    0.006
        63 -10.0079    100.7963     96.0433   1.0967608575e+02   4.3755556326e+01    0.3691773    0.2364538 -69.91  0.001547696    2.305    0.566
        64 -10.6039     38.8385     97.1146   1.2847718407e+02   5.2109441177e+01    0.2355585    0.1724377  87.93 0.0002987834    1.748    0.428
        65 -11.4895     17.7041     94.6501   1.3437435765e+02   5.4417899521e+01    0.3209761    0.2058704 -36.86  0.001739528    1.572    0.364
        66 -10.9973     20.4969     91.4721   1.3293204028e+02   5.4897599107e+01    0.1967639    0.1728314 -54.03 0.0006754785    1.115    0.103
        67 -10.5525     78.8326     94.8485   1.1578232688e+02   4.7663117465e+01    0.2058054    0.1734724 -28.82 0.0002796414    1.182    0.154
        68 -10.0049      3.2082     95.2164   1.3874429091e+02   5.5219934839e+01    0.1512087     0.113727 -83.94 0.0004880024    1.330    0.248
        69 -10.4870     84.1519     93.8299   1.1392567720e+02   4.7056931278e+01    0.2924455    0.2317269  18.08  0.001293844    1.447    0.309
        70 -11.2517     27.4970     90.8723   1.3065738413e+02   5.4478404010e+01    0.5121205     0.306618  60.18  0.002661897    2.628    0.619
        71  -9.8494     25.3951     85.1427   1.3011911760e+02   5.5867432379e+01    0.2114498    0.1606866 -64.21 0.0007710506    1.204    0.169
        72 -10.6126     58.0426     91.4249   1.2126545315e+02   5.1244340724e+01    0.2577048    0.1720041  -1.12  0.001265632    2.105    0.525
        73 -11.5246     11.1778     88.1815   1.3516698501e+02   5.6238256651e+01    0.5395908     0.209176 -63.71  0.002703299    2.002    0.500
        74 -10.4828     16.0476     89.4730   1.3391370203e+02   5.5642566747e+01    0.2167528    0.1535035 -18.44  0.001216379    1.683    0.406
        75  -9.6392    118.6422     90.3117   1.0311281614e+02   4.1502689996e+01    0.1521521    0.1197666 -89.25 0.0007043109    1.739    0.425
        76 -10.0622     44.1248     89.7357   1.2521360198e+02   5.3178868956e+01    0.2336729    0.1658535  44.32   0.00136968    1.734    0.423
        77 -10.4604      1.7645     89.6673   1.3827104350e+02   5.6475053051e+01    0.2062107    0.1153466 -63.55 0.0002185473    1.329    0.247
        78 -10.2657     76.5851     89.1301   1.1494782285e+02   4.9217828351e+01    0.2269467    0.1992196  14.67 0.0005859311    1.237    0.192
        79 -10.9113    104.0005     87.9708   1.0650555420e+02   4.4846246985e+01     0.225297    0.1814396 -84.11 0.0009057324    1.676    0.403
        80  -9.0118    250.6830     87.6934   7.6051121292e+01   1.1219578005e+01    0.1317176    0.1105741   9.76 0.0002655204    1.630    0.386
        81  -9.6776    124.0727     86.8990   1.0067768746e+02   4.1056701175e+01    0.2271082    0.2062982 -81.75 0.0007870302    1.251    0.201
        82 -10.8825     54.6497     84.4061   1.2057072259e+02   5.3141069831e+01    0.3048371    0.2013064 -54.41 0.0009634349    1.366    0.268
        83 -10.8794      3.7053     82.7610   1.3648818287e+02   5.7814204740e+01     0.307701    0.1133678 -53.13  0.001398321    1.895    0.472
        84  -9.8269     78.1708     83.1764   1.1281957608e+02   5.0214134966e+01    0.1920521    0.1706167 -19.06 0.0002944196    1.098    0.090
        85 -11.5199     63.9936     80.6036   1.1656664306e+02   5.2757252221e+01    0.5339337    0.3864107 -64.48  0.002927417    1.602    0.376
        86  -9.9597    250.3868     80.8080   7.4537107054e+01   1.2416171248e+01    0.1905887    0.1262625 -29.96 0.0005740282    1.623    0.384
        87 -10.0796     89.2925     80.3632   1.0860987822e+02   4.8995760417e+01    0.2743469    0.1794429 -52.53 0.0007291088    1.590    0.371
        88  -9.3600    124.3932     79.2349   9.8331914739e+01   4.2470067668e+01    0.2008458     0.136643 -50.83 0.0005234551    1.583    0.368
        89  -9.5154     65.6943     75.2665   1.1451685843e+02   5.3604598151e+01    0.1822534    0.1384225 -20.40  0.001035369    1.349    0.259
        90  -9.7563     24.2977     78.9758   1.2912538707e+02   5.7241493594e+01    0.1993922     0.140453 -16.05  0.001260275    1.624    0.384
        91 -10.0095    176.8177     77.0419   8.5605202218e+01   3.0571800964e+01    0.2768243    0.2231475  59.02  0.001376475    1.218    0.179
        92  -9.4614     74.9739     75.6922   1.1166447609e+02   5.2197825795e+01     0.174082     0.160531   3.03 0.0001853865    1.113    0.102
        93 -10.9768     55.6131     75.6439   1.1792207147e+02   5.4823343934e+01    0.2907117    0.2290171  -3.84 0.0005174989    1.391    0.281
        94  -9.1787     70.3087     75.3288   1.1304604384e+02   5.2950161766e+01    0.1385927   0.09543048 -18.83 0.0003645517    1.661    0.398
        95 -10.7622     32.1549     72.9136   1.2506307371e+02   5.7826012899e+01    0.1959993    0.1764672  14.17 0.0002777416    1.313    0.238
        96 -11.0394     35.7752     72.2141   1.2365567093e+02   5.7637214540e+01    0.4438969    0.2551118 -56.40  0.001717915    1.551    0.355
        97  -9.2106    224.4142     74.4196   7.6693991834e+01   1.9365987721e+01    0.1441883    0.1302548 -68.86 9.679656e-05    1.014    0.014
        98  -9.7649    136.6761     74.0918   9.3656578605e+01   4.0710700510e+01    0.2061781    0.1877705 -24.64 0.0004965723    1.119    0.106
        99 -11.1476      3.9112     73.7618   1.3471863081e+02   5.9648802309e+01    0.2997406      0.19278  20.52  0.001145955    1.966    0.491
       100  -9.7062    216.9362     72.4456   7.7343280513e+01   2.1475238815e+01    0.2217499    0.1869664 -44.65 0.0005241191    1.163    0.140
       101  -9.1820     95.6976     73.3059   1.0456563400e+02   4.9248836863e+01    0.1330755     0.112998 -82.36 0.0003648576    1.598    0.374
       102  -9.9698     81.1065     72.2849   1.0870982713e+02   5.1913967037e+01    0.2517574     0.179208 -70.30  0.001219427    2.150    0.535
       103 -10.4479     15.5169     75.9566   1.3135146641e+02   5.8499899751e+01    0.1636854    0.1435912 -33.02 0.0006940225    1.184    0.156
       104 -10.2578    105.9255     71.4314   1.0100495319e+02   4.7689444933e+01    0.2430794    0.1960645 -28.28 0.0004618838    1.215    0.177
       105  -9.2721     92.4600     72.4673   1.0527583130e+02   4.9981244733e+01    0.1374975    0.1290608 -24.68 0.0001255064    1.056    0.053
       106  -9.8294     46.9842     69.2328   1.1902844162e+02   5.7090489623e+01     0.381047    0.1759332  20.15  0.001631296    2.869    0.651
       107 -10.2503     10.2712     68.7612   1.3153892002e+02   6.0289193766e+01    0.2558165    0.1149631 -51.65  0.001439825    1.609    0.378
       108  -9.0124    114.4686     66.4993   9.7068260498e+01   4.6869116765e+01    0.1404155    0.1371971  -8.41 2.819006e-05    1.064    0.060
       109 -11.4585     34.2389     65.0910   1.2229403722e+02   5.9185652068e+01    0.2588405    0.1876995 -29.41 0.0003966775    1.240    0.194
       110 -11.4413     39.7110     61.8853   1.1946051232e+02   5.9272573866e+01    0.5961605    0.2242028 -36.96  0.002560862    2.667    0.625
       111 -11.1825     16.9630     64.1496   1.2813833124e+02   6.0764196481e+01    0.2999509    0.2539074  -3.17  0.002233565    1.335    0.251
       112 -11.5716     11.4910     48.8218   1.2614664492e+02   6.4029620578e+01     1.084347    0.4590006  -0.71  0.005049181    3.829    0.739
       113 -11.3976     16.8128     44.8582   1.2294810606e+02   6.4378253290e+01    0.3515516    0.3081048 -12.64  0.002742395    1.236    0.191
       114 -12.8314     20.9416     57.7366   1.2505649278e+02   6.1710627603e+01    0.3769081    0.3569468  86.19  0.001935511    1.456    0.313
       115 -10.6931     20.3393     51.2930   1.2348471941e+02   6.2956284612e+01    0.3557575     0.157743 -37.97   0.00114191    1.882    0.469
       116 -10.5044    131.5552     64.3739   9.1944849611e+01   4.3557908229e+01     0.408336    0.2816148  62.52  0.001444223    1.638    0.389
       117  -9.9456     72.7406     63.5014   1.0865275966e+02   5.4846396741e+01    0.2677757    0.1494513 -54.03 0.0008638432    2.143    0.533
       118 -11.1782      7.9678     61.8502   1.3076502179e+02   6.1787187771e+01    0.4931576     0.167454 -46.83  0.002519532    2.094    0.522
       119 -10.8613      7.6914     55.8703   1.2942126215e+02   6.2951101981e+01    0.2182447    0.1846948 -50.79 0.0009598623    1.187    0.158
       120 -10.6905     62.7615     62.3136   1.1159310596e+02   5.6480902809e+01    0.2584983    0.1774204 -28.43  0.001072428    1.361    0.265
       121  -9.5857    100.9774     61.7731   9.9350654392e+01   5.0356568950e+01    0.1983811    0.1523827 -58.48 0.0008081766    1.647    0.393
       122 -10.6025     51.4766     59.4673   1.1458577396e+02   5.8434197794e+01    0.3700816     0.232684 -56.11  0.001327202    1.800    0.445
       123 -10.8596     54.5267     58.4441   1.1319971381e+02   5.8251965594e+01    0.3410208     0.260293 -54.78  0.001395764    1.491    0.329
       124  -9.4920     54.2694     55.3161   1.1228990028e+02   5.8846484028e+01    0.2392821    0.1478957 -32.63 0.0003888412    1.444    0.307
       125 -10.4817      2.3125     59.7542   1.3228780491e+02   6.2504832581e+01    0.2090648    0.1672947  83.01  0.001507099    1.752    0.429
       126 -10.7788     83.3478     56.9846   1.0311268309e+02   5.4321964119e+01    0.2701004    0.2042825 -38.94  0.000228569    1.297    0.229
       127 -11.7777     87.5153     53.9950   1.0080192004e+02   5.4114136439e+01    0.4103471    0.2886682  34.99  0.001132089    1.425    0.298
       128 -10.5426     60.5186     57.9010   1.1095298589e+02   5.7582483037e+01    0.2198608    0.1970638  -0.45 0.0005953778    1.126    0.112
       129  -9.6853    158.1480     56.9653   8.3635333897e+01   3.8497253411e+01    0.2435247    0.1595763 -59.96  0.001073388    1.911    0.477
       130 -11.9967     66.5159     52.5959   1.0715008710e+02   5.7681579646e+01    0.5781675     0.284538  34.00   0.00233198    2.147    0.534
       131  -9.3532    162.4962     54.4798   8.2019573938e+01   3.7811896372e+01    0.1461562    0.1383691  58.75 4.872787e-05    1.019    0.018
       132 -10.0775    106.2940     53.3663   9.5046990601e+01   5.0713380054e+01    0.2968208    0.2066613 -69.38  0.001335186    2.513    0.602
       133  -9.8422     34.8147     53.1835   1.1864023416e+02   6.1368819577e+01    0.2332529    0.1125071 -32.38  0.000764558    1.997    0.499
       134 -10.9385    114.9000     53.9366   9.2881579930e+01   4.8868235892e+01    0.3341484    0.2692646  34.02  0.001410367    1.201    0.167
       135  -9.4079    176.2060     52.3545   7.8812754889e+01   3.4726866459e+01    0.1982301    0.1326245  71.79 0.0001937366    1.549    0.354
       136  -9.3401    169.7414     52.6467   8.0085325486e+01   3.6294562868e+01    0.1932917    0.1330863  69.13 0.0002792979    1.476    0.322
       137 -10.0195     46.4189     49.7183   1.1327233292e+02   6.0765468147e+01    0.4079357    0.1292774 -36.20  0.001572481    3.297    0.697
       138  -9.0030    248.7090     50.2852   6.7925684078e+01   1.7509391506e+01    0.1374306   0.08855517 -67.24 0.0003454873    1.536    0.349
       139  -8.8559     59.6397     49.2715   1.0839057484e+02   5.9198814523e+01    0.1102414    0.1013619  77.65 0.0002182545    1.651    0.394
       140  -9.8581     38.1825     49.0202   1.1608244669e+02   6.1778311381e+01    0.1872714    0.1288584 -25.40  0.001177281    1.273    0.215
       141  -9.0081    212.0049     48.7741   7.2170220814e+01   2.6344220912e+01    0.1754154    0.1105248  67.08 0.0003126588    1.523    0.344
       142  -9.5601     71.4401     57.7032   1.0720382809e+02   5.6078798806e+01    0.1703488    0.1122293 -30.10 0.0002986084    1.418    0.295
       143  -9.3251     53.2870     48.5754   1.1040475300e+02   6.0140038103e+01    0.1674762    0.1096384  14.02 0.0009528131    1.669    0.401
       144 -10.6467     77.9726     46.1583   1.0110843795e+02   5.6979536324e+01    0.3257956    0.2273897  19.13 0.0009955362    1.486    0.327
       145 -10.3277     68.6254     46.8596   1.0445548045e+02   5.8324035853e+01    0.2176636    0.1713995   6.51 0.0002650045    1.223    0.182
       146  -9.9383     30.7653     46.6534   1.1811936574e+02   6.2913344557e+01    0.2562289    0.1660467 -41.19  0.001631667    1.259    0.206
       147 -11.0467     19.4412     31.8348   1.1767635687e+02   6.6386355542e+01    0.4040351     0.206444  -5.39  0.001707243    2.521    0.603
       148 -11.1340     25.3767     43.3355   1.1913539920e+02   6.3968729582e+01    0.2879573    0.2159792 -56.97    0.0010146    1.569    0.363
       149 -10.0091     26.3513     30.6764   1.1442363268e+02   6.5973179936e+01    0.1820804     0.149222 -68.14 0.0009567554    2.090    0.522
       150 -10.3450     22.7199     38.5869   1.1863694826e+02   6.5003198072e+01    0.1804472    0.1675172 -13.54 0.0006955604    1.332    0.249
       151 -11.1285     26.5607     35.1610   1.1593420929e+02   6.5237496263e+01    0.3766871    0.1884345 -29.85  0.001118269    1.786    0.440
       152  -9.3562     91.4217     44.5282   9.6323428768e+01   5.4908652972e+01    0.1326237    0.1171611   1.71 0.0001115719    1.013    0.013
       153 -10.0596    181.9186     41.4206   7.4781894575e+01   3.4851234361e+01    0.3667692    0.2881819  35.49   0.00193537    1.470    0.320
       154 -10.4762     70.5015     41.1041   1.0176264140e+02   5.8941696000e+01    0.3128117    0.2012975 -23.46  0.000936635    1.487    0.327
       155 -10.3147      2.1010     42.1455   1.2794663271e+02   6.5789610505e+01    0.1692839    0.1316191 -18.07 0.0007411774    1.258    0.205
       156 -10.9016    139.6794     40.2375   8.2398552783e+01   4.5339326057e+01    0.3582005    0.2145558 -36.74  0.001316356    1.765    0.434
       157 -10.1679     35.9936     40.7463   1.1415668069e+02   6.3414038279e+01    0.2909962    0.1551717 -30.82  0.001640578    1.663    0.399
       158  -9.4593     51.4347     40.0070   1.0807897302e+02   6.1777008134e+01    0.1761822    0.1034306 -37.29 0.0007656991    1.513    0.339
       159  -9.1735     43.0117     40.7397   1.1147716964e+02   6.2662434985e+01    0.1339841   0.09648364  20.39 0.0004282104    1.443    0.307
       160 -11.9252    121.4074     36.5738   8.5389160505e+01   4.9970271764e+01    0.4886494    0.4177899  84.95    0.0027114    1.463    0.316
       161 -10.3819     13.1024     38.0202   1.2232087189e+02   6.5833953191e+01     0.316244   0.07679261 -44.37  0.001414945    2.820    0.645
       162 -10.0776    130.8256     37.7532   8.3565388939e+01   4.7712423967e+01    0.2418846    0.2132627  42.08 0.0007350013    1.044    0.042
       163 -11.6877    145.0371     32.9861   7.8980413094e+01   4.5006291617e+01    0.2520735    0.2439258 -19.48  0.001544481    1.120    0.107
       164 -11.2183     33.3910    247.5073   1.4766064779e+02   2.0061752280e+01    0.2367667    0.1557643  32.40  0.001279776    2.276    0.561
       165 -11.1162     50.3245     33.7605   1.0618920386e+02   6.2879644219e+01    0.2629094    0.2048388  -6.37 0.0003860305    1.097    0.089
       166 -10.6445      1.8248     35.8225   1.2624556105e+02   6.6913423499e+01    0.2346953    0.1472691 -33.25  0.001491139    1.226    0.184
       167 -11.1357    134.3375     33.9645   8.1539561403e+01   4.7392847806e+01    0.2352421    0.1736588  44.55 0.0003174604    1.248    0.199
       168  -9.8245    166.7427     31.8707   7.4613922346e+01   3.9865832515e+01    0.3685158    0.1333964 -40.59  0.001387017    2.877    0.652
       169 -11.2917     43.5005     30.1705   1.0741234403e+02   6.4249496885e+01    0.4382755    0.2700513   1.65  0.002568062    1.779    0.438
       170 -10.3576     43.6703     26.6741   1.0599246834e+02   6.4736822512e+01    0.3193414    0.1579968  26.38  0.001597961    2.102    0.524
       171  -9.6244    187.8084     29.6499   7.0678812623e+01   3.4905052242e+01    0.1890005    0.1784177  57.58  0.001145811    1.145    0.127
       172 -10.4848    150.0296     29.4169   7.6891840777e+01   4.4243751973e+01    0.4274277    0.1908276  69.17  0.001651728    2.593    0.614
       173  -9.6957    103.6928     29.8559   8.7556752055e+01   5.4551289093e+01    0.2701428    0.1245125  39.37  0.001100491    2.102    0.524
       174 -10.2097     69.7785     28.1778   9.7138253418e+01   6.0891512843e+01    0.2165284    0.1862668 -26.03 0.0008500272    1.278    0.217
       175  -9.7144      7.4437     28.2938   1.2150522388e+02   6.7837393642e+01    0.1809558    0.1182319  12.98 0.0009060011    1.672    0.402
       176  -9.1805    136.3301    245.6836   1.2948995586e+02   5.2380467535e+00    0.1301002   0.08470669  67.68 0.0004401109    1.682    0.406
       177  -9.9653    200.9653     26.0008   6.7934268181e+01   3.2094778511e+01    0.2044842    0.1778217 -86.46            0    1.031    0.031
       178 -10.1095    153.6487     25.8872   7.5139609440e+01   4.3781635368e+01    0.2920468    0.1803286  73.42 0.0009447439    1.708    0.414
       179  -9.8444    217.4582    245.0000   1.1431098340e+02  -8.4572509882e+00    0.2700236   0.05931333  41.60 0.0009275592    3.877    0.742
       180 -10.1412     59.0374     24.4206   9.9372886387e+01   6.3010889443e+01    0.2305516    0.1435297 -14.18 0.0008877227    1.570    0.363
       181  -9.5907     34.3701     25.2165   1.0910099780e+02   6.6002316543e+01    0.1460449   0.09342685 -41.06 0.0004962233    1.563    0.360
       182  -9.9481     50.7504     23.2932   1.0194911947e+02   6.4308230640e+01    0.1938116    0.1836635  45.15  0.001093888    1.630    0.387
       183 -11.3964     38.1007    242.4910   1.4656378373e+02   2.0424659508e+01    0.4516387    0.1424155  65.14  0.001796964    4.073    0.754
       184 -10.4832     87.7825     21.7459   8.8985471880e+01   5.8591196993e+01    0.4359487    0.3190421  56.07  0.002575766    1.600    0.375
       185 -10.2933     85.8915     17.1284   8.7746747078e+01   5.9454322246e+01    0.2097143    0.1576215  39.44 0.0003237398    1.226    0.184
       186  -9.5547    202.5073    240.1068   1.1626762650e+02  -5.3028165367e+00    0.1637825    0.1237768 -33.90 0.0007174457    1.517    0.341
       187  -9.3112     60.4727    241.0000   1.4269554686e+02   1.7837401340e+01    0.2369556   0.05635399  40.57 0.0009241782    3.850    0.740
       188 -12.4168     26.3059    235.8980   1.4803978100e+02   2.3051210564e+01    0.3437543    0.2402663 -83.39  0.001746749    1.277    0.217
       189 -11.1197     13.3423     20.5377   1.1616929466e+02   6.8630016659e+01    0.2949149    0.2572048  11.72  0.001516675    1.474    0.321
       190 -13.4255      9.5087    229.8171   1.5036928742e+02   2.6016462685e+01    0.6921694    0.3671942  86.02  0.004605938    1.453    0.312
       191  -9.8683      1.7857     21.6072   1.2167446851e+02   6.9259870334e+01    0.1974205    0.1102144 -43.83  0.001161416    1.387    0.279
       192 -10.1662     70.1520     35.2402   9.9712626374e+01   5.9860937634e+01     0.330866    0.1483889 -25.82  0.001478018    2.465    0.594
       193 -10.0877    171.4137     24.3282   7.1687296123e+01   3.9607356255e+01    0.3338452    0.1788717 -40.10  0.001563167    1.974    0.493
       194  -9.1234    210.6582    235.7111   1.1403806920e+02  -6.0487198659e+00    0.1295979   0.08717301  14.86 0.0003034055    1.647    0.393
       195 -10.2466     30.9982     19.9742   1.0839649514e+02   6.7105075497e+01    0.2215483    0.1326736 -37.11  0.001094311    1.522    0.343
       196  -8.9784     80.2889    231.6618   1.3829878250e+02   1.6821728742e+01     0.129181   0.07659123  72.63 0.0007021284    1.639    0.390
       197  -9.9770    175.1007     20.4683   7.0043074370e+01   3.9130996402e+01    0.2129956    0.1196966  64.72    0.0010213    1.567    0.362
       198  -9.6888    249.1554    234.1406   1.0682957206e+02  -1.2002397622e+01    0.1814511    0.1337095  11.96 0.0005306769    1.171    0.146
       199 -10.0954    199.9089     17.0452   6.5817232616e+01   3.3399772854e+01    0.2054693    0.1746917 -82.82 0.0005835454    1.066    0.062
       200 -10.0488    107.8154     16.6400   8.1707016211e+01   5.5193191565e+01    0.2783019    0.1807749  63.29  0.001493418    1.696    0.410
       201  -9.6988    140.0728    227.0506   1.2627297458e+02   7.8682926859e+00    0.2137917    0.1432374  69.24 0.0007009401    1.705    0.413
       202 -10.0395     32.7636    225.1526   1.4620688611e+02   2.4393623534e+01    0.2599393    0.1209997  50.21  0.001514968    1.846    0.458
       203  -9.9891     25.7054    225.0278   1.4740156307e+02   2.5220728497e+01    0.1616585    0.1127057  87.94 0.0006774282    1.112    0.101
       204 -11.9735      4.1950    232.6195   1.5136383980e+02   2.6018410082e+01    0.4009048     0.185425  79.89 0.0006215963    1.745    0.427
       205 -11.8003      7.7176    217.6469   1.4993010348e+02   2.8558735531e+01    0.3062983    0.1859034  82.48  0.001456637    1.214    0.176
       206 -10.8300     20.0306     16.8227   1.1178447223e+02   6.8612685017e+01     0.186569    0.1316193  11.91 0.0003942681    1.387    0.279
       207 -10.6381      4.3726    212.6395   1.5017867731e+02   2.9873396256e+01    0.2419766    0.1107179  47.90  0.001414572    1.987    0.497
       208 -10.4105    190.3550     13.8406   6.6181818361e+01   3.6090884663e+01    0.1924142    0.1501582  85.42 0.0007671323    1.154    0.134
       209  -9.5628    144.4389     14.4833   7.3282687240e+01   4.7200441642e+01    0.1328727    0.1163937  53.03 0.0001195229    1.018    0.018
       210  -9.2807     76.2135     14.5936   8.9648632984e+01   6.1453217672e+01    0.1666072   0.09568432  33.85  0.000531186    1.571    0.364
       211  -9.6407    246.4874    216.5170   1.0413435855e+02  -9.2357865673e+00    0.1274653    0.1044732   7.09 0.0008100162    1.038    0.037
       212  -9.6565    209.4105    211.8186   1.1011413438e+02  -2.1908120231e+00     0.180803    0.1230906 -23.80 0.0009454245    1.656    0.396
       213 -10.6951     15.9139    211.8557   1.4815772885e+02   2.8896132208e+01    0.1626423    0.1303029 -83.93 0.0009681811    1.274    0.215
       214  -9.6211    118.8137     11.6549   7.7401750109e+01   5.3326214738e+01     0.175989    0.1128646  66.76 0.0002415392    1.640    0.390
       215  -9.8041     20.6239    209.8367   1.4718715545e+02   2.8819135175e+01    0.1599621   0.08148063  90.00 0.0003550515    1.653    0.395
       216  -9.8726    246.8319    206.9421   1.0227957222e+02  -7.9239585880e+00    0.1998648      0.15199  -4.09 0.0008499408    1.251    0.201
       217 -10.2875      2.3908    205.7729   1.5008478773e+02   3.1434709888e+01    0.1489644   0.07668851 -72.73 0.0005861748    1.605    0.377
       218  -9.6655    197.2565    204.0125   1.1104549636e+02   1.3647988391e+00    0.1668243    0.1189909 -39.16 0.0005281669    1.506    0.336
       219 -11.0051      9.4624    203.3189   1.4869247802e+02   3.1273194379e+01    0.2168138     0.144052  79.08  0.000748015    1.137    0.120
       220  -8.8481    181.6732    199.3517   1.1331520978e+02   5.1929047117e+00    0.1427123    0.1109085  81.44  0.000704785    1.764    0.433
       221  -9.5742     23.0694    197.4954   1.4577861091e+02   3.1130184889e+01    0.1550263    0.1040486  46.80  0.000499581    1.568    0.362
       222  -9.8394      6.7371    191.7030   1.4835513469e+02   3.3935068112e+01    0.1579375   0.09558578  77.16  0.001033444    1.345    0.257
       223 -10.0719     15.4108    185.5708   1.4624409855e+02   3.4433007645e+01    0.2197557   0.08969422 -80.56  0.001109697    2.072    0.517
       224  -9.5358      1.3191    183.2505   1.4873944558e+02   3.6184518284e+01    0.1561267    0.0770832 -85.56 0.0005819995    1.579    0.367
       225  -9.0237    250.3152    183.3184   9.7024635376e+01  -4.9204699840e+00    0.1371907   0.09524808   1.91 0.0004819997    1.652    0.395
       226 -10.8216      4.5930    167.4079   1.4684453138e+02   3.9309416567e+01     0.285603    0.1759766  54.69  0.001431804    1.648    0.393
       227  -9.0851    111.5802    162.5581   1.2194166244e+02   2.6612541014e+01    0.1461652    0.1329179  89.45 0.0001015601    1.021    0.021
       228  -9.1972     41.7024    158.3485   1.3783833670e+02   3.7820482673e+01    0.1329174   0.08317526  78.54  0.000703512    1.681    0.405
       229  -9.0669    247.4573    155.5277   9.1706107320e+01   1.7611600424e-01    0.1386787    0.1250104 -20.08 0.0001152463    1.005    0.005
       230 -10.3706      3.5121    153.7171   1.4583893440e+02   4.2385112600e+01    0.2602263   0.07363012  34.95  0.001229044    3.616    0.723
       231  -9.7151     14.5430    150.5017   1.4308995153e+02   4.2227544790e+01    0.1200429   0.09113907 -79.53 0.0008090894    1.010    0.010
       232 -10.2305     21.9312    143.3160   1.4055604757e+02   4.3217912273e+01    0.2208057    0.1377091 -81.57  0.001163124    1.367    0.269
       233  -9.8743      2.4400    138.4893   1.4455590948e+02   4.5816585189e+01    0.1167612   0.08615795 -78.40 0.0001251722    1.014    0.014
       234 -10.7999     12.7443    130.4915   1.4117681471e+02   4.6856307875e+01    0.4132207    0.1949449  67.96  0.001515627    3.099    0.677
       235  -9.4611     29.3042    129.1112   1.3681766327e+02   4.5797850787e+01    0.2740561    0.1324177  89.58  0.001143307    3.051    0.672
       236  -9.6273     21.2161    126.1679   1.3846934321e+02   4.7165173525e+01    0.1738088    0.1271463 -70.10  0.000414477    1.074    0.069
       237 -11.2924     24.1591    122.3685   1.3715130930e+02   4.7780063841e+01    0.2532487    0.1893412 -81.94 0.0002813758    1.219    0.180
