#   1 NUMBER                 Running object number                                     
#   2 MAG_AUTO               Kron-like elliptical aperture magnitude                    [mag]
#   3 X_IMAGE                Object position along x                                    [pixel]
#   4 Y_IMAGE                Object position along y                                    [pixel]
#   5 X_WORLD                Barycenter position along world x axis                     [deg]
#   6 Y_WORLD                Barycenter position along world y axis                     [deg]
#   7 A_WORLD                Profile RMS along major axis (world units)                 [deg]
#   8 B_WORLD                Profile RMS along minor axis (world units)                 [deg]
#   9 THETA_WORLD            Position angle (CCW/world-x)                               [deg]
#  10 FWHM_WORLD             FWHM assuming a gaussian core                              [deg]
#  11 ELONGATION             A_IMAGE/B_IMAGE                                           
#  12 ELLIPTICITY            1 - B_IMAGE/A_IMAGE                                       
         1 -11.9549    195.2322      8.6638   6.2043595941e+01   3.5276898331e+01     0.856722    0.3515497  45.62  0.003458408    3.244    0.692
         2 -16.2860    206.0299    127.2753   8.9989820797e+01   1.4027456910e+01     6.032674     4.005424  82.80   0.01865577    2.399    0.583
         3 -14.0782    178.7697     27.4185   6.8915047328e+01   3.7216123252e+01     0.985388    0.7466897 -85.91  0.003592387    1.334    0.250
         4 -14.4330    178.8831     78.9550   8.2900817476e+01   2.9625748204e+01     2.556487     1.741974  78.67   0.01136014    1.773    0.436
         5 -18.0690    235.5429     21.1137   6.0762796710e+01   2.4499731129e+01     9.760157     7.690132  77.45   0.05644568    1.211    0.174
         6 -10.7009     91.8898     12.6990   8.1257289657e+01   5.8525730528e+01    0.2072338    0.1515558   0.94 0.0006735237    1.388    0.280
         7 -13.5516    150.8702      8.4127   6.7790487325e+01   4.5928268749e+01    0.5261716    0.2398493 -28.70  0.002101947    2.435    0.589
         8  -9.5937    156.3852     10.7128   6.7611999524e+01   4.4406281110e+01    0.1655616    0.1259473  -0.44 0.0008953797    1.671    0.401
         9 -11.6567    208.1676      8.2097   6.0575121031e+01   3.2263777028e+01    0.2705068    0.1885429 -37.72  0.001099977    1.558    0.358
        10 -11.7220    207.8541      2.4558   5.9299339616e+01   3.2925089922e+01    0.3000019    0.2006971  27.30  0.001597789    2.463    0.594
        11 -10.5300    178.2990      1.5521   6.2207392471e+01   3.9998792057e+01     0.218213    0.1267229  70.88  0.001170822    1.443    0.307
        12 -11.8916     56.5235      2.2675   8.7543325176e+01   6.5740526856e+01    0.2911249    0.1261887  41.39  0.001579418    1.988    0.497
        13  -9.4953    105.3076      1.6357   7.3950311573e+01   5.6737437730e+01    0.1157309   0.09227163 -65.97 0.0007038376    1.746    0.427
        14 -12.1943    189.3539    148.4481   9.8326582970e+01   1.3468843704e+01     0.535879    0.3061336 -67.60  0.001672633    3.273    0.694
        15 -11.7920    241.9861    249.7173   1.0810919645e+02  -1.3277923973e+01    0.3583463   0.08981068  39.06  0.001401084    3.549    0.718
        16 -14.2178     41.3006    186.5326   1.3932468428e+02   3.1410318692e+01     1.587938    0.7772662  75.32  0.007195345    2.513    0.602
        17 -10.5457    121.8861    113.1564   1.0551799639e+02   3.5986614651e+01    0.2444555    0.2139568  89.69   0.00123618    1.296    0.228
        18  -9.3350    111.4177    113.5296   1.0842226770e+02   3.7994701699e+01    0.1507643    0.1425296 -43.33 7.134507e-05    1.027    0.026
        19 -14.6701      9.4843    205.9628   1.4732462714e+02   3.0547238067e+01     1.561384    0.9014758  87.51   0.00748793    1.362    0.266
        20 -15.0460     28.5074    196.4741   1.4294519015e+02   3.0634614925e+01     1.009122    0.7576398  83.59  0.003701325    1.048    0.046
        21 -12.0009    121.5357    102.3571   1.0271771997e+02   3.8397695755e+01    0.4983338    0.3679061  11.06  0.002229739    1.859    0.462
        22 -10.4501    111.6932    103.9842   1.0582696946e+02   4.0040217762e+01    0.2179676     0.193624 -43.27 0.0005588166    1.084    0.077
        23  -9.8698    139.7001    103.4307   9.8338983636e+01   3.4243200486e+01    0.2096631    0.1481515  36.58  0.000674825    1.532    0.347
        24 -11.2967    144.5974     99.0208   9.5925656530e+01   3.4040052642e+01    0.3366732    0.2798933 -24.40 0.0005930256    1.316    0.240
        25 -10.3753    133.8566    147.6871   1.1081280668e+02   2.5658419147e+01    0.5701756    0.1888444 -55.44  0.001625617    3.724    0.731
        26 -10.9093    131.7765     95.7557   9.8202947540e+01   3.7578273140e+01    0.3061875    0.2583624 -35.39  0.000690016    1.190    0.160
        27 -10.4494    132.6439    140.9653   1.0958718443e+02   2.7457526811e+01    0.6722075    0.1782132 -55.15  0.001511106    5.930    0.831
        28 -11.7954    137.7192     88.4096   9.4612887614e+01   3.7709486280e+01     0.349984    0.3159038 -76.38 0.0007413771    1.221    0.181
        29 -13.0209    150.3066     81.4389   8.9607472128e+01   3.6104515856e+01    0.4359267    0.3477699 -13.79  0.001537436    1.497    0.332
        30 -13.4323    181.9923     67.6336   7.9256073096e+01   3.0773096151e+01     1.067099    0.5202548  33.95  0.003401733    3.891    0.743
        31 -10.2139    216.9559     72.2220   7.4696945195e+01   2.1528869986e+01    0.2277788    0.1719557 -69.04 0.0008161099    1.341    0.254
        32  -9.5198    112.8729     71.8670   9.6116630552e+01   4.6182435786e+01    0.1851452    0.1683268 -63.95 0.0003304046    1.268    0.212
        33 -11.5431    168.5367     69.7274   8.2378282673e+01   3.3744071146e+01    0.4348658     0.345866  89.92 0.0009708961    1.419    0.295
        34 -13.7322    163.1257     66.2267   8.2468816522e+01   3.5646451279e+01    0.5163131     0.379102 -15.81  0.001878008    1.704    0.413
        35 -11.8174    136.4187     66.9198   8.8544836324e+01   4.1892567107e+01    0.4982437    0.2486871 -35.57  0.002037712    2.068    0.517
        36 -11.3109    145.8138     54.8155   8.2718174601e+01   4.1613580320e+01     0.283973    0.2471719 -58.69  0.001559299    1.255    0.203
        37 -12.4687    144.0582     65.7073   8.6400433164e+01   4.0316271648e+01    0.6581725    0.3889838 -37.14  0.002936213    1.738    0.425
        38 -12.2067    141.5462     58.6928   8.4840084603e+01   4.2029505769e+01    0.4813273    0.3676609  -8.95  0.002224584    1.584    0.369
        39 -10.6143    121.1701     68.8548   9.2952859473e+01   4.4963531755e+01    0.2256792    0.2040135 -82.07  0.001016781    1.318    0.241
        40 -12.8025     68.0821    144.7394   1.2704307087e+02   3.7854239965e+01      2.80583     1.454813  80.76  0.007937655    4.729    0.789
        41 -10.6033    130.5223     65.9911   8.9687801826e+01   4.3388914601e+01    0.2227625    0.1436763 -35.06  0.001031901    1.590    0.371
        42  -9.6315    204.3083     42.6746   6.9253070788e+01   2.9026151055e+01    0.4673286    0.2444822  57.49  0.002023502    1.834    0.455
        43 -10.5115    205.6742     64.1303   7.4403768126e+01   2.5528596082e+01    0.3178832    0.2513541  58.32  0.001259344    1.283    0.221
        44 -12.0827    207.4874     59.3611   7.2941698743e+01   2.5831655071e+01      0.90731    0.4245814 -69.25  0.002720695    4.584    0.782
        45 -13.8379    196.7081     54.2176   7.3260983437e+01   2.9232581051e+01    0.9509367     0.826651  10.86  0.004268107    1.505    0.335
        46 -13.1259    207.5121     46.6618   6.9800343927e+01   2.7696227430e+01     0.482581    0.3088053  39.33  0.002277754    2.096    0.523
        47 -10.2600    118.6612     64.3149   9.2179355347e+01   4.6273995989e+01    0.1427011     0.115514 -81.54 0.0007047563    1.699    0.412
        48  -9.4159     99.9818    136.9826   1.1708168391e+02   3.4682575463e+01    0.1739572    0.1634172 -70.38 0.0003466565    1.008    0.008
        49 -10.0566    219.9812     57.8720   7.0819387914e+01   2.3075899327e+01     0.190745    0.1668233 -71.78 0.0003056016    1.022    0.021
        50 -10.5504    125.5410     56.0925   8.7799264688e+01   4.6093100725e+01    0.2129141    0.1388193 -35.05  0.001024118    1.583    0.368
        51 -10.9338    227.2352     51.1069   6.8300358428e+01   2.2386289919e+01    0.3767762    0.2627618 -74.19  0.002000876    1.430    0.301
        52 -11.7543    217.3249     48.7970   6.9013008455e+01   2.5043733452e+01     0.472524    0.3402582   8.11  0.001790428    2.469    0.595
        53  -9.9269    135.3286     51.2982   8.3954191568e+01   4.4592157009e+01    0.1474421    0.1050302  25.29 0.0004117921    1.637    0.389
        54 -11.1686    142.4184     49.7220   8.1891784237e+01   4.3164086268e+01    0.2987667     0.212609  39.22  0.001501704    1.423    0.297
        55 -12.0177    134.4734    107.6263   1.0078858716e+02   3.4516558782e+01     1.902371    0.3252277 -43.42  0.004273893    5.820    0.828
        56  -9.7523    167.3222     42.1512   7.4805445822e+01   3.8184472356e+01    0.1878229    0.1213069 -44.40 0.0003915545    1.631    0.387
        57 -10.2334    175.8360     38.3550   7.2324482525e+01   3.6587020938e+01    0.1895464    0.1676793 -75.01 0.0002460114    1.127    0.113
        58 -11.6315    205.0229     36.9273   6.7744580059e+01   2.9625445576e+01    0.4507114    0.2338522  70.54  0.001190673    1.834    0.455
        59 -11.0848    152.3369    119.6770   9.9574723698e+01   2.7942037732e+01    0.4087178    0.2800335 -24.07  0.001702155    1.878    0.467
        60 -10.1795    204.4557     30.6690   6.6290851301e+01   3.0566039604e+01    0.3228861     0.170852 -67.82  0.001405452    2.314    0.568
        61 -11.8414    195.8505     29.7502   6.7161654225e+01   3.2762531978e+01    0.2307487    0.1826266 -61.61 0.0006674467    1.239    0.193
        62 -11.4661     86.5524     24.9279   8.7387614630e+01   5.8270818293e+01    0.2630709    0.1771231  40.95 0.0008952761    1.346    0.257
        63 -11.1104     94.6721     20.2865   8.3374782638e+01   5.7222887955e+01    0.1847585    0.1764818  21.67 0.0007600427    1.191    0.160
        64 -11.9275    152.5813     18.5200   7.0483187450e+01   4.4552197631e+01    0.2312892     0.209979  68.04 0.0003022282    1.039    0.037
        65 -10.8696     84.3638     15.1977   8.4275029449e+01   5.9723606551e+01    0.2242616    0.1414306 -24.64 0.0007559106    1.650    0.394
        66 -10.3329    156.7779     15.5105   6.8929722076e+01   4.3849916693e+01    0.2938316    0.1917244 -67.48  0.001502467    1.895    0.472
        67 -14.2173     66.1812    163.8283   1.3069939053e+02   3.3543277667e+01    0.9466914    0.7108706  61.43  0.001898851    1.355    0.262
        68 -10.3936     53.5289     13.5287   9.3485211819e+01   6.5073427624e+01    0.1609571    0.1005469 -34.05 2.564795e-05    1.765    0.434
        69 -13.8479     54.7564    175.5572   1.3505000645e+02   3.2291297221e+01    0.6465731    0.6111378  -7.94  0.001007334    1.469    0.319
        70 -10.9512    136.0000    130.4615   1.0626120651e+02   2.9152746245e+01    0.4486618    0.2134669 -49.76   0.00155933    2.091    0.522
        71 -14.5504     61.3244    169.9050   1.3275868616e+02   3.2760769412e+01     1.255197     1.051457  34.79  0.002571483    1.434    0.303
        72 -11.3379     41.8804    201.5582   1.4077422616e+02   2.7983418172e+01    0.2085208    0.1410073 -69.36 0.0005126455    1.362    0.266
        73 -10.4798      8.3484    170.2999   1.4464041213e+02   3.8410388861e+01    0.1131785    0.0762957 -51.86 0.0004822562    1.687    0.407
        74 -11.0372    134.5176    125.4837   1.0540609789e+02   3.0590714438e+01    0.3695856    0.3157823 -70.32   0.00119888    1.245    0.197
        75 -10.6038    135.0000    120.4968   1.0402816933e+02   3.1600684783e+01    0.4490363    0.1505439 -47.62  0.001390426    2.961    0.662
        76 -12.5502    161.0989    128.2075   9.9681026877e+01   2.4109210076e+01    0.5698603    0.4913451  68.94  0.002035162    1.236    0.191
        77 -12.4025    230.3493    167.1145   9.4450695776e+01   1.3889580893e+00    0.3677198    0.2725985 -51.42  0.001617151    1.488    0.328
        78 -11.5721    192.3985    194.3851   1.0749603258e+02   3.7167117052e+00    0.9624215    0.4778422 -64.16   0.00259521    6.338    0.842
