#   1 NUMBER                 Running object number                                     
#   2 MAG_AUTO               Kron-like elliptical aperture magnitude                    [mag]
#   3 X_IMAGE                Object position along x                                    [pixel]
#   4 Y_IMAGE                Object position along y                                    [pixel]
#   5 X_WORLD                Barycenter position along world x axis                     [deg]
#   6 Y_WORLD                Barycenter position along world y axis                     [deg]
#   7 A_WORLD                Profile RMS along major axis (world units)                 [deg]
#   8 B_WORLD                Profile RMS along minor axis (world units)                 [deg]
#   9 THETA_WORLD            Position angle (CCW/world-x)                               [deg]
#  10 FWHM_WORLD             FWHM assuming a gaussian core                              [deg]
#  11 ELONGATION             A_IMAGE/B_IMAGE                                           
#  12 ELLIPTICITY            1 - B_IMAGE/A_IMAGE                                       
         1 -14.2225    166.8649     49.7702   7.2767449897e+01   3.7139945580e+01     1.939193     1.195939  26.41   0.00608373    2.183    0.542
         2 -14.0889    180.9393     34.7878   6.5732413285e+01   3.5647106563e+01    0.9819211    0.9080417  36.82  0.003507648    1.118    0.105
         3 -12.4377    189.8710     14.9430   5.8703696429e+01   3.5710907029e+01     0.291819     0.259837 -47.17 0.0009916459    1.205    0.170
         4 -13.7770    201.6163      3.9332   5.4231801968e+01   3.3875988529e+01    0.9501589    0.5071796  65.36  0.004102923    1.620    0.383
         5 -11.2659     77.6945     10.2124   8.1048889624e+01   6.1317489315e+01    0.2845925    0.1714378  52.59  0.001421467    1.997    0.499
         6 -12.4682     60.2650      6.4453   8.5210612394e+01   6.4487083523e+01     0.453344    0.1949228  49.47  0.002016444    3.134    0.681
         7 -10.9072    114.5335      3.9924   6.8690451813e+01   5.4851083302e+01    0.2245808    0.1774886  71.06 0.0006112556    1.503    0.335
         8 -10.7661    167.2691    188.3676   1.0654806168e+02   1.1281677870e+01    0.2600962    0.2236909 -80.28   0.00149652    1.350    0.259
         9 -18.7438     51.1943    244.6724   1.3447399087e+02   1.9944292191e+01     5.971371     4.992929  67.11   0.04969864    1.354    0.261
        10 -10.0915     67.1320    189.4967   1.2685680920e+02   2.8095964255e+01    0.1657111    0.1080442  46.98 0.0004710791    1.508    0.337
        11 -10.9574    205.5256    180.4929   9.7513216272e+01   4.9667955294e+00    0.2748383    0.2262323  55.71  0.001006955    1.291    0.225
        12 -11.0623    208.5084    178.5101   9.6548119438e+01   4.6915574136e+00    0.3309565    0.2465976  24.44  0.001747978    1.381    0.276
        13 -13.7300     10.6608    206.3143   1.3829414502e+02   3.1216415346e+01    0.4437258    0.2571673  42.30  0.003198324    1.872    0.466
        14 -12.1561    137.6355    171.4227   1.0968497416e+02   2.0303374322e+01    0.3381312    0.2693824 -80.14  0.001353851    1.382    0.277
        15 -12.0285     78.5714    174.1991   1.2269575449e+02   2.9664729734e+01    0.2603866    0.1699458  69.51  0.001121283    1.544    0.352
        16 -10.4839    158.4492    204.4513   1.1098416864e+02   1.0137812558e+01    0.3620276    0.1730611  65.36  0.001192581    4.361    0.771
        17  -9.8724    195.6906    174.3203   9.8212018711e+01   8.0144547172e+00    0.2138891    0.1691583 -88.62 0.0006938417    1.806    0.446
        18 -11.5370    195.9320    170.0700   9.7308972487e+01   8.7046463236e+00     0.377452    0.3743312 -81.47  0.001067139    1.122    0.109
        19 -10.8657    193.8137    164.9655   9.6685038790e+01   1.0052157476e+01    0.3365366    0.3190275  80.53  0.001507445    1.178    0.151
        20 -10.4848      5.3807    161.7878   1.3605777031e+02   4.0313007265e+01    0.1492646    0.1145751  68.29 0.0005131917    1.258    0.205
        21 -10.1031    163.3447    204.0163   1.0996404895e+02   9.2911558426e+00    0.1737458    0.1668149  89.52 0.0004493161    1.158    0.136
        22 -10.2283      1.4046    249.9749   1.4191335321e+02   2.4549829485e+01    0.1212197   0.06695598 -81.21 0.0009594369    1.550    0.355
        23 -10.6189    165.6927    154.3405   1.0031373044e+02   1.8037104521e+01    0.2312863    0.1747527  83.84 0.0006450898    1.746    0.427
        24  -9.9176      9.8577    153.5073   1.3447585348e+02   4.1638741302e+01     0.131842    0.1048634  43.50  0.001012061    1.533    0.348
        25 -12.7133    133.9830    145.3285   1.0549519560e+02   2.6411310450e+01     1.156591    0.3067044 -55.00  0.003000334    5.378    0.814
        26 -12.5748    110.6877    149.2506   1.1164155071e+02   2.9912275246e+01    0.4539088    0.2690509  57.47    0.0021079    1.835    0.455
        27 -12.4801    193.3928    192.5308   1.0214334228e+02   5.4038733971e+00    0.7582591    0.4625372 -50.91  0.003140276    2.008    0.502
        28 -12.2129    144.5325    145.3612   1.0309541072e+02   2.4283673288e+01    0.4096404    0.2975334 -79.74  0.001441487    1.788    0.441
        29 -11.3529      7.9812    145.2987   1.3409616330e+02   4.3473586061e+01    0.2555673    0.2095942 -42.55   0.00124263    1.616    0.381
        30 -13.0200    110.6161    139.7526   1.0983757050e+02   3.1985452449e+01    0.6906332    0.4265205 -32.02  0.003006822    2.356    0.576
        31 -12.4631    100.1834    139.5502   1.1228845678e+02   3.3816651547e+01    0.2656071    0.2519211 -63.70 0.0004535844    1.107    0.096
        32 -13.2306      4.0675    129.1220   1.3332237087e+02   4.7102289801e+01    0.8494432      0.29109 -72.63  0.004338856    2.221    0.550
        33 -12.2988    117.8802    129.7466   1.0601780882e+02   3.2840339524e+01    0.3810029      0.35417  13.39  0.001090714    1.245    0.197
        34 -10.9415    160.8251    127.8709   9.5483760267e+01   2.4396528925e+01    0.3633784    0.2084361 -51.82  0.001497315    1.897    0.473
        35 -12.1052    135.5508    123.4330   1.0031734583e+02   3.0730207198e+01    0.6280194    0.1739969 -49.33  0.001839087    3.807    0.737
        36 -12.0170     15.9288    128.1102   1.3054334657e+02   4.6452162263e+01    0.2064378    0.1556582  85.05  0.001121104    1.232    0.188
        37 -11.5909    125.4897    127.4696   1.0366877316e+02   3.1882415805e+01    0.3311002    0.2207145  85.72  0.001369238    2.388    0.581
        38 -10.5771    111.9975    119.0234   1.0509907696e+02   3.6242848781e+01    0.2127891    0.2039192 -69.29 0.0003349811    1.005    0.005
        39 -11.8531    105.9888    130.8216   1.0915215600e+02   3.4744127433e+01    0.4385737     0.299735 -62.05  0.001231783    1.461    0.315
        40 -12.0756     67.2352    116.7395   1.1614646250e+02   4.3707491232e+01    0.2497916    0.1893507  76.74  0.001216146    1.538    0.350
        41 -11.1571    168.2066    113.0206   9.0192617242e+01   2.5683930663e+01    0.4110487     0.317645 -77.76  0.001255201    1.675    0.403
        42 -11.1687    105.3680    126.0955   1.0831618891e+02   3.5884317175e+01    0.2645927    0.2250175 -17.53  0.001154694    1.473    0.321
        43 -10.4041    205.5406    110.1903   8.1750056659e+01   1.7382012310e+01     0.278239    0.2125782  51.26 0.0006014554    1.301    0.231
        44 -12.5007     61.1491    108.9332   1.1623457426e+02   4.6170512780e+01    0.3023102    0.2694665 -28.21  0.001974134    1.269    0.212
        45 -10.8720    134.6803    105.0446   9.6010022962e+01   3.4741499493e+01    0.4781363    0.1348754 -40.57  0.001373519    3.860    0.741
        46 -11.4661     66.9763    104.4677   1.1374607818e+02   4.6410896085e+01    0.2926642    0.1976873  21.06  0.001583939    1.910    0.477
        47 -10.4640    209.1980    198.1902   1.0017070778e+02   1.4401278299e+00    0.1750999    0.1560979  65.28 0.0006298352    1.347    0.258
        48  -9.7164    150.6875     79.7000   8.5179798294e+01   3.6119136157e+01    0.1539687    0.1183407  14.60 0.0004363423    1.606    0.378
        49 -10.2767     81.8067     76.0136   1.0253216216e+02   5.0259762733e+01    0.2108211    0.1871443  26.26 0.0003693339    1.214    0.176
        50 -10.5114    176.8183     74.9247   7.8085686532e+01   3.0655952092e+01    0.2585226    0.2206125  80.47 0.0004202757    1.289    0.224
        51 -10.1811     13.5141     59.9324   1.2005952621e+02   6.0621734869e+01    0.1553332    0.1251859 -45.86 0.0004306587    1.071    0.067
        52 -10.5027    169.1373    236.9920   1.1379405148e+02   3.0112204532e+00    0.1835491    0.1504932  48.18 0.0004409079    1.032    0.031
        53 -10.4841    198.6920    222.8907   1.0635608363e+02  -2.3830554689e-01     0.167646    0.1498016  38.03 0.0004641821    1.103    0.094
        54 -13.2879    185.0864     28.1862   6.3149635415e+01   3.5414934115e+01     0.575751    0.4873845  65.61  0.001154923    1.087    0.080
        55 -11.9976     97.5823    213.2176   1.2379678804e+02   1.9075242104e+01    0.2853597    0.2172373  47.03  0.001844935    1.315    0.239
        56 -10.9203      9.8735    214.2188   1.3889491102e+02   2.9845503819e+01    0.1137671   0.07787169  39.10 0.0005895218    1.863    0.463
        57 -19.0846     33.4686    101.6513   1.2233950499e+02   5.0631469311e+01     15.84871    0.7495109 -62.66   0.02603699   17.979    0.944
        58 -10.2847     64.4753    195.5399   1.2801548888e+02   2.7240121329e+01    0.1947328    0.1605167  83.42 0.0005788514    1.076    0.071
