#   1 NUMBER                 Running object number                                     
#   2 MAG_AUTO               Kron-like elliptical aperture magnitude                    [mag]
#   3 X_IMAGE                Object position along x                                    [pixel]
#   4 Y_IMAGE                Object position along y                                    [pixel]
#   5 X_WORLD                Barycenter position along world x axis                     [deg]
#   6 Y_WORLD                Barycenter position along world y axis                     [deg]
#   7 A_WORLD                Profile RMS along major axis (world units)                 [deg]
#   8 B_WORLD                Profile RMS along minor axis (world units)                 [deg]
#   9 THETA_WORLD            Position angle (CCW/world-x)                               [deg]
#  10 FWHM_WORLD             FWHM assuming a gaussian core                              [deg]
#  11 ELONGATION             A_IMAGE/B_IMAGE                                           
#  12 ELLIPTICITY            1 - B_IMAGE/A_IMAGE                                       
         1 -13.1388    202.5896     34.9735   5.4771424289e+01   3.0198076168e+01     1.278769      1.13109  10.90  0.006693989    1.257    0.204
         2 -13.7048    219.5725     18.0667   4.7681752266e+01   2.7836873003e+01     1.315594    0.9333071  35.62  0.006568465    1.670    0.401
         3 -12.3578      2.1288     21.2635   1.0811678409e+02   6.9171785984e+01      1.21427    0.1210877 -59.09  0.003411515    7.743    0.871
         4 -11.2215     15.4150      3.4358   9.5282458515e+01   7.1350993846e+01    0.2152963    0.1604094   0.10  0.001349276    1.370    0.270
         5 -10.4000    115.2414    245.9901   1.1580079868e+02   1.1866193326e+01    0.1206583   0.08741922 -72.89 0.0006980263    1.613    0.380
         6 -12.6251    160.1666    249.4501   1.0897411246e+02   4.4578772328e+00    0.7119443    0.1832716  43.52  0.003048257    2.995    0.666
         7 -12.0651    139.5418    248.6382   1.1219132711e+02   7.8051444348e+00    0.3095507    0.2687762  78.95  0.002489645    1.274    0.215
         8 -11.7028    126.0456    249.0614   1.1437968119e+02   9.8138330996e+00    0.3110338     0.206101  67.20  0.002185629    1.394    0.282
         9 -14.7709    103.0004    229.3249   1.1621969228e+02   1.6206938432e+01     7.177341    0.8532651  50.56   0.01796466    9.225    0.892
        10 -14.1980     26.8036    182.5508   1.2534883298e+02   3.4226459155e+01     4.489323     1.406844  75.97  0.001327936   10.188    0.902
        11 -14.1063     30.6673    215.4924   1.2687013884e+02   2.7791404217e+01    0.7835232    0.5558197  73.27  0.002491265    1.052    0.049
        12 -10.5168     52.7098    241.7616   1.2510125837e+02   2.0931399272e+01    0.2241516    0.1125877  78.06  0.001300507    1.787    0.440
        13 -13.3097     40.8828    206.3182   1.2463136446e+02   2.8296292427e+01    0.9209419    0.6007129  46.81 0.0006785581    1.547    0.353
        14 -10.4982    104.1942    239.1803   1.1693992911e+02   1.4498301407e+01    0.1586047   0.09959272  65.44 0.0007969636    1.338    0.252
        15 -12.0513     37.9962    232.5005   1.2674115204e+02   2.4121377489e+01    0.3282712    0.1925121  72.85  0.002097468    1.252    0.201
        16 -15.2857      8.8792    211.1266   1.2999997261e+02   3.0728617310e+01     11.31376     1.073342 -78.14   0.02860213   13.594    0.926
        17 -10.6786    224.7733    198.8103   9.0716273548e+01  -1.0048450110e-01    0.2937598    0.2201781 -56.64 0.0009896067    2.066    0.516
        18 -10.3025     89.2302    244.8065   1.1977559046e+02   1.5760980856e+01    0.1839029   0.08003457  69.05 0.0009470698    2.759    0.638
        19  -9.7065    191.9269    193.0820   9.5558709972e+01   6.7381404035e+00    0.2837558    0.1689357 -65.07  0.001226476    3.292    0.696
        20 -11.5897     53.9708    191.3656   1.2119997501e+02   2.9543473105e+01    0.2442855    0.2058402 -63.70 0.0005524135    1.541    0.351
        21  -8.3650    181.5204    192.4841   9.7374704682e+01   8.7847185595e+00    0.1311636    0.1128154  42.71  8.15517e-05    1.002    0.002
        22  -8.5844     72.6522    187.3420   1.1738269444e+02   2.7938747756e+01    0.1290394    0.0720203  71.70  0.000704508    1.796    0.443
        23 -11.8007     60.7589    183.8650   1.1926088613e+02   3.0155281911e+01    0.2282628     0.195103 -75.55 0.0004704917    1.328    0.247
        24 -13.0255     24.4138    222.7198   1.2823785627e+02   2.7211077354e+01    0.3433464    0.2278358 -86.42 0.0007479064    1.309    0.236
        25 -10.8797     71.9867    172.1286   1.1583860196e+02   3.1034002871e+01    0.2179369    0.1829635 -82.33 0.0003518477    1.157    0.136
        26 -13.2590     58.2252    169.4023   1.1827107985e+02   3.3351352542e+01    0.4187684    0.2423492 -51.12  0.002151202    2.172    0.540
        27 -11.1973     32.4117    167.8991   1.2315673411e+02   3.6542919256e+01     0.336133    0.1692528 -84.23  0.001992942    1.695    0.410
        28 -11.9299     80.3428    163.6248   1.1308549441e+02   3.1623712785e+01    0.5546419    0.4698313  74.74   0.00371302    1.069    0.064
        29 -10.9314     22.8216    156.7647   1.2406263978e+02   3.9726348718e+01     0.208943    0.1433256 -52.35  0.001405513    1.838    0.456
        30 -10.1720     94.1731    149.0062   1.0798702422e+02   3.2644727113e+01    0.2866386     0.238666  72.84 0.0008969178    1.112    0.101
        31 -11.9118     82.4591    147.6874   1.1038806714e+02   3.4679872464e+01    0.2662112    0.2105607 -60.18 0.0004880549    1.277    0.217
        32 -12.3932     67.7182    143.9000   1.1312802397e+02   3.7512927564e+01    0.6499621     0.401905  74.23  0.002830127    1.770    0.435
        33  -9.5029    107.3307    135.0179   1.0254788993e+02   3.3501887021e+01     0.273246    0.2144148  -3.98  0.001217236    2.066    0.516
        34  -9.5627     68.5113    134.9555   1.1163293664e+02   3.9355285722e+01    0.1827906    0.1597633  72.97 0.0004200522    1.137    0.121
        35  -9.1366     97.7744    145.1681   1.0655305954e+02   3.2897057224e+01    0.1659856     0.155617 -42.32 0.0003986207    1.313    0.238
        36 -10.1704     94.2003    131.9021   1.0506070797e+02   3.6332797705e+01    0.2094653    0.2051452 -33.20 0.0003909524    1.250    0.200
        37  -9.0960    105.2129    122.2186   1.0051918346e+02   3.6640361616e+01    0.1782067    0.1489577  88.53 0.0003110874    1.231    0.188
        38  -9.9447     53.1607    118.0081   1.1269282321e+02   4.4956130956e+01    0.2121889    0.1248856  89.61  0.001083217    1.978    0.494
        39  -9.5201    167.6936    112.7055   8.3665223947e+01   2.5958744535e+01    0.3051814    0.2186255 -81.38  0.001294585    2.075    0.518
        40  -9.1017    203.4659    111.4821   7.6037176175e+01   1.7850141009e+01    0.1522788    0.1437706  10.22 0.0003155392    1.047    0.045
        41 -10.7683    245.0167    105.1962   6.7215897758e+01   9.3449544475e+00     0.229936    0.1722743 -78.84  0.001091477    1.982    0.496
        42  -8.6953    184.3410     77.3103   7.0513475467e+01   2.8482971514e+01    0.1635097     0.120146  20.38 0.0007045066    1.694    0.410
        43 -12.4966      4.5647    246.5121   1.3210085786e+02   2.5350120442e+01    0.8247089    0.3717773  84.21  0.005263631    1.694    0.410
        44  -9.8790    236.4926    249.5174   9.6820560923e+01  -7.6086713247e+00    0.1112051   0.07998309  29.83 9.102343e-05    1.002    0.002
        45 -13.9099     14.7856    239.2137   1.3042228508e+02   2.5491838850e+01     2.249054    0.5439126  53.04   0.01301881    2.651    0.623
        46 -10.4073    101.0106    249.5180   1.1833686034e+02   1.3417051225e+01    0.1645555   0.07931866  48.17  0.001027126    1.575    0.365
        47 -10.4312     22.7858     28.1354   1.0164942870e+02   6.6579200108e+01    0.2135361    0.1520507  42.48  0.001231305    2.014    0.504
