#   1 NUMBER                 Running object number                                     
#   2 MAG_AUTO               Kron-like elliptical aperture magnitude                    [mag]
#   3 X_IMAGE                Object position along x                                    [pixel]
#   4 Y_IMAGE                Object position along y                                    [pixel]
#   5 X_WORLD                Barycenter position along world x axis                     [deg]
#   6 Y_WORLD                Barycenter position along world y axis                     [deg]
#   7 A_WORLD                Profile RMS along major axis (world units)                 [deg]
#   8 B_WORLD                Profile RMS along minor axis (world units)                 [deg]
#   9 THETA_WORLD            Position angle (CCW/world-x)                               [deg]
#  10 FWHM_WORLD             FWHM assuming a gaussian core                              [deg]
#  11 ELONGATION             A_IMAGE/B_IMAGE                                           
#  12 ELLIPTICITY            1 - B_IMAGE/A_IMAGE                                       
         1 -16.5286    133.5771     24.6838   7.8629322195e+01   4.8888506319e+01     10.81193     4.780558 -46.36   0.04093118    2.882    0.653
         2 -18.6126    235.4855     51.2448   7.0635206369e+01   1.9901029669e+01     7.210297     3.549212 -28.68   0.03147673    2.026    0.506
         3 -10.5769     92.8212      7.7019   8.1499263258e+01   6.0015005467e+01    0.2175016    0.1603146  -0.15 0.0004587196    1.344    0.256
         4 -10.7480    159.0009      2.1494   6.6481828416e+01   4.4768743806e+01    0.2181497    0.1917752  14.22 0.0004030242    1.269    0.212
         5 -11.1768    210.3510    178.7124   1.0480494836e+02   4.9755083236e+00    0.5665785     0.391721 -78.58  0.002327994    3.578    0.721
         6 -14.8508     24.2577    242.2277   1.4807334784e+02   2.3087904254e+01     3.145782    0.7776491  41.49   0.01621385    2.982    0.665
         7 -10.9734    229.6513    172.8320   1.0012394942e+02   2.3125452323e+00    0.4631166    0.2121892  49.05   0.00150439    2.397    0.583
         8 -10.4129    192.7567    171.7899   1.0680122714e+02   9.4776844762e+00    0.4572574    0.2578039  61.66  0.001839562    2.746    0.636
         9 -10.1626    188.8999    169.9442   1.0719417705e+02   1.0553910092e+01    0.2953808    0.1860185  49.65 0.0006961901    1.601    0.375
        10 -13.1754     31.2852    167.9488   1.4165055876e+02   3.6803642733e+01    0.7298934     0.479384  86.20  0.004546537    1.293    0.226
        11 -11.9600     36.5850    164.3359   1.4013674257e+02   3.7039703893e+01    0.6495298    0.3408006  80.74  0.003366069    2.004    0.501
        12 -10.9627    213.9197    169.0331   1.0219425984e+02   5.8308420207e+00    0.4892042    0.1978675  47.48  0.001950021    2.507    0.601
        13 -10.2898    180.4573    165.2697   1.0795150485e+02   1.3066361113e+01    0.4523015    0.2431693  59.35  0.001636577    2.561    0.609
        14  -9.4333    203.5770    160.7623   1.0242226464e+02   9.2110643188e+00     0.188071    0.1324103 -46.90 0.0008519961    1.591    0.372
        15  -9.1330    156.2450    160.4189   1.1208973615e+02   1.8863514264e+01    0.1975501    0.1318132  54.90 0.0004077117    1.557    0.358
        16  -9.5909    146.9905    157.9902   1.1364745340e+02   2.1197362130e+01    0.2154728    0.2019197  68.18  0.001219074    1.063    0.060
        17 -10.3702    206.7470    177.5156   1.0524494379e+02   5.8413488018e+00    0.3144988    0.2238202  63.48 0.0009161545    1.962    0.490
        18 -10.0429    181.5710    153.0151   1.0514547646e+02   1.5085700439e+01    0.2662942    0.1995947  62.95 0.0008853101    1.575    0.365
        19 -11.0155    200.2953    144.3145   9.9458184891e+01   1.2731539579e+01    0.3500539    0.2626969  67.78  0.000589481    1.727    0.421
        20 -10.3309    195.8346    141.6395   9.9724291484e+01   1.4154246262e+01    0.2340538    0.2079964  81.54 0.0007035443    1.373    0.272
        21  -8.8569    124.0025    145.5298   1.1645986543e+02   2.8309437036e+01    0.1984814    0.1399883  45.58  0.000141206    1.395    0.283
        22  -9.4635    192.1626    143.9185   1.0097301710e+02   1.4524651678e+01     0.212581    0.1991124 -75.71 0.0003971618    1.237    0.192
        23  -9.0217    158.0046    140.5046   1.0745003026e+02   2.2488297592e+01    0.2181345    0.1448974  48.74 0.0005115832    1.487    0.327
        24 -10.2182    132.6132    137.4663   1.1267970153e+02   2.8378356729e+01     0.475138    0.1416786 -52.95  0.001381667    3.921    0.745
        25  -9.6386    135.0419    131.2056   1.1068668929e+02   2.9236025064e+01    0.2886889    0.2008546 -79.03  0.001210378    2.035    0.509
        26 -11.2569    135.1555    123.8092   1.0892208474e+02   3.0802902179e+01     0.959061    0.3906418 -55.61  0.003112371    3.140    0.682
        27 -11.3224    160.7287    128.5421   1.0405028269e+02   2.4321112011e+01    0.3989778    0.3284526 -65.00  0.001737773    1.370    0.270
        28 -10.9622    154.1828    126.0627   1.0494069424e+02   2.6260685958e+01    0.3489923    0.2199318 -49.10  0.001521342    1.633    0.388
        29 -10.1836    129.1398    115.8510   1.0847190737e+02   3.3766535228e+01    0.2375677    0.2012043 -83.69   0.00069591    1.349    0.259
        30  -9.6387     98.8316    114.8110   1.1622323021e+02   3.9815823766e+01    0.4735086    0.1971329 -65.23  0.001374951    4.358    0.771
        31 -12.3678    136.1634     94.6874   1.0104914599e+02   3.6705992374e+01    0.6226946    0.5134115 -82.41  0.001539206    1.487    0.327
        32 -11.3667    134.7013    108.9136   1.0529611267e+02   3.4076375947e+01     1.298302    0.1930174 -45.64  0.002745283    6.768    0.852
        33 -10.7781    132.0767     98.5086   1.0315449543e+02   3.6821052587e+01    0.3970786    0.2351788 -38.70  0.001030899    1.708    0.414
        34 -11.4070    218.8544    154.4659   9.8211991235e+01   7.2178602926e+00    0.3402756    0.2614155  39.45  0.001606769    1.286    0.223
        35 -12.6286    124.5530    108.0723   1.0766488691e+02   3.6391866629e+01    0.7263933     0.619041  25.78  0.002570812    1.304    0.233
        36 -10.8312    142.4996    104.4972   1.0219436630e+02   3.3290817391e+01    0.5757198     0.308462  29.88  0.002024531    2.773    0.639
        37  -9.0971     37.0055    106.0338   1.3223952042e+02   5.0294657818e+01    0.1551015    0.1225504 -67.07 0.0003892451    1.052    0.049
        38 -12.9073    122.9471    102.9182   1.0672336189e+02   3.7828561440e+01    0.6437408    0.4693735 -76.82   0.00288096    1.854    0.461
        39  -8.7134     85.6060    105.3151   1.1770417843e+02   4.4200257259e+01    0.1495849    0.1084353  78.64 0.0007004638    1.852    0.460
        40 -11.4632    167.5734     98.8228   9.4864698951e+01   2.8621538915e+01    0.5159352     0.419008 -25.09  0.001306606    1.303    0.232
        41 -12.2390    164.6711     92.9983   9.3880047338e+01   3.0417380884e+01    0.6305053     0.515099  27.23   0.00167298    1.364    0.267
        42 -10.9759    170.4073     89.2977   9.1606692304e+01   2.9722065818e+01    0.2963396    0.2700675  67.30 0.0002878623    1.140    0.123
        43 -12.0675    152.1428     98.9721   9.8381120499e+01   3.2215601316e+01    0.5415034    0.4907033  -7.68  0.002526815    1.196    0.164
        44 -12.2666     57.0573    153.2755   1.3410865764e+02   3.7156350270e+01    0.3750454    0.3573163  51.87 0.0008830457    1.264    0.209
        45 -11.6520    149.0395     90.9786   9.6854659914e+01   3.4505469487e+01    0.3296911    0.2842116 -46.61 0.0006148659    1.161    0.139
        46 -10.6332     82.5046     86.5094   1.1379505957e+02   4.8887806023e+01    0.2516335    0.2252012 -49.68 0.0007591566    1.042    0.040
        47  -9.1707     79.5754     76.4682   1.1183967519e+02   5.1503282033e+01    0.1394951    0.1266621 -41.84 0.0001542534    1.029    0.028
        48 -14.7363    214.8449     71.3808   7.8614463533e+01   2.1863680665e+01     1.235475    0.5460168 -49.05  0.004464468    2.512    0.602
        49 -14.2191     68.0155    146.1150   1.3039914904e+02   3.7367502727e+01     1.327447      1.15808 -17.78  0.003214886    1.571    0.364
        50 -11.7024    191.9999     38.4947   7.2921507696e+01   3.2310339663e+01    0.4455141    0.3489273 -73.87  0.001510197    1.357    0.263
        51  -9.6630     91.7845     34.9815   9.3337571382e+01   5.6855351536e+01    0.1911016    0.1625011 -18.38 0.0004312615    1.115    0.103
        52 -10.5505    201.1730     28.8874   6.8948431261e+01   3.1182013627e+01    0.2053116    0.1679968 -19.82 0.0004199373    1.357    0.263
        53 -12.0052    197.9144     27.2128   6.8893561082e+01   3.2209669703e+01     0.285728    0.2423982  -7.69 0.0007054019    1.379    0.275
        54  -9.0350    177.0852     25.5791   7.1272037884e+01   3.7749177365e+01    0.2082624    0.1333747  69.34 0.0009864232    1.500    0.333
        55 -10.8993    246.6254    203.6412   1.0312079411e+02  -4.7559119532e+00    0.2509774    0.1421742  44.36  0.001213176    1.860    0.462
        56  -9.6626    170.4324     19.5341   7.0386375571e+01   4.0147033283e+01    0.2450655    0.1386825  -4.10  0.001013532    2.517    0.603
        57 -10.8320    162.4672     18.9744   7.1420275765e+01   4.2257469234e+01    0.3274257    0.2023668  44.12 0.0006545961    1.645    0.392
        58  -8.8288    203.3439     17.7269   6.5613121867e+01   3.1921419398e+01    0.1686254    0.1455097  24.40 0.0009612261    1.401    0.286
        59  -9.0402    178.2446    199.9861   1.1487650932e+02   7.5119760029e+00    0.1619455    0.1526536  25.16 0.0002188366    1.088    0.080
