#   1 NUMBER                 Running object number                                     
#   2 MAG_AUTO               Kron-like elliptical aperture magnitude                    [mag]
#   3 X_IMAGE                Object position along x                                    [pixel]
#   4 Y_IMAGE                Object position along y                                    [pixel]
#   5 X_WORLD                Barycenter position along world x axis                     [deg]
#   6 Y_WORLD                Barycenter position along world y axis                     [deg]
#   7 A_WORLD                Profile RMS along major axis (world units)                 [deg]
#   8 B_WORLD                Profile RMS along minor axis (world units)                 [deg]
#   9 THETA_WORLD            Position angle (CCW/world-x)                               [deg]
#  10 FWHM_WORLD             FWHM assuming a gaussian core                              [deg]
#  11 ELONGATION             A_IMAGE/B_IMAGE                                           
#  12 ELLIPTICITY            1 - B_IMAGE/A_IMAGE                                       
         1 -14.4508    165.1100     46.8607   7.7173192618e+01   3.8347259155e+01     1.867682      1.32196  16.29  0.006384514    2.057    0.514
         2 -14.1748    178.7335     32.0304   7.0742668994e+01   3.6945246113e+01     0.934887    0.8014134 -50.96  0.003467169    1.225    0.184
         3 -13.6146    182.7938     25.4407   6.8386197280e+01   3.6743082287e+01    0.5657019     0.487288 -87.35  0.001155063    1.074    0.069
         4 -13.6090    191.0678     15.0118   6.4613083052e+01   3.5898907343e+01    0.5994821    0.4293113 -88.31  0.002354475    1.302    0.232
         5 -14.0487    197.0896      3.9628   6.1223425654e+01   3.5596952698e+01     1.115285    0.6163507  65.02  0.005457389    1.559    0.358
         6 -10.1532    135.6287    219.2085   1.2394507467e+02   9.7200241998e+00    0.1739828    0.1281703 -45.87 0.0002326867    1.603    0.376
         7 -19.7258     45.7910    163.0613   1.3590245658e+02   3.6416404983e+01     19.99719      5.56291 -69.63   0.06920177    3.523    0.716
         8 -10.7622    179.8528    193.0238   1.1015088285e+02   6.4317468674e+00    0.4384228    0.2524109 -68.59  0.001338439    3.244    0.692
         9 -12.9256    112.0449    196.6190   1.2555762447e+02   1.8690440535e+01    0.8544824    0.5218714  12.96  0.002883582    4.553    0.780
        10 -11.7559    115.3350    211.0220   1.2699151914e+02   1.5008526907e+01    0.3480603    0.2285042 -70.25  0.000885008    1.640    0.390
        11 -10.9407    157.2912    192.0696   1.1480139848e+02   1.1107105694e+01     0.198778    0.1860811 -80.06 0.0003816403    1.114    0.103
        12 -13.7849    108.0479    211.2855   1.2856581136e+02   1.6213326717e+01     1.353358    0.4095047  45.85  0.004911392    2.929    0.659
        13 -13.7569    108.3704    205.7462   1.2771608650e+02   1.7340557972e+01     1.129259    0.4505021  40.57  0.004540985    2.411    0.585
        14 -11.8825    207.5947    183.7729   1.0264274148e+02   2.7132449691e+00    0.3812783    0.3281741 -46.54 0.0009717433    1.234    0.189
        15 -11.9800    210.9601    181.2015   1.0145358821e+02   2.5312476068e+00    0.4700679    0.3129037 -26.83  0.001970073    1.653    0.395
        16 -12.0628    103.6289    202.8364   1.2831915848e+02   1.8782921879e+01    0.4662533    0.3025922 -63.47  0.001836011    1.560    0.359
        17 -11.7997    197.9439    175.5398   1.0289273422e+02   6.2016218741e+00    0.4133667      0.31497 -49.88  0.001120268    1.385    0.278
        18 -10.3887    145.2998    178.5493   1.1492863478e+02   1.6392021145e+01    0.2098627    0.1422774  33.64 0.0009473877    1.623    0.384
        19 -10.5396      9.9757    214.1158   1.4808887474e+02   2.8915882966e+01    0.1280756    0.1033425  25.77 0.0004553006    1.941    0.485
        20  -9.7389    133.2779    213.6427   1.2359588694e+02   1.1257090740e+01    0.1418595    0.1006718  77.77 0.0007010197    1.658    0.397
        21 -11.7819    203.8308    167.9906   1.0010614914e+02   6.4648360912e+00    0.4877918    0.4464509  48.68   0.00181171    1.125    0.111
        22 -12.4172    117.6023    201.3898   1.2507373110e+02   1.6659399548e+01    0.5560277    0.2381879  51.42  0.002206093    2.311    0.567
        23  -9.3319    163.7254    169.3495   1.0892737525e+02   1.4603158290e+01    0.1539311    0.1194468 -87.95 0.0003881973    1.634    0.388
        24 -11.1676    145.9491    168.6634   1.1283322204e+02   1.8453855942e+01    0.2194933    0.1965703  58.47 0.0006368976    1.078    0.073
        25 -10.6218    225.4031    166.2139   9.5544351095e+01   2.4638529672e+00    0.2040868    0.1282824 -49.34 0.0005881282    1.701    0.412
        26  -9.8661    121.8929    165.1256   1.1781719216e+02   2.4055970713e+01     0.222861    0.1869106  78.92 0.0002932339    1.218    0.179
        27 -13.9419     10.8062    206.1846   1.4740098081e+02   3.0482578149e+01    0.4949294    0.3083686  37.58  0.003117406    1.894    0.472
        28 -10.9029    165.0683    205.7634   1.1559822702e+02   6.8406303960e+00    0.4564787    0.2284192 -65.24    0.0016138    3.605    0.723
        29 -10.6709      6.7059    161.4477   1.4459544471e+02   4.0619609058e+01    0.1469229    0.1423668   4.27  0.001056153    1.490    0.329
        30 -13.2339    102.7765    155.4535   1.2065006612e+02   2.9875238150e+01    0.6828868    0.5073945 -34.91  0.002559699    1.679    0.404
        31 -10.7190    161.9173    153.5142   1.0593402144e+02   1.8442698353e+01    0.2429329    0.1520857  45.36  0.001030659    1.586    0.369
        32  -9.2060    170.4296    205.4595   1.1442137452e+02   5.8680266196e+00    0.1404129    0.1292916  50.44 0.0001542822    1.041    0.039
        33 -12.2065    133.8907    145.1848   1.1073522033e+02   2.6308758421e+01     1.129948    0.3054905 -54.94  0.002816312    4.895    0.796
        34 -10.9031    174.7200    148.4927   1.0192734833e+02   1.6719728819e+01    0.3777495    0.2116519 -54.35   0.00105061    1.968    0.492
        35 -11.9872    144.7171    146.2324   1.0833400383e+02   2.3790039614e+01    0.4653057    0.3375487  80.17  0.002016211    1.804    0.446
        36 -11.4711     89.2500    147.2858   1.2253006090e+02   3.4137661058e+01    0.3298058    0.2321747  44.13 0.0002285191    1.485    0.326
        37 -11.1463      6.7095    145.7328   1.4303129311e+02   4.4162468474e+01    0.2447844    0.1768914 -52.07   0.00163568    1.458    0.314
        38 -12.5182    111.6031    140.2682   1.1529027510e+02   3.1881623581e+01    0.5850997    0.3948653 -28.48  0.002501351    2.071    0.517
        39 -12.6338    100.9501    140.5848   1.1813502014e+02   3.3754132268e+01    0.2791844    0.2784775 -54.13 0.0004740227    1.127    0.112
        40 -10.8795    142.7007    139.6246   1.0731165142e+02   2.5727295921e+01    0.2411415    0.1949222  -0.64 0.0007928681    1.701    0.412
        41 -10.3960    117.8607    139.8747   1.1359015164e+02   3.0775040910e+01     0.398708    0.2254906  68.45  0.001387047    2.965    0.663
        42  -9.9989    211.1748    202.8958   1.0569757091e+02  -1.3758976910e+00    0.1878579     0.184973  87.30 0.0004578964    1.223    0.182
        43 -11.8396     15.3178    136.4326   1.3987854915e+02   4.5618633738e+01    0.2195734    0.1873509 -72.40 0.0004615803    1.117    0.105
        44 -11.7953    117.9648    130.3385   1.1139361973e+02   3.2988099718e+01    0.4037821     0.361713 -28.09  0.001018908    1.246    0.197
        45 -11.3030    106.0000    130.9797   1.1470515842e+02   3.5121083905e+01    0.3402069    0.2625576 -57.83  0.001110121    1.241    0.194
        46 -11.6183    105.9135    127.0217   1.1382256970e+02   3.6066136578e+01    0.4984432    0.2935874 -40.53  0.001196838    1.834    0.455
        47 -13.0788    194.0056    193.6944   1.0735099930e+02   3.5203635309e+00     1.044187    0.7539368 -73.38  0.004906449    2.104    0.525
        48 -12.1535    135.4439    122.5691   1.0501109239e+02   3.1155311178e+01    0.8687929     0.250587 -52.97  0.002236697    4.473    0.776
        49 -11.2928    142.5668    127.5065   1.0445520361e+02   2.8498914689e+01    0.4218155     0.295228  79.65  0.001168732    2.005    0.501
        50 -11.4911    125.2749    127.1415   1.0873292743e+02   3.2256312442e+01    0.4168797    0.2743868  81.48  0.001244823    2.462    0.594
        51 -10.4913    112.2851    119.4800   1.1030252121e+02   3.6606860163e+01     0.255176    0.2295586 -48.91 0.0002583038    1.081    0.075
        52 -11.6491    139.7062    199.3125   1.1991731329e+02   1.3014217538e+01     0.504898    0.2464575  53.97  0.002039751    2.163    0.538
        53 -10.9783    168.7216    113.5512   9.4785084546e+01   2.5542935074e+01    0.3837593      0.27831 -69.65 0.0009093561    1.678    0.404
        54 -10.6413    163.9645    111.0283   9.5201240386e+01   2.7190262179e+01    0.3446078    0.2271111  67.90  0.000765282    1.846    0.458
        55 -11.0631      2.2829    112.6550   1.4018942796e+02   5.1880775474e+01    0.2432747    0.1501058 -39.34  0.001462977    1.738    0.424
        56 -10.8196    160.5345    127.9364   1.0026595395e+02   2.4377380294e+01    0.3540689    0.2555796 -60.00  0.001572419    1.498    0.333
        57 -10.5507    205.4444    110.1802   8.6451294074e+01   1.7523749090e+01    0.3285448    0.2193737  45.50 0.0009162855    1.608    0.378
        58 -12.1302    204.6890    198.0312   1.0604113378e+02   6.8010961109e-01    0.4527322    0.2759589 -15.48  0.001670219    2.484    0.597
        59 -10.4799     83.9476    107.1934   1.1526525927e+02   4.4429041943e+01    0.2887352    0.1914462  52.44  0.001335482    1.766    0.434
        60 -10.2035    134.4919    102.9556   1.0014721736e+02   3.5646358592e+01    0.2400914    0.1513149 -43.88 0.0007762384    1.574    0.365
        61 -10.1022    177.9189    196.7572   1.1126375525e+02   6.0879854684e+00    0.2543945    0.2034408  81.04  0.001093682    1.612    0.380
        62  -9.7841    124.6637     92.2898   9.9745384150e+01   3.9992907577e+01    0.1518181    0.1207345  89.35 0.0003730416    1.636    0.389
        63  -9.4593    149.6761     78.6947   8.9613860229e+01   3.6947175696e+01    0.1538482    0.1196142  17.80 0.0005426703    1.642    0.391
        64 -10.1536     84.3116     76.9401   1.0689976399e+02   5.0769796932e+01    0.1919465    0.1639945 -34.02  0.000314312    1.092    0.084
        65 -10.0430    102.2792     72.5982   1.0013019080e+02   4.8376179807e+01    0.1942467    0.1317095  32.79 0.0007410768    1.549    0.355
        66 -10.0471     13.6336     59.9466   1.2662724685e+02   6.2233741768e+01    0.1614112    0.1140067 -50.55 0.0004227964    1.156    0.135
        67  -9.4031    168.2885    248.2822   1.2170691097e+02  -1.2563859297e+00    0.1198704   0.09164876  17.07 0.0002011085    1.526    0.345
        68  -9.6115      1.6744    248.4727   1.5139299816e+02   2.3046072118e+01    0.1022144   0.06946763  83.12 0.0002737265    1.112    0.100
        69 -10.8722    186.6018    220.7803   1.1379517628e+02   5.1286568790e-02    0.1750147    0.1304633 -56.63 0.0009489021    1.647    0.393
        70 -11.1061    156.8468    218.8099   1.1950074020e+02   5.9002430120e+00     0.193554    0.1553283  68.19 0.0007366205    1.339    0.253
