#   1 NUMBER                 Running object number                                     
#   2 MAG_AUTO               Kron-like elliptical aperture magnitude                    [mag]
#   3 X_IMAGE                Object position along x                                    [pixel]
#   4 Y_IMAGE                Object position along y                                    [pixel]
#   5 X_WORLD                Barycenter position along world x axis                     [deg]
#   6 Y_WORLD                Barycenter position along world y axis                     [deg]
#   7 A_WORLD                Profile RMS along major axis (world units)                 [deg]
#   8 B_WORLD                Profile RMS along minor axis (world units)                 [deg]
#   9 THETA_WORLD            Position angle (CCW/world-x)                               [deg]
#  10 FWHM_WORLD             FWHM assuming a gaussian core                              [deg]
#  11 ELONGATION             A_IMAGE/B_IMAGE                                           
#  12 ELLIPTICITY            1 - B_IMAGE/A_IMAGE                                       
         1 -11.9713    189.1339     35.8473   5.7125308074e+01   3.3623196135e+01    0.9586588    0.9342088 -21.43  0.003238678    1.053    0.050
         2 -12.3036    196.2184     26.8996   5.3292605782e+01   3.2897583669e+01    0.8753807    0.7247509  12.20  0.001343822    1.387    0.279
         3 -10.9233    217.7244      2.2607   4.3534925171e+01   2.9999164476e+01    0.7482644    0.2876745  73.30  0.002905874    2.515    0.602
         4  -9.6112    173.8146    225.1954   1.0369711618e+02   5.3966804639e+00    0.1635713    0.1272955  27.24    0.0010803    1.363    0.266
         5  -9.9193    139.5526    249.4892   1.1227718480e+02   7.6890525658e+00    0.2028573    0.1534572  55.30  0.001520276    1.034    0.033
         6  -8.5941    124.6984    250.3207   1.1471253109e+02   9.8419663807e+00    0.1102357   0.06592813  66.75 0.0002913902    1.627    0.385
         7 -19.4439     13.2300    136.9119   1.2427166466e+02   4.4650483149e+01     16.61443     2.389973 -74.34   0.05023714    6.380    0.843
         8  -8.1041    209.5629    199.5322   9.3494021425e+01   2.5539432691e+00    0.1266612    0.1071904  33.79 0.0001024773    1.033    0.032
         9  -9.4423    193.2758    191.7231   9.5078503404e+01   6.6867114091e+00    0.3381633    0.2678867  -0.93  0.001159385    1.516    0.341
        10  -8.4361     99.2425    197.5875   1.1355052836e+02   2.2200379008e+01    0.1612351    0.1058225  39.02 0.0009496256    1.662    0.398
        11 -12.4235     67.6759    191.7106   1.1874465649e+02   2.7760110223e+01    0.7556218    0.6001862 -66.16  0.004430017    1.448    0.309
        12 -10.5095     60.6841    186.7940   1.1955771396e+02   2.9595967809e+01    0.2877551    0.2202997  70.89  0.001492933    1.074    0.069
        13 -10.5859     52.7580    187.3563   1.2106549338e+02   3.0456053960e+01    0.2798153    0.2181884  84.19  0.002063876    1.070    0.065
        14  -8.2094     99.5069    180.9697   1.1146921156e+02   2.5293703208e+01    0.1740356    0.1148936 -65.98 0.0009539222    1.523    0.343
        15 -10.9128     79.1418    176.6231   1.1494590763e+02   2.9152626182e+01    0.4064269    0.2671654 -46.06  0.001525601    2.117    0.528
        16 -10.6984     82.4974    171.9959   1.1371549743e+02   2.9607144083e+01     0.409112    0.2407983 -69.48   0.00090226    1.617    0.381
        17  -9.6158    114.8684    173.2838   1.0732406324e+02   2.4313046971e+01     0.228782    0.1687772 -78.02  0.001322614    1.398    0.285
        18  -8.0912    165.5957    172.8541   9.7023584442e+01   1.5087330136e+01    0.1748184    0.1287726 -63.61 0.0004071625    1.636    0.389
        19  -9.0541    104.0364    172.9541   1.0947965279e+02   2.6154306617e+01     0.180512    0.1623865 -14.32  0.000609658    1.665    0.400
        20  -9.6390    194.8382    168.3275   9.0484973614e+01   1.0025609420e+01     0.313254    0.2650427  39.34  0.001077994    1.069    0.065
        21  -9.1867     77.1843    166.8093   1.1414612029e+02   3.1409682846e+01    0.1896688    0.1397943  73.47 0.0006066157    1.212    0.175
        22  -8.2438    190.3312    160.8475   8.9867018874e+01   1.2182040797e+01    0.1922127     0.129743 -28.05 0.0009396009    1.712    0.416
        23  -8.9573    165.3220    220.3257   1.0450559786e+02   7.5365520618e+00    0.1172077    0.0870682  21.44 0.0007047628    1.685    0.406
        24 -10.3991     95.4393    155.5305   1.0872815147e+02   3.1070179675e+01     0.518113    0.3483734 -36.29  0.002646996    2.240    0.554
        25  -8.6083    140.4127    157.1272   9.9320279350e+01   2.2902936661e+01    0.2183285    0.1727739  71.43 0.0003864267    1.316    0.240
        26  -8.9897    188.9420    155.2029   8.8984442261e+01   1.3432908174e+01    0.2920281    0.1832016 -66.07  0.001204859    2.674    0.626
        27  -9.8135    134.3423    146.5622   9.8639235926e+01   2.6175620268e+01    0.7475361    0.1717889 -53.47  0.002015072    5.364    0.814
        28  -7.9824    113.4608    151.4921   1.0413563381e+02   2.8957942702e+01    0.1363859    0.1203509  81.89  5.70472e-05    1.035    0.034
        29  -7.4623    182.6889    150.3735   8.9217220887e+01   1.5594727394e+01    0.1463229    0.1139498 -85.54 0.0007032292    1.780    0.438
        30  -9.9438    107.5679    139.8717   1.0339634137e+02   3.2419528697e+01     0.476664    0.2945319 -32.64  0.002108087    2.563    0.610
        31 -10.6691     95.2630    140.5699   1.0634545909e+02   3.4282614135e+01    0.2522387    0.2365905 -66.68 0.0008245219    1.175    0.149
        32 -10.3300    114.7943    130.7579   9.9965027450e+01   3.3113517381e+01    0.3360142    0.2775457 -40.85  0.001015811    1.348    0.258
        33  -7.6143    145.2772    129.6048   9.2678160708e+01   2.7465157925e+01    0.1524093    0.1130297 -82.84 0.0002185504    1.747    0.428
        34  -8.2649    114.6543    208.3275   1.1198475279e+02   1.7901970774e+01    0.1280922   0.07751931  70.33 0.0005744132    1.749    0.428
        35  -9.1683    105.9188    130.9842   1.0210644421e+02   3.4613759090e+01    0.3238643    0.2516634  85.11  0.001265371    1.388    0.279
        36  -9.3188    119.5890    124.2648   9.7476131752e+01   3.3631732825e+01    0.1943002    0.1310146 -43.27 0.0006400035    1.556    0.358
        37  -8.6869    109.9809    119.3325   9.8741267542e+01   3.6438842594e+01    0.1890263    0.1773785  71.62 0.0004031337    1.077    0.072
        38  -9.2904    102.2774    126.7253   1.0214328206e+02   3.6153305282e+01    0.2427799    0.2162014 -39.43 0.0004759563    1.285    0.222
        39  -8.3562    168.4152    113.2018   8.3633388055e+01   2.5698317513e+01    0.2234111    0.1410107 -51.81 0.0009519449    1.731    0.422
        40  -8.8441    108.0010    203.9741   1.1268161853e+02   1.9705213661e+01    0.1445905    0.1185779  72.21 0.0003970467    1.047    0.045
        41  -8.9614    104.0002    111.0345   9.8410129319e+01   3.9290438461e+01    0.2066876    0.1913492 -73.93            0    1.016    0.015
        42  -8.2868    205.0813    110.4910   7.5478747250e+01   1.7642931142e+01     0.235418    0.1476141  50.28  0.001031796    1.589    0.371
        43  -8.4523    198.5109    222.5497   9.9091066626e+01   1.5001048771e+00    0.1215751   0.09600746  37.99 0.0001133007    1.005    0.005
        44  -7.6422    163.4845    203.5321   1.0244719283e+02   1.0380636580e+01    0.1270551    0.1065568  46.90 4.774797e-05    1.032    0.031
        45 -10.5775     41.7650     92.0708   1.1124765913e+02   5.1878184526e+01    0.2414335    0.1825476  37.59 0.0007656422    1.595    0.373
        46  -8.5888     95.3405    200.4750   1.1459312071e+02   2.2260385206e+01    0.2676512    0.1395658  76.75  0.001128876    2.524    0.604
        47  -8.4078     68.8507     71.6382   9.8516960451e+01   5.3185613957e+01    0.1579714    0.1223874  49.25 0.0001458709    1.544    0.352
        48  -9.7259    164.9633     65.5628   7.0984939640e+01   3.5343544041e+01    0.3117052    0.2399845 -69.48 0.0007945815    1.626    0.385
        49 -11.5182    177.7521     46.2765   6.2371305338e+01   3.5146309003e+01    0.6341389    0.4933279  -3.19  0.001495198    1.481    0.325
        50  -9.5565    133.5844    246.7552   1.1295172733e+02   8.9831098522e+00    0.1675287    0.1061089 -52.46 0.0007356794    2.088    0.521
        51  -9.5785     76.7348    233.8249   1.2086734977e+02   1.9165331028e+01    0.1676749     0.114038 -76.76 0.0009462941    1.522    0.343
        52  -9.8288    216.3023     18.0606   4.8063833231e+01   2.8681574061e+01    0.2064448    0.1869218 -50.69  0.001176829    1.087    0.080
        53  -8.6432    155.5796    199.8181   1.0335230474e+02   1.2392039355e+01    0.1666727     0.119306 -69.74 0.0009520423    1.760    0.432
