#   1 NUMBER                 Running object number                                     
#   2 MAG_AUTO               Kron-like elliptical aperture magnitude                    [mag]
#   3 X_IMAGE                Object position along x                                    [pixel]
#   4 Y_IMAGE                Object position along y                                    [pixel]
#   5 X_WORLD                Barycenter position along world x axis                     [deg]
#   6 Y_WORLD                Barycenter position along world y axis                     [deg]
#   7 A_WORLD                Profile RMS along major axis (world units)                 [deg]
#   8 B_WORLD                Profile RMS along minor axis (world units)                 [deg]
#   9 THETA_WORLD            Position angle (CCW/world-x)                               [deg]
#  10 FWHM_WORLD             FWHM assuming a gaussian core                              [deg]
#  11 ELONGATION             A_IMAGE/B_IMAGE                                           
#  12 ELLIPTICITY            1 - B_IMAGE/A_IMAGE                                       
         1 -15.2069      5.1643    133.1084   1.3995458887e+02   4.6936891341e+01     9.326714     1.754034 -73.62   0.02597069    6.141    0.837
         2 -13.5086    200.8109     28.7829   6.4568343390e+01   3.1962469747e+01     1.374607     1.230954  46.67  0.008132541    1.352    0.260
         3 -13.4535    216.7418     11.0859   5.8820391836e+01   3.0346913875e+01    0.9355494    0.7724248  64.90  0.003313896    1.318    0.241
         4 -11.7864      3.2222      3.1077   1.0886129285e+02   7.2011267963e+01    0.3436314    0.2346775  30.49  0.002584192    1.966    0.491
         5 -11.1339    156.7507    249.5502   1.2163459465e+02  -7.6320954180e-02    0.4197696    0.1281728  44.60  0.001603579    2.842    0.648
         6 -11.5315    138.9869    248.4436   1.2497052072e+02   3.0994116277e+00    0.4295245    0.2412626 -51.42  0.002245926    2.075    0.518
         7 -11.3285    123.4107    250.0455   1.2822119551e+02   5.3979783363e+00    0.4859202    0.1393641  43.67  0.001866465    2.859    0.650
         8 -10.9137     64.8883    248.3952   1.3910211254e+02   1.4660411528e+01    0.2932188     0.197481  77.46 0.0009170343    1.296    0.228
         9 -11.8343     46.3437    247.4995   1.4233936158e+02   1.7306659835e+01     0.525201    0.2985243 -71.95    0.0031434    1.693    0.409
        10 -12.8312     33.7714    246.4662   1.4444261241e+02   1.9066212489e+01    0.8600918    0.6676867  39.78  0.006118227    1.623    0.384
        11 -13.2910      6.9355    246.6833   1.4889967132e+02   2.2026309712e+01     1.357635    0.8791471  47.21  0.009838269    1.555    0.357
        12 -12.6710     10.8987    238.7026   1.4779754781e+02   2.3165271368e+01    0.8120207     0.479956  54.78  0.004509658    1.435    0.303
        13 -12.5550      6.2066    227.6786   1.4792190899e+02   2.5852629840e+01    0.6788419    0.5418655  58.35  0.005225488    1.345    0.257
        14 -11.5567     97.2582    246.3930   1.3284858049e+02   1.0271465663e+01    0.4546521    0.2565084 -73.16   0.00164277    2.001    0.500
        15  -9.5331     88.5215    249.4987   1.3483930245e+02   1.1019375466e+01    0.1261005   0.09956807  65.35 -3.883108e-05    1.018    0.018
        16 -10.2300     82.0041    249.5060   1.3605883308e+02   1.1992219294e+01    0.1891634    0.1036543  44.40 0.0007306389    1.596    0.374
        17 -10.3379    181.6002    246.2081   1.1627069826e+02  -3.6914524787e+00    0.1698272    0.1181097 -28.19 0.0009544002    1.709    0.415
        18 -10.8819    225.1620    249.7242   1.0855754527e+02  -1.1092851803e+01    0.2860583   0.09223925  36.26  0.001205688    2.778    0.640
        19 -10.0539     53.5010    238.9165   1.4034993528e+02   1.8080306990e+01    0.1694623    0.1035006 -76.92 0.0005763264    1.526    0.345
        20 -12.4023    239.4913    247.2371   1.0553636876e+02  -1.2827512340e+01    0.4926187    0.3248473 -13.29  0.003032123    1.504    0.335
        21 -12.8050    121.9992    232.0219   1.2616576206e+02   9.0348584369e+00     1.396761    0.1761731  41.31  0.003495662    6.300    0.841
        22 -12.3869    101.0209    229.4584   1.3011787953e+02   1.3026609710e+01    0.9039681    0.1744888  43.74  0.002843115    4.159    0.760
        23 -11.0512    216.2286    248.2976   1.0997901119e+02  -9.5510958347e+00    0.2875963    0.1828622   4.62  0.001566721    1.873    0.466
        24 -10.8690      6.5603    215.4569   1.4708163087e+02   2.8342152919e+01    0.2061349    0.1601065 -88.42 0.0006385918    1.164    0.141
        25 -12.6897      9.5174    207.2391   1.4597179032e+02   2.9802677078e+01    0.6880783    0.5579548  30.73  0.003927144    1.722    0.419
        26  -8.6866    152.5404    213.0845   1.1686599082e+02   7.3840677409e+00    0.1853181    0.1399044 -51.67 0.0002945408    1.432    0.302
        27 -10.6762     53.7664    203.9764   1.3690520339e+02   2.5527602298e+01     0.425088    0.2045798  61.31  0.001974732    2.203    0.546
        28  -9.3545     34.8882    202.6254   1.4065437259e+02   2.8141987406e+01    0.1670971    0.1320286  67.81 0.0004380181    1.153    0.132
        29 -11.7027     56.4950    197.2109   1.3556509523e+02   2.6711028283e+01    0.2818382    0.2346622 -64.72 0.0005684774    1.285    0.222
        30 -12.0041     13.0423    121.9477   1.3637501211e+02   4.8952839822e+01    0.5240274    0.2769682  50.35  0.001773765    2.391    0.582
        31 -11.9191     63.2682    188.8875   1.3305336482e+02   2.7734473384e+01    0.2761869    0.2435711 -68.55 0.0004484845    1.205    0.170
        32 -13.8577     43.7381    212.9429   1.3985915336e+02   2.4803837527e+01     1.879098     1.180084  51.25   0.01116572    1.476    0.322
        33 -10.8023     74.2772    176.2544   1.2873524302e+02   2.9178146371e+01    0.2461159     0.219017 -76.67 0.0003374403    1.079    0.073
        34 -13.2375     60.6598    174.0385   1.3165888709e+02   3.1616262959e+01    0.5520548     0.279974 -46.95  0.001746103    2.313    0.568
        35  -9.3760     93.2649    170.4635   1.2318836165e+02   2.7616272163e+01    0.1996596     0.129609  53.90 0.0007138588    1.591    0.371
        36 -11.8577     82.2560    167.0893   1.2533456513e+02   3.0194054196e+01    0.6784207    0.5818769 -48.45  0.003806301    1.269    0.212
        37 -12.9115     28.3416    230.3365   1.4422679282e+02   2.2939051006e+01    0.3296113    0.2604489 -86.45 0.0007505731    1.206    0.171
        38 -10.1534     95.3554    151.7731   1.1921182508e+02   3.1809291679e+01    0.3316065    0.2725794 -61.03 0.0007916085    1.142    0.124
        39  -9.1521     98.8121    147.7577   1.1750269602e+02   3.2194103035e+01    0.2117728    0.1976453 -43.30 0.0005689442    1.140    0.123
        40 -11.9999     83.9474    150.6266   1.2197538576e+02   3.3950045046e+01    0.3215035    0.2472626 -46.32 0.0004135222    1.335    0.251
        41 -12.0495     68.1653    143.1494   1.2478061575e+02   3.8112486169e+01    0.5940053     0.423759 -88.81  0.001944795    1.586    0.369
        42 -10.9559     64.6852    141.6737   1.2544997913e+02   3.8947519834e+01     0.353137    0.2234136 -45.62 0.0009591504    1.603    0.376
        43  -9.7250    108.1635    136.9762   1.1271275822e+02   3.3118421807e+01    0.4230834     0.284561 -11.95  0.001486526    2.677    0.626
        44 -10.5510     95.0359    134.1703   1.1563919141e+02   3.6130077486e+01    0.2486228    0.2134985 -45.27 0.0003306532    1.152    0.132
        45  -9.0263    105.8857    123.6584   1.1023519127e+02   3.6688572735e+01    0.1939697    0.1834989  48.87 0.0003586994    1.106    0.096
        46  -9.4160    167.6145    112.5162   9.1888286953e+01   2.5979583555e+01    0.2919649    0.2461538  88.25 0.0009483388    1.338    0.253
        47 -11.7059    244.2968     95.1295   7.3964404446e+01   1.1978319624e+01    0.4707325    0.2201691 -49.91  0.002024722    1.983    0.496
        48 -10.4235     62.0905     78.9645   1.1180722851e+02   5.3547599087e+01    0.4290152    0.2303644  46.41  0.001743529    2.412    0.585
        49  -8.9465    159.3312     77.6925   8.4374451041e+01   3.4685790420e+01    0.1548334    0.1164371 -80.00 0.0004770017    1.664    0.399
        50  -9.1376     52.0027     72.4877   1.1339078447e+02   5.6124206680e+01    0.1740097    0.1242681  30.45  0.001001318    1.540    0.351
        51  -8.5848     43.5939     67.8382   1.1501729471e+02   5.7998710918e+01    0.1590433     0.110765 -56.14 0.0003319289    1.529    0.346
        52 -14.0101     33.5018    223.8958   1.4278528381e+02   2.3681228938e+01    0.8617121    0.5712796  70.04  0.002592108    1.235    0.190
        53 -11.2990    199.7782    248.3208   1.1309183212e+02  -6.9831063339e+00     0.325675    0.2629546  87.96  0.001896562    2.145    0.534
        54 -11.3130    163.0811    249.0855   1.2032704730e+02  -1.0620798745e+00    0.2903868    0.2314498  33.69  0.001801646    1.118    0.106
        55 -12.4963     88.3993    226.3277   1.3230446771e+02   1.5670578334e+01     1.376185    0.1652522  47.43    0.0032273    7.793    0.872
