#   1 NUMBER                 Running object number                                     
#   2 MAG_AUTO               Kron-like elliptical aperture magnitude                    [mag]
#   3 X_IMAGE                Object position along x                                    [pixel]
#   4 Y_IMAGE                Object position along y                                    [pixel]
#   5 X_WORLD                Barycenter position along world x axis                     [deg]
#   6 Y_WORLD                Barycenter position along world y axis                     [deg]
#   7 A_WORLD                Profile RMS along major axis (world units)                 [deg]
#   8 B_WORLD                Profile RMS along minor axis (world units)                 [deg]
#   9 THETA_WORLD            Position angle (CCW/world-x)                               [deg]
#  10 FWHM_WORLD             FWHM assuming a gaussian core                              [deg]
#  11 ELONGATION             A_IMAGE/B_IMAGE                                           
#  12 ELLIPTICITY            1 - B_IMAGE/A_IMAGE                                       
         1 -15.0705     68.5321    144.8147   8.9796849140e+01   3.7703928388e+01     5.002869     2.452627  80.26   0.00274502    3.610    0.723
         2 -14.2480    211.7579     43.2757   3.3166829836e+01   2.6150601330e+01     1.994901     1.416939  25.81  0.008091549    1.946    0.486
         3 -13.7995    227.8650     29.1376   2.8199358723e+01   2.4264835171e+01     0.896386    0.8408966 -12.57  0.002867646    1.248    0.199
         4 -12.6026    249.0363      7.3273   2.1808649000e+01   2.2150546788e+01    0.7495767    0.2808522 -25.94  0.003614718    2.204    0.546
         5 -13.3576     15.9711    248.9375   1.0976054120e+02   2.3016259372e+01    0.2625662     0.176418  60.85 0.0008183959    1.222    0.181
         6 -10.9506    124.9061    249.1505   8.8722230380e+01   1.0664677343e+01    0.1761103    0.1525556 -65.03  0.001433413    1.649    0.394
         7  -9.5477    106.3272    250.3169   9.2331272985e+01   1.2809368440e+01    0.1037683   0.07376162  11.05 0.0007045369    1.676    0.403
         8 -12.0430    101.4175    244.5061   9.2789531643e+01   1.4231243691e+01    0.6832469    0.2134171 -54.63  0.003386684    4.107    0.757
         9 -10.4494     91.2201    250.2536   9.5222072826e+01   1.4653811905e+01    0.1997077    0.1034821  32.67 0.0008829271    1.439    0.305
        10 -15.7979      8.8102    207.8545   1.1016367656e+02   3.0889493795e+01     3.542914     1.251881 -88.58   0.01330296    2.886    0.654
        11 -13.2308     29.4010    196.8586   1.0500292949e+02   3.1064357848e+01    0.4312405    0.3500066 -22.56  0.001396291    1.904    0.475
        12 -16.1611     39.3755    188.3024   1.0208660834e+02   3.1739800513e+01     9.442568     3.110503  75.12   0.03034535    5.469    0.817
        13 -16.7472      8.8641    244.3677   1.1102084205e+02   2.4408863319e+01      8.55873     2.589919  19.70   0.01684205    7.178    0.861
        14  -9.7696     72.4877    205.4396   9.5532024907e+01   2.4339622695e+01    0.2859031    0.1240623 -75.75  0.001345945    3.030    0.670
        15  -9.3428     82.3523    195.2951   9.2284167270e+01   2.4931712686e+01    0.1191055   0.09558538   1.64 0.0007032706    1.685    0.406
        16  -9.3908    157.9390    192.9268   7.5468447615e+01   1.4032887387e+01     0.168535    0.1436267  65.14 0.0005086401    1.576    0.365
        17  -8.8874    145.4522    183.4946   7.6558130750e+01   1.7474607291e+01    0.1278166    0.1098857  31.34 8.651187e-05    1.022    0.021
        18  -9.9224     99.2884    180.9488   8.6585643117e+01   2.5239917290e+01    0.2306866    0.1649916  38.70 0.0005802172    1.194    0.163
        19 -12.1725    230.5646    169.8754   5.8960039052e+01   6.2789797504e+00    0.4694645    0.3394144 -29.69  0.003225032    1.400    0.286
        20 -12.9405    240.0645    170.9312   5.7766760222e+01   4.8544770806e+00    0.5559816    0.3415987 -22.31  0.002844095    1.420    0.296
        21 -12.1188     58.6201    171.8011   9.5799514769e+01   3.2940216496e+01    0.3865178    0.2998839 -23.59  0.001674565    1.932    0.482
        22 -12.0557     63.8573    167.0273   9.3902570589e+01   3.3293256243e+01    0.3225871    0.2737432 -39.47 0.0007082516    1.538    0.350
        23 -11.0327    110.0087    172.5229   8.2839852680e+01   2.5196252189e+01    0.3035999    0.1575251  37.60  0.001431564    1.677    0.404
        24 -13.6007     61.1272    153.7526   9.3121560555e+01   3.6668326713e+01    0.4978547    0.4630326 -84.59  0.001336597    1.177    0.150
        25 -12.5955     81.8970    152.0490   8.7040069328e+01   3.4005825795e+01    0.8006118    0.5692461 -49.14  0.002225672    1.638    0.389
        26 -12.7427     74.4175    157.9329   8.9929075382e+01   3.3822243658e+01    0.7730767    0.5137579  45.56 0.0008578969    1.309    0.236
        27  -9.9474     87.0159    205.9320   9.2288458931e+01   2.2324491610e+01    0.1843768    0.1618844  64.26 0.0003718376    1.181    0.153
        28 -10.7644    123.9802    202.5107   8.3794451549e+01   1.7651215937e+01    0.2040485    0.1871809 -56.66 0.0005082765    1.347    0.257
        29 -12.2534     36.4702    160.3347   1.0080569835e+02   3.8198777749e+01    0.8820484    0.3120551  57.33  0.001139612    2.836    0.647
        30 -11.3567     32.6883    157.2795   1.0163481180e+02   3.9320303467e+01    0.3059568    0.1917752  54.86 0.0005659775    1.346    0.257
        31 -10.6328    133.7098    145.2293   7.2480116919e+01   2.6395942752e+01    0.9242286    0.2371378 -53.91  0.002341532    6.509    0.846
        32  -8.9687    124.3419    149.8695   7.5603427868e+01   2.7212133365e+01    0.1934638    0.1266775 -37.90 0.0007160123    1.797    0.443
        33  -9.9219    174.8201    149.0938   6.4472654910e+01   1.8092817001e+01    0.1920128    0.1837045 -79.42 0.0006929932    1.306    0.234
        34  -9.6578    192.0723    167.5277   6.4787138634e+01   1.2375401070e+01    0.1914755    0.1559342 -18.30  0.001092128    1.192    0.161
        35 -10.3734     28.2428    142.9403   1.0179208119e+02   4.3202192358e+01    0.2326922    0.1794711  44.10  0.001062916    1.196    0.164
        36  -9.0796    119.3291    141.0882   7.5172952843e+01   2.9921124764e+01    0.2756394     0.127729 -44.53  0.001097454    2.417    0.586
        37 -12.5817     84.5468    137.6892   8.3990199226e+01   3.6860281155e+01    0.3343046    0.2846325  69.37 0.0004913087    1.123    0.110
        38 -10.5046     96.7773    139.4218   8.0828549923e+01   3.4375969986e+01    0.3036511    0.2685251  26.24 0.0008247414    1.236    0.191
        39  -9.6108     99.9641    136.5127   7.9407735201e+01   3.4461082188e+01    0.2817426    0.2314543  -3.11  0.001437007    1.649    0.394
        40  -9.1422     43.6451    137.2866   9.6414835470e+01   4.2872234414e+01    0.1517832   0.08645298  58.44 0.0007022828    1.671    0.402
        41 -14.8625     55.4174    233.3709   1.0125296911e+02   2.1485619812e+01     2.071948    0.9344478  85.89  0.006792235    3.063    0.673
        42 -11.0489    106.9985    130.1991   7.6230137323e+01   3.4568277478e+01     0.466809    0.3398114  25.75  0.001958007    1.597    0.374
        43  -9.5854    136.0000    128.9435   6.8551600833e+01   2.9152217355e+01    0.2333158   0.08325614 -45.94 0.0008010731    2.933    0.659
        44  -9.3958    110.6383    167.1672   8.1878185042e+01   2.6145489813e+01    0.1980062    0.1628156  85.43 0.0009614687    1.419    0.295
        45  -9.0895    160.6632    127.9792   6.2850942066e+01   2.4366564368e+01    0.2274416     0.108851 -59.32 0.0007047881    4.324    0.769
        46  -9.2637    115.4824    123.9902   7.2618633290e+01   3.4283329152e+01    0.2038138    0.1286262 -26.39 0.0007223679    2.462    0.594
        47  -9.1667     96.4923    124.4892   7.8011189011e+01   3.7817554572e+01    0.1482294    0.1394908  61.29 3.635067e-05    1.034    0.033
        48  -9.5396    162.3230    119.9634   6.0675383547e+01   2.5454258258e+01    0.1950459    0.1750425 -36.43 0.0003954582    1.119    0.106
        49  -9.2556    135.0000    119.9742   6.6754514633e+01   3.1144942871e+01     0.239092   0.08442074 -45.19 0.0008004135    2.928    0.659
        50 -10.7924    231.2595    113.8795   4.7864018336e+01   1.3153938783e+01     0.254571    0.2124935 -23.20  0.000813098    1.043    0.041
        51  -9.9577    105.8520    118.2269   7.3970435408e+01   3.7454358928e+01    0.2121376    0.1891894  67.38 0.0002911372    1.093    0.085
        52 -10.1359    244.3191    112.6451   4.5952078818e+01   1.1131135283e+01    0.1200181   0.08294512 -50.44 0.0007046215    1.751    0.429
        53 -10.1533    205.3493    110.3537   5.0763146300e+01   1.8350464846e+01     0.295925    0.2069053  34.73   0.00117243    1.558    0.358
        54  -9.1645     73.0330    108.9922   8.2096914453e+01   4.5694104382e+01    0.2353019     0.166283  69.27 0.0004938724    1.558    0.358
        55 -10.0551     66.0803    103.6195   8.3355891353e+01   4.8181921842e+01    0.2612975    0.1982725 -84.37 0.0005782329    1.368    0.269
        56 -11.1955    241.1400    102.1180   4.4091312549e+01   1.2957646455e+01    0.1914859    0.1517402  -2.97  0.001241041    1.266    0.210
        57 -10.8967    246.8006     91.7946   4.1207581531e+01   1.3258430327e+01    0.2049318    0.1183378  12.03 0.0009599867    2.865    0.651
        58 -10.5580     46.2912     91.6022   8.8329563529e+01   5.4189025064e+01    0.2812247    0.2019342  68.09 0.0007320941    1.464    0.317
        59 -10.3940    234.1450     86.6226   4.1458990792e+01   1.6142519961e+01    0.2217911    0.1448597 -37.89 0.0006006816    1.325    0.245
        60  -9.4183    161.8107     84.4103   5.1645232380e+01   3.1829580270e+01    0.2040465    0.1360134  44.12 0.0004837267    1.605    0.377
        61  -9.8239     58.9460     78.1659   7.9846396950e+01   5.5719396518e+01    0.2373342    0.1937067  72.71 0.0007912313    1.292    0.226
        62  -8.8283    184.3764     77.2782   4.5766447221e+01   2.7737068749e+01    0.1448725     0.107836  24.59 0.0007007386    1.703    0.413
        63 -10.0564      9.3258     76.3239   1.0218756587e+02   6.1880761882e+01    0.1407889   0.08826029 -46.07  0.000658478    1.689    0.408
        64  -8.8193     44.5662     68.4596   8.3446662896e+01   6.0334327891e+01     0.144231    0.1335688 -83.01 0.0001325329    1.027    0.026
        65 -10.5874     30.7837     60.9048   8.8212993098e+01   6.3989645570e+01    0.4968675    0.2160041  46.52  0.001965065    2.592    0.614
        66 -11.7421     13.1656     60.0643   9.7628923758e+01   6.5836774539e+01    0.3694457    0.2807189  62.29  0.000560717    1.373    0.271
        67 -11.4848    119.8303    245.1041   8.9297614027e+01   1.1839705150e+01    0.2233213    0.1563523 -55.22  0.001164488    1.961    0.490
        68 -12.4866    220.9424     35.2250   3.0263191167e+01   2.5073239733e+01    0.4267799    0.3651589  48.77  0.001080194    1.419    0.295
        69 -11.4169    192.8266    194.7149   6.9265585822e+01   8.5946660364e+00    0.8224332    0.4339697 -57.83  0.002834189    7.422    0.865
        70 -12.7361    202.3312     48.9820   3.5662038056e+01   2.7573202042e+01     0.744411    0.5076008  59.28  0.002028939    1.604    0.377
        71 -10.9148      8.7883     51.1139   9.8419011280e+01   6.8413338375e+01    0.2020562     0.165855  73.20 0.0005020631    1.249    0.200
        72 -10.6480      2.7899     49.2462   1.0179143569e+02   6.9214682103e+01    0.2682926    0.2290414  25.35 0.0008810061    1.315    0.239
        73 -10.6111     33.8047     55.2259   8.4934545767e+01   6.5047075572e+01    0.2683397    0.2173695  53.39 0.0005914477    1.318    0.241
        74  -9.4966    187.6230     31.2134   3.2187659890e+01   3.3269915710e+01    0.1906944    0.1309623 -16.07 0.0005456413    1.629    0.386
        75  -9.9776    197.9674     23.7202   2.9056468207e+01   3.1605195993e+01    0.2781287    0.1910764  -3.80  0.001065095    1.863    0.463
        76  -9.3821    189.4927     15.0773   2.7245397309e+01   3.4592100535e+01    0.2035854    0.1253465 -28.60  0.000561983    1.529    0.346
