#   1 NUMBER                 Running object number                                     
#   2 MAG_AUTO               Kron-like elliptical aperture magnitude                    [mag]
#   3 X_IMAGE                Object position along x                                    [pixel]
#   4 Y_IMAGE                Object position along y                                    [pixel]
#   5 X_WORLD                Barycenter position along world x axis                     [deg]
#   6 Y_WORLD                Barycenter position along world y axis                     [deg]
#   7 A_WORLD                Profile RMS along major axis (world units)                 [deg]
#   8 B_WORLD                Profile RMS along minor axis (world units)                 [deg]
#   9 THETA_WORLD            Position angle (CCW/world-x)                               [deg]
#  10 FWHM_WORLD             FWHM assuming a gaussian core                              [deg]
#  11 ELONGATION             A_IMAGE/B_IMAGE                                           
#  12 ELLIPTICITY            1 - B_IMAGE/A_IMAGE                                       
         1 -13.9469      4.4514     11.6763   1.1970642185e+02   7.2223082759e+01       2.2747    0.8041277 -42.64   0.01218808    2.044    0.511
         2 -13.7533    204.5967      9.4460   6.3238613646e+01   3.2484541700e+01     1.446302    0.7137427  51.36  0.001403411    2.137    0.532
         3 -14.3425    199.4469     16.5646   6.5735668929e+01   3.3031191334e+01     2.657186     1.608513  29.60   0.01054334    2.361    0.576
         4  -9.5393     94.6072    216.7999   1.3371031244e+02   1.8690648714e+01    0.2274721    0.1447502  72.26  0.000500347    1.619    0.382
         5 -12.1275    139.7281    248.4706   1.2892549629e+02   6.5126569257e+00    0.3757856    0.3119704  84.55  0.002723661    1.429    0.300
         6 -12.5600    126.4628    245.0461   1.3089453952e+02   9.0738813824e+00     0.391589    0.2744037  36.40  0.002574022    1.364    0.267
         7 -11.4499    110.8420    249.1796   1.3406889742e+02   1.0792273593e+01    0.2435589    0.1704983  52.99  0.001155103    1.096    0.088
         8 -12.2292    106.0535    246.6599   1.3466079062e+02   1.1890639357e+01     0.387041    0.2392214  35.18  0.002013286    1.678    0.404
         9 -11.7896     99.3509    249.0185   1.3604617041e+02   1.2489783018e+01     0.442505    0.2051937  52.55  0.002329311    1.734    0.423
        10 -11.6519    100.5257    245.5080   1.3551827011e+02   1.2879412541e+01    0.2547024    0.1722726  54.77  0.001019115    1.144    0.126
        11 -13.5351     81.0358    246.8718   1.3900657343e+02   1.5395828979e+01      0.86459    0.4903134  45.32  0.005582418    1.439    0.305
        12 -12.7900     75.8290    243.0642   1.3959044019e+02   1.6729253714e+01    0.4613208    0.2372296  48.67  0.002251307    1.506    0.336
        13 -11.4454     62.7984    250.3735   1.4232870545e+02   1.7217262392e+01    0.5128255    0.1454777  38.43  0.002348047    3.307    0.698
        14 -11.4059     59.6846    247.8081   1.4266563854e+02   1.8032477417e+01    0.3366084    0.1578178 -65.69  0.002074894    2.354    0.575
        15 -15.9799      4.0445    236.0551   1.5095797454e+02   2.6186601771e+01     10.42306     1.031088 -74.85   0.03752198    6.577    0.848
        16 -11.5499     69.4339    195.3202   1.3638109428e+02   2.6453945463e+01    0.3583344    0.2389669 -46.03  0.002041447    2.094    0.523
        17 -11.2491     33.5483    229.0084   1.4582043220e+02   2.4391413487e+01     0.223863    0.1683169  79.55 0.0007536992    1.120    0.107
        18 -11.6307     74.2825    188.2839   1.3459794753e+02   2.7233234548e+01    0.2560096    0.2192193 -64.24 0.0005109748    1.325    0.245
        19  -9.5346    125.5527    185.2092   1.2322754813e+02   1.9729049488e+01    0.2923063    0.1595272  22.45   0.00108136    3.543    0.718
        20 -10.9106     82.9879    176.1476   1.3120172174e+02   2.8545834868e+01    0.2270309    0.1917509 -84.33 0.0003612115    1.103    0.094
        21 -13.2510     70.5850    173.6218   1.3362762861e+02   3.0860326230e+01    0.4688568    0.2682653 -46.25  0.001638201    2.277    0.561
        22 -10.9859    120.2780    238.3965   1.3127900927e+02   1.1065308613e+01    0.2956804    0.1716247  89.31  0.001506254    2.823    0.646
        23 -12.2845     57.4219    129.2791   1.3044535799e+02   4.2637336446e+01     2.204673    0.6441119 -72.61  0.004581213   10.024    0.900
        24 -12.2938     89.2303    167.2684   1.2853373269e+02   2.9526236533e+01     1.114832     0.536092  57.25  0.003668446    2.371    0.578
        25 -12.9607     67.3937    144.1878   1.3025576235e+02   3.7894293548e+01     1.112024     0.610909  87.54  0.004765994    2.570    0.611
        26 -14.1577     10.5557    207.0213   1.4851306009e+02   3.0850626509e+01      1.87027     1.404452  -5.63   0.01239414    2.969    0.663
        27 -12.0680     90.3612    150.2948   1.2555337142e+02   3.3127671733e+01    0.2706656    0.2457569 -41.67 0.0006269629    1.289    0.224
        28  -9.9087    101.6133    150.9530   1.2292292987e+02   3.1137407082e+01    0.2648429    0.2360042  51.56 0.0007902614    1.135    0.119
        29  -9.4215    104.1632    146.7405   1.2152572245e+02   3.1644713400e+01    0.2727241     0.174994 -34.10  0.001220175    2.147    0.534
        30 -11.7229     43.5923    149.2463   1.3682371563e+02   3.9651137678e+01    0.3786343    0.2220478  38.58  0.001653862    1.827    0.453
        31  -9.5985    134.3727    148.2407   1.1455458379e+02   2.5720106284e+01     0.204841    0.1371078 -61.14 0.0005709663    1.648    0.393
        32  -8.7206    192.2247    144.0336   1.0098665681e+02   1.4490552647e+01    0.1844136    0.1198044 -36.84 0.0003932565    1.555    0.357
        33  -9.8750    111.6383    136.4762   1.1763494303e+02   3.2619364936e+01    0.3035786    0.2415833 -22.79   0.00143287    1.638    0.390
        34 -14.3841     46.5780    230.1280   1.4366662161e+02   2.2690004819e+01     1.458751    0.8399288  80.49  0.001451116    1.547    0.354
        35 -10.5240     99.3799    133.5852   1.2016445807e+02   3.5443095102e+01    0.2696756    0.2267466 -29.85 0.0005098944    1.426    0.299
        36 -11.3590     50.0759    129.9898   1.3251538556e+02   4.3348209341e+01    0.2646681    0.1759082  47.57  0.000623297    1.602    0.376
        37 -15.5478     51.8842    219.0954   1.4192371408e+02   2.4069805926e+01     6.076717     2.361989  42.00   0.02196106    2.208    0.547
        38  -9.3870    108.2176    123.4970   1.1569995059e+02   3.6165654462e+01    0.1966596    0.1446364  43.12 0.0004326391    1.402    0.287
        39 -11.1192    168.2412    113.4118   9.8603594512e+01   2.5644101696e+01    0.3760074    0.3112992 -73.93 0.0008349381    1.442    0.307
        40 -10.7097    193.2344    195.2711   1.1116196998e+02   5.5385513299e+00    0.6678235    0.3557801 -64.25  0.001969079    6.945    0.856
        41 -10.5643    248.9130    249.2617   1.1035982459e+02  -1.0151584006e+01    0.2242204     0.117942  24.39  0.001388814    1.587    0.370
        42 -10.6820    144.4527    243.0345   1.2745227179e+02   6.5666959936e+00    0.1857715     0.130654  45.12 0.0004644418    1.120    0.107
