#   1 NUMBER                 Running object number                                     
#   2 MAG_AUTO               Kron-like elliptical aperture magnitude                    [mag]
#   3 X_IMAGE                Object position along x                                    [pixel]
#   4 Y_IMAGE                Object position along y                                    [pixel]
#   5 X_WORLD                Barycenter position along world x axis                     [deg]
#   6 Y_WORLD                Barycenter position along world y axis                     [deg]
#   7 A_WORLD                Profile RMS along major axis (world units)                 [deg]
#   8 B_WORLD                Profile RMS along minor axis (world units)                 [deg]
#   9 THETA_WORLD            Position angle (CCW/world-x)                               [deg]
#  10 FWHM_WORLD             FWHM assuming a gaussian core                              [deg]
#  11 ELONGATION             A_IMAGE/B_IMAGE                                           
#  12 ELLIPTICITY            1 - B_IMAGE/A_IMAGE                                       
         1 -13.0738    110.6337     96.8354   8.2347055117e+01   4.1487312335e+01     4.406085     2.767112  37.42   0.01933352    1.707    0.414
         2 -13.3043     10.2845    108.0469   1.1615848445e+02   5.2015111250e+01     3.703557     1.434828 -58.62   0.01780726    1.925    0.481
         3 -12.3647     47.1193     93.3555   1.0151832122e+02   5.2291079920e+01     2.753158     1.341111 -72.12    0.0109522    2.729    0.634
         4 -10.2114     84.6077     20.6449   6.3180332969e+01   6.0009593868e+01    0.4180733    0.2135302 -34.55  0.001451552    2.043    0.511
         5 -10.3268     75.0466     17.8169   6.4967366002e+01   6.2192458178e+01    0.2810168    0.2551332 -43.36 0.0006902667    1.430    0.301
         6 -10.6350     80.6537     12.7877   6.0946372445e+01   6.1670104055e+01    0.2970232    0.2487396 -28.74  0.001208067    1.340    0.254
         7  -7.8889    236.8097      8.8050   3.5239897788e+01   2.5549287675e+01    0.1743706    0.1173756 -64.45 0.0005312831    1.282    0.220
         8  -9.6206     66.9810      8.4956   6.3356628738e+01   6.4714926550e+01    0.1891591    0.1111011  45.63  0.001038536    1.606    0.377
         9 -10.3173     90.0257      7.0227   5.5755698307e+01   6.0322712131e+01    0.1990428    0.1756897  27.55 0.0006557207    1.048    0.046
        10 -10.3852     79.2453      2.9447   5.6911432812e+01   6.2896248024e+01    0.3526405     0.235434  82.29  0.001776823    2.609    0.617
        11 -10.4432    105.7876      2.5432   5.0127106168e+01   5.7271221680e+01    0.3719995     0.194215  56.77  0.001868719    1.652    0.395
        12  -9.9980     17.3182      2.6396   8.1935718429e+01   7.2661969883e+01    0.2168879    0.1678966  -9.75 0.0002745354    1.096    0.087
        13 -10.5277     74.0983      4.6878   5.9249857893e+01   6.3751524643e+01    0.4326542    0.2499829 -48.55   0.00209115    2.824    0.646
        14  -8.6088      8.3177      2.3152   8.6790311209e+01   7.3588215399e+01    0.1165282   0.06480878 -14.90 0.0003472942    1.651    0.394
        15  -8.9347    160.0060    231.9931   9.8153301461e+01   3.7662283857e+00    0.2055812    0.1729586  36.79  0.001327363    1.031    0.030
        16  -8.0733    206.6668    250.6559   9.2167450252e+01  -6.1113949685e+00     0.123331   0.07697769   8.29 0.0007050288    1.760    0.432
        17  -7.7836    203.3177    250.6395   9.2765847122e+01  -5.6250076859e+00    0.1063872   0.08972555  58.90 0.0003923161    1.763    0.433
        18  -8.9217    188.0498    249.0819   9.5312638419e+01  -3.1641518762e+00    0.2717555    0.1968483  13.23  0.001747646    1.354    0.261
        19 -10.0608    164.1875    249.6391   9.9814472701e+01   3.8601273391e-01    0.4115181    0.3516296  12.32  0.002881736    1.206    0.171
        20  -9.4002    157.5044    249.0314   1.0098567503e+02   1.5038170334e+00    0.2860082    0.1988323  56.07  0.001618388    1.591    0.371
        21  -9.3468    153.1643    249.6295   1.0187816223e+02   2.0820048158e+00    0.3667986    0.1633664  29.43  0.001674172    2.495    0.599
        22  -9.2350    104.4880    248.9440   1.1093551424e+02   9.5448692884e+00     0.283712    0.1661085 -52.42  0.001664122    2.113    0.527
        23  -7.7203    144.9610    230.7500   1.0093929874e+02   6.4082408268e+00    0.1629334   0.09476798  38.72 0.0003431925    1.481    0.325
        24  -8.2831    225.3382    229.0438   8.5379036779e+01  -6.0187413602e+00    0.2240258    0.1394444  12.76  0.001066926    1.603    0.376
        25  -9.1282    140.1085    227.3935   1.0144050087e+02   7.7739334077e+00    0.3265956    0.1891238  29.25  0.001648671    1.828    0.453
        26  -8.6115    221.7992    226.2067   8.5532861660e+01  -5.1142264867e+00    0.2464939    0.1439621 -10.42   0.00128756    2.058    0.514
        27  -7.9567    112.4733    226.5205   1.0687931338e+02   1.2337748078e+01    0.1255623    0.1095141  51.17 7.421395e-05    1.054    0.051
        28  -8.8196    109.5105    246.4484   1.0973500698e+02   9.2322618471e+00    0.1953089    0.1122346 -78.60  0.001038347    2.407    0.585
        29  -8.6087    157.4709    223.4717   9.7393835434e+01   5.5973153447e+00    0.1294865    0.1128124  35.69 0.0002455034    1.009    0.009
        30 -11.0861    219.6424    218.5209   8.4597654686e+01  -3.7168466035e+00    0.7295817    0.3955425  -0.59  0.003148733    3.028    0.670
        31 -10.9543    211.5770    216.8941   8.5799291166e+01  -2.2233414806e+00    0.6476026    0.3685605 -32.55  0.002783309    1.813    0.448
        32 -11.1502    189.2008    235.3511   9.3046558102e+01  -1.4075843336e+00    0.8066005    0.4787093  -3.48  0.003855238    2.694    0.629
        33  -8.9675    152.8316    217.2047   9.7376549173e+01   7.4625090534e+00    0.1777934    0.1465485  13.06 0.0005635822    1.329    0.248
        34 -10.1223    229.4371    214.8310   8.2175431936e+01  -4.6889412560e+00     0.265555    0.1908495 -39.25  0.001608651    1.617    0.382
        35 -10.0048    205.2064    214.5847   8.6590536997e+01  -8.5873713224e-01     0.486589    0.1940976  43.26  0.002057661    2.487    0.598
        36  -8.7356    174.6790    214.8768   9.2587121326e+01   4.1653036731e+00    0.2251003    0.1601249  29.23 0.0005706694    1.297    0.229
        37 -10.0700    237.1173    208.9018   7.9740728096e+01  -5.0141384793e+00    0.3396797    0.3151786 -70.08   0.00224602    1.797    0.444
        38  -8.8211    219.2241    208.0981   8.2811342318e+01  -2.1313883930e+00    0.3036092    0.1629727 -42.85  0.001153539    2.108    0.526
        39  -9.8649    226.2044    208.9650   8.1695929096e+01  -3.3572628736e+00    0.2848902    0.1937482  18.27  0.001648973    1.383    0.277
        40 -10.0606    187.5273    208.8282   8.9000977037e+01   2.9928243729e+00    0.4584109    0.3133294  49.28  0.002462541    1.606    0.377
        41  -8.7818    202.4943    208.0928   8.5955724248e+01   5.9308967832e-01    0.1836332    0.1244898 -34.49 0.0004097413    1.526    0.345
        42 -10.2582    167.3936    204.8831   9.2381838196e+01   7.1570968635e+00    0.3310736    0.2927603 -17.03 0.0005953414    1.200    0.166
        43  -7.5704     41.6913    206.7465   1.1913817860e+02   2.6123921346e+01    0.1004464   0.09163975 -50.97 0.0002424065    1.515    0.340
        44 -10.1957    232.3070    203.3723   7.9567479835e+01  -3.4914852277e+00    0.6180195    0.3267943  27.82  0.003122685    1.897    0.473
        45  -7.6647    157.7169    203.9990   9.4241814498e+01   9.0166121100e+00    0.1532957    0.1220504 -45.55 0.0004803732    1.371    0.271
        46  -7.3169    136.6584    203.7141   9.8658435506e+01   1.2742076626e+01    0.1332348    0.1054976   5.14 0.0004543096    1.640    0.390
        47  -9.8103    203.8805    197.4807   8.3737632588e+01   2.0699763212e+00    0.4064414     0.323415 -78.69  0.002135002    2.205    0.546
        48  -9.0958    220.2813    189.3718   7.9073347185e+01   5.9380755665e-01    0.2646575    0.2048848 -58.38  0.001021159    1.894    0.472
        49  -8.5267    223.6661    198.2927   8.0170557573e+01  -1.3625632787e+00    0.1901133    0.1551773 -37.05 0.0005172369    1.374    0.272
        50  -9.6102    227.0668    196.6802   7.9244504273e+01  -1.6663406653e+00    0.3281798    0.2390951  11.64  0.000806213    1.320    0.242
        51  -7.9924    159.2853    194.6611   9.2297663391e+01   1.0494633706e+01    0.1354179      0.10956  79.93 0.0007016069    1.633    0.387
        52  -7.6089    190.9997    191.2224   8.5087164895e+01   5.3921311119e+00    0.1786121    0.1066383  38.90 0.0004036407    1.598    0.374
        53 -10.2834    207.8592    189.3214   8.1407149922e+01   2.7337814740e+00     0.295712    0.2794125 -25.31  0.001846632    1.208    0.172
        54  -9.4610    237.1703    185.1155   7.5189268817e+01  -1.5306378708e+00    0.2105541    0.1581435  -3.87 0.0006798962    1.251    0.200
        55  -9.4234    225.8192    185.0913   7.7211473225e+01   3.4492112151e-01    0.3032795     0.185287  32.78  0.001567486    1.625    0.385
        56  -8.4607    195.6648    179.3264   8.1815332718e+01   6.6573806397e+00    0.1352796    0.1150245  88.50 0.0007051582    1.719    0.418
        57  -8.4616     17.1343    177.5501   1.2183191998e+02   3.5105068445e+01    0.3812611    0.1587085  84.75  0.001711218    2.594    0.614
        58  -8.3345    212.7769    175.9839   7.7794815854e+01   4.1205284119e+00    0.1799194    0.1074342 -35.88 0.0003469735    1.614    0.380
        59  -8.6219    187.9762    176.4774   8.2796173256e+01   8.6138248571e+00    0.1969946    0.1247965  63.88 0.0008100829    2.551    0.608
        60  -9.7989    228.2008    174.8855   7.4716289083e+01   1.5857020646e+00    0.2668517    0.1750369 -15.46  0.001355015    1.614    0.380
        61  -8.1410     28.0167    175.5180   1.1926802146e+02   3.4519480959e+01    0.1644098    0.1164828  40.04 0.0005994776    1.539    0.350
        62 -10.4123    224.4468    171.6073   7.4718196716e+01   2.7808417134e+00    0.4013635     0.186476 -33.53  0.001350994    2.060    0.515
        63  -8.9703     19.0124    170.6266   1.2083673219e+02   3.6508394951e+01    0.1609553    0.1367734  76.12  0.001115087    1.140    0.123
        64  -8.7121    180.0061    169.4820   8.3015055765e+01   1.1469433492e+01    0.2055726    0.1230603  18.99 -6.485695e-05    2.424    0.588
        65  -9.9951      7.2015    167.7730   1.2322149640e+02   3.8181872044e+01    0.3556842     0.193112  76.78  0.002011456    1.674    0.403
        66  -8.0676     12.1434    167.7651   1.2212654250e+02   3.7772389592e+01    0.1585531    0.1185265 -63.96  0.000548496    1.354    0.262
        67 -11.0410    201.9000    165.7945   7.7765824150e+01   7.9389901425e+00    0.4807909    0.3482707  41.89  0.002470494    1.418    0.295
        68 -12.2011     97.8665    111.1162   8.9891370296e+01   4.0651814293e+01     2.185204     1.108522  61.58  0.006913163    3.893    0.743
        69  -8.3194    197.4655    246.5597   9.3218293369e+01  -4.2311421670e+00    0.2107423    0.1148117 -37.31  0.001189337    2.102    0.524
        70 -13.3070     27.9611    138.3481   1.1522260209e+02   4.3330733535e+01     2.843955     1.988456 -42.86   0.01648595    1.635    0.388
        71  -9.4121     56.9428    144.3495   1.0833451956e+02   3.8726434801e+01    0.2449374     0.172878 -63.74 0.0003483342    1.252    0.202
        72 -11.9875     68.7863     89.5436   9.3263777439e+01   5.0387585694e+01     1.692365     1.042741  23.14  0.005762165    1.968    0.492
        73 -12.5175     39.2635    102.2928   1.0606121422e+02   5.1005820864e+01     1.364758     1.059361 -59.34  0.004413154    1.078    0.073
        74  -9.3988     48.4631    143.5146   1.1047198894e+02   3.9948228180e+01     0.247317    0.1584615 -68.34 0.0007995843    1.349    0.259
        75 -10.0461     48.1446    139.7484   1.0999181167e+02   4.0907878092e+01    0.4735929    0.2205555  47.44  0.001632203    2.364    0.577
        76  -8.6551     83.5658    139.2510   1.0022357886e+02   3.6252522572e+01    0.2743231    0.2255327  25.59  0.001162054    1.419    0.295
        77 -10.0144     84.0058    134.8156   9.9226939097e+01   3.7268110291e+01    0.2803091    0.2304329 -62.09 0.0002235269    1.123    0.110
        78 -12.6621     70.5338    103.7658   9.6352621418e+01   4.6824420671e+01      1.93076     1.329568 -20.80  0.004569576    1.915    0.478
        79  -9.3103    139.0288    249.0116   1.0446031288e+02   4.3498980699e+00    0.2779845    0.1772783 -14.80  0.001343881    3.224    0.690
        80  -9.7000     83.3000    129.5317   9.8341549691e+01   3.8669732193e+01     0.268314    0.2331266 -80.89 0.0002125002    1.150    0.131
        81  -8.3439    129.6468    128.2952   8.5469638581e+01   3.0530877638e+01    0.1593961     0.123409  83.11 0.0007032842    1.687    0.407
        82  -9.4680     90.9602    126.9299   9.5619168877e+01   3.8065907352e+01    0.2175439    0.2057056 -66.92 0.0003454483    1.019    0.019
        83 -12.9774     42.4419    115.3916   1.0757178465e+02   4.7510229105e+01     2.495892      1.32322  76.30  0.009513945    3.454    0.711
        84  -8.4351    134.3164    247.6614   1.0518669324e+02   5.2870320768e+00    0.1226777   0.08285127  63.85 0.0007048336    1.703    0.413
        85 -10.2258    194.9500    151.1378   7.5937899702e+01   1.2046420131e+01     0.373365    0.1737663 -49.39  0.001396946    2.453    0.592
        86  -9.9000    125.1872    116.3427   8.3639974210e+01   3.4167783965e+01    0.2841856    0.2564777 -45.52 0.0003811627    1.070    0.065
        87 -10.9181     62.4713     80.5100   9.2889486609e+01   5.3307520010e+01     1.020817    0.3192204  34.83  0.001736754    3.482    0.713
        88  -8.6717    147.5127    115.4935   7.7751027467e+01   2.9582838268e+01    0.1570297    0.1524558 -48.15 0.0006294458    1.016    0.015
        89  -9.7410    139.3494    112.2609   7.8911061089e+01   3.2074654220e+01    0.2780992    0.2700549  13.93 0.0002248385    1.066    0.062
        90 -13.0743     70.1190    121.1669   1.0039985497e+02   4.2681227134e+01     1.635766     1.147611 -22.48  0.007810436    1.946    0.486
        91  -8.9399    151.7585     98.0157   7.1969618732e+01   3.2290296664e+01    0.3446749    0.2539481  76.29 0.0008157899    1.790    0.441
        92 -12.7925     27.8904    123.1483   1.1315231294e+02   4.7028474242e+01     1.584203     1.221796 -22.38  0.007614291    1.671    0.402
        93  -7.6990     85.0313     84.7806   8.6586869865e+01   4.8881595059e+01    0.3171856    0.1561376  40.92  0.001010984    2.186    0.543
        94  -9.2843     79.5229     86.5375   8.8883171038e+01   4.9412607533e+01    0.4216839    0.2795709 -14.91 0.0007681876    2.118    0.528
        95  -9.7478     82.4269     80.0264   8.5996885425e+01   5.0348662663e+01    0.4379635    0.3086201 -19.61  0.001401043    1.675    0.403
        96 -11.0812     82.1514    102.9549   9.2521521789e+01   4.5240932929e+01     1.156313    0.4937192 -38.70  0.003573585    2.795    0.642
        97  -9.9785    220.7205    161.2358   7.3205166036e+01   5.2152319211e+00    0.3033144    0.2301054 -22.79  0.001635963    1.239    0.193
        98  -8.1098    201.4857     77.0501   5.6241191588e+01   2.4350062832e+01     0.228377    0.1397044 -35.55 0.0005773405    1.558    0.358
        99  -8.3336     72.1939     76.2463   8.8261474854e+01   5.2809690651e+01    0.1997676    0.1733218 -19.17 0.0003597956    1.125    0.111
       100  -7.4183     94.5199     52.4365   7.2768910891e+01   5.3451368649e+01    0.1414674    0.1305529  -0.98 0.0002612883    1.013    0.013
       101  -8.7311     29.4772    159.5138   1.1732630570e+02   3.8107371601e+01     0.127879    0.1038268 -84.58 -4.25609e-05    1.022    0.022
       102  -8.1859     77.3167     29.3336   6.9228977343e+01   6.0299871722e+01    0.1402983   0.09318268  10.09 0.0003804602    1.691    0.409
       103  -9.4494    189.7743    156.1776   7.8117629281e+01   1.2118773970e+01    0.2455302    0.1708902 -84.52 0.0009609518    2.874    0.652
       104 -10.9546    182.9376    224.5226   9.2535536140e+01   1.2272073048e+00     0.420235    0.3460402  36.06    0.0026661    1.135    0.119
       105  -8.5374    131.1389     20.8160   5.1755160470e+01   4.9644678062e+01    0.1887255    0.1474883  32.38 0.0002738716    1.296    0.228
       106 -11.5911    178.6512    239.1521   9.5614173411e+01  -3.1466870659e-01    0.9775574    0.7688346 -40.79  0.006391881    1.505    0.335
       107  -9.3481    145.4828    239.0251   1.0195815563e+02   4.9464786145e+00    0.2452718    0.1244603 -50.85  0.001261159    2.345    0.574
       108  -9.2130    103.5052     11.4885   5.4234810915e+01   5.6994454418e+01    0.1320861    0.1158317  34.02 0.0008105628    1.002    0.002
       109  -8.7491    114.3093     10.3338   5.1350177654e+01   5.4658521598e+01     0.142155   0.08791315  31.25 0.0002421179    1.674    0.403
       110  -7.9264    115.2621    242.0038   1.0815466770e+02   9.1338051204e+00    0.1594759    0.1424802  70.05 0.0004656105    1.137    0.120
       111  -7.7044    215.9500    240.3716   8.8916506991e+01  -6.1363824789e+00    0.2221361    0.1703682  88.63  0.001097949    3.865    0.741
       112  -7.5338    200.3254    241.2840   9.1894391737e+01  -3.9475947058e+00    0.1226537   0.08051674  11.21  0.000175761    1.601    0.375
       113  -7.4161    225.6551    239.6841   8.7081041194e+01  -7.4399344353e+00     0.125066   0.07616286   7.72 0.0007048147    1.717    0.418
       114  -8.9993     89.8339    237.3785   1.1253099853e+02   1.3704744035e+01    0.1636588    0.1037307  33.30 0.0006978959    1.670    0.401
       115  -9.2715    167.1837    234.6889   9.7150699258e+01   2.1810863729e+00    0.4332923    0.2746431  17.37   0.00229975    1.900    0.474
       116  -8.0089    119.5059    236.5606   1.0670150083e+02   9.4323013151e+00    0.1247493    0.1030422  50.96 0.0008074575    1.017    0.016
       117 -11.9670      6.5006    125.5228   1.1944754599e+02   4.8110343944e+01    0.7554138    0.7203392 -36.14    0.0055943    1.333    0.250
