#   1 NUMBER                 Running object number                                     
#   2 MAG_AUTO               Kron-like elliptical aperture magnitude                    [mag]
#   3 X_IMAGE                Object position along x                                    [pixel]
#   4 Y_IMAGE                Object position along y                                    [pixel]
#   5 X_WORLD                Barycenter position along world x axis                     [deg]
#   6 Y_WORLD                Barycenter position along world y axis                     [deg]
#   7 A_WORLD                Profile RMS along major axis (world units)                 [deg]
#   8 B_WORLD                Profile RMS along minor axis (world units)                 [deg]
#   9 THETA_WORLD            Position angle (CCW/world-x)                               [deg]
#  10 FWHM_WORLD             FWHM assuming a gaussian core                              [deg]
#  11 ELONGATION             A_IMAGE/B_IMAGE                                           
#  12 ELLIPTICITY            1 - B_IMAGE/A_IMAGE                                       
         1 -14.9112    161.3856     49.2367   7.6949522463e+01   3.8179239621e+01       1.1229     1.056552   0.57  0.003762079    1.200    0.166
         2 -15.0712    174.8673     19.4264   6.6679161589e+01   3.8532655283e+01     1.004433    0.8405825  74.60  0.003510097    1.028    0.027
         3 -14.3605    190.0930     15.3929   6.3667706060e+01   3.5313145869e+01     1.927401     0.826406 -75.16  0.005924406    5.412    0.815
         4  -9.8271    150.5269    248.4448   1.2337939510e+02   2.0707756822e+00    0.1294433    0.1079027  35.44 9.257865e-05    1.102    0.092
         5 -20.4405     75.9680    180.6885   1.2965603555e+02   2.8281761303e+01     16.11829     6.808408 -63.18   0.06735878    2.293    0.564
         6 -10.4209    139.4239    243.8705   1.2494328932e+02   4.7436447877e+00      0.19262    0.1741362  69.26 0.0008000236    1.156    0.135
         7 -11.1519    202.9791    173.2476   9.9234314810e+01   5.9489015584e+00    0.2981365    0.1846245 -64.84  0.001174682    2.725    0.633
         8 -12.4289    194.5593    172.1859   1.0073889859e+02   7.8454165341e+00    0.4475672    0.2787839 -52.95  0.001383109    1.856    0.461
         9 -12.3699    230.1768    166.6622   9.2591135627e+01   1.8729170005e+00    0.3448842     0.177347 -51.43  0.001418236    2.410    0.585
        10 -11.2082    139.6088    249.3981   1.2565217884e+02   3.7589281796e+00    0.2601483    0.1682458 -67.26  0.001250969    2.032    0.508
        11 -10.7979    207.3160    170.8128   9.7848872661e+01   5.5445517987e+00    0.3101584     0.171498 -51.74  0.001005042    2.143    0.533
        12 -12.6698    189.0312    154.2798   9.8013585259e+01   1.2536378733e+01     0.610272    0.4970886  40.68  0.002297031    1.223    0.183
        13 -10.1158    177.9526    156.0473   1.0079078296e+02   1.4548730434e+01    0.1776717     0.174698  25.01 0.0003272549    1.006    0.006
        14 -12.1868    167.2152    241.9946   1.1913730555e+02   2.7632815031e-01    0.2835976    0.2127003 -25.85  0.001584866    1.650    0.394
        15 -11.5162    164.3044    241.3088   1.1961329211e+02   8.9332748830e-01    0.2139937    0.1798392  51.10 0.0005754267    1.169    0.144
        16 -13.0280    165.0345    153.8539   1.0319037881e+02   1.7781608321e+01    0.5457656    0.3087938  51.22  0.001579516    1.837    0.456
        17 -11.1212     17.9025    153.9615   1.3986155087e+02   4.1238234813e+01    0.2325868    0.1408008 -67.63 0.0004743515    1.337    0.252
        18 -10.8786     18.7722    148.9988   1.3906220336e+02   4.2288152080e+01    0.2622942    0.1796915 -42.83    0.0014648    1.641    0.390
        19 -11.8703    174.4405    148.9192   9.9962899177e+01   1.6784259350e+01    0.3701144    0.2967063 -64.70  0.001142714    1.434    0.303
        20 -12.3393     27.4802    145.6306   1.3647644811e+02   4.2280404694e+01    0.3423035    0.3165169 -54.68 0.0008718573    1.199    0.166
        21 -11.9849    128.6604    244.2069   1.2712319456e+02   6.5069653726e+00    0.2035831    0.1858805  70.17 0.0004590262    1.130    0.115
        22 -12.8832    152.2387    139.1741   1.0281677284e+02   2.3705981991e+01    0.3648972    0.3242865 -77.02  0.001731525    1.239    0.193
        23 -10.6717     25.9693    139.0336   1.3595248592e+02   4.3928932757e+01    0.1834957    0.1527488 -61.76 0.0004900287    1.090    0.083
        24 -10.3769      9.3922    235.9037   1.4846420785e+02   2.4636468651e+01    0.1530309   0.06407532  77.55 0.0007976874    2.340    0.573
        25 -10.0224      4.7929    235.3990   1.4919429748e+02   2.5194310671e+01    0.1065468   0.09104074  66.63 0.0003852728    1.346    0.257
        26 -12.9990    160.4750    127.9013   9.8175058669e+01   2.4290470840e+01    0.5003996    0.3627543 -55.05  0.001682828    1.480    0.324
        27  -9.8919    162.2385    244.6150   1.2051738094e+02   7.0240468446e-01    0.1208303   0.09658828  77.42 0.0006922811    1.641    0.391
        28 -13.2915    207.8409    224.6608   1.0821851346e+02  -3.9433238845e+00    0.4423792    0.2433715 -39.90  0.001747563    1.973    0.493
        29 -11.1069      6.4417    227.5062   1.4844670382e+02   2.6561889553e+01    0.1128258   0.09509392  64.82  0.000888154    1.308    0.235
        30 -12.0880     24.4356    215.0285   1.4436035551e+02   2.7228003911e+01    0.1998601    0.1537407  55.85 0.0003892352    1.272    0.214
        31 -11.1559    231.2779    113.7183   8.0821356892e+01   1.1154235411e+01    0.2474561    0.2403553  -4.82 0.0007473854    1.125    0.111
        32 -11.0719    167.6402    112.6324   9.2736332167e+01   2.5780773464e+01    0.3482098    0.2370011 -83.09  0.001360311    2.383    0.580
        33 -10.7208     20.3400    211.9588   1.4488373239e+02   2.8298238182e+01     0.157982    0.1109587 -82.55 0.0004372306    1.189    0.159
        34 -10.9889    205.2243    110.2524   8.4524352715e+01   1.7519972792e+01    0.3411588      0.20122  50.29 0.0009296185    1.728    0.421
        35 -11.8653     24.3464    106.8592   1.3125466058e+02   5.1308690675e+01    0.3152525    0.2015189   4.20  0.001310758    2.044    0.511
        36 -10.8806     28.8678     97.6232   1.2808322589e+02   5.2936233349e+01    0.3266879    0.1803319 -55.88  0.001780562    1.484    0.326
        37 -13.8652     11.9250    205.9310   1.4599622525e+02   3.0397614023e+01    0.4853289     0.381479  22.90  0.003013529    1.853    0.460
        38 -12.7252     44.7336     93.1999   1.2204104899e+02   5.2343213104e+01    0.4542231     0.257161   1.94  0.001757404    2.668    0.625
        39 -11.8458      6.4286     89.0348   1.3353285113e+02   5.6385040340e+01    0.5139459    0.2194958  -9.23   0.00224003    4.085    0.755
        40 -13.3904    132.3920    197.8788   1.1940171228e+02   1.4903554471e+01    0.7226126    0.3810757  44.32  0.002337729    1.757    0.431
        41 -10.6538    135.0901     85.4831   9.3115557399e+01   3.8515951132e+01    0.2320702    0.1444527  48.37 0.0006468807    1.563    0.360
        42 -13.9185    187.8616    174.5235   1.0263550122e+02   8.7496056951e+00     1.052691    0.4995943 -52.87  0.002708907    2.623    0.619
        43 -14.4145    150.0838     63.8871   8.3403008244e+01   3.8736259833e+01     1.245852     0.911929  30.98  0.001109269    1.531    0.347
        44 -13.8050    178.0213    170.8081   1.0397046649e+02   1.1511611253e+01    0.8495718    0.4602447 -59.75  0.003176741    2.669    0.625
        45 -13.5060    165.9643     40.5513   7.3714340954e+01   3.8224132002e+01    0.4595256    0.4429101  68.51 0.0007969974    1.083    0.076
        46 -11.0801     13.4015     59.9050   1.2473412365e+02   6.1733005250e+01    0.1636602    0.1468864 -10.11  0.000397215    1.240    0.194
        47 -11.6971    115.9724    247.7755   1.3005975420e+02   7.9683666189e+00    0.2426343    0.1689323 -46.40  0.001031686    1.836    0.455
