#   1 NUMBER                 Running object number                                     
#   2 MAG_AUTO               Kron-like elliptical aperture magnitude                    [mag]
#   3 X_IMAGE                Object position along x                                    [pixel]
#   4 Y_IMAGE                Object position along y                                    [pixel]
#   5 X_WORLD                Barycenter position along world x axis                     [deg]
#   6 Y_WORLD                Barycenter position along world y axis                     [deg]
#   7 A_WORLD                Profile RMS along major axis (world units)                 [deg]
#   8 B_WORLD                Profile RMS along minor axis (world units)                 [deg]
#   9 THETA_WORLD            Position angle (CCW/world-x)                               [deg]
#  10 FWHM_WORLD             FWHM assuming a gaussian core                              [deg]
#  11 ELONGATION             A_IMAGE/B_IMAGE                                           
#  12 ELLIPTICITY            1 - B_IMAGE/A_IMAGE                                       
         1 -12.5033     74.5923     41.5525   6.8254730762e+01   5.9190113566e+01    0.6626279    0.4153944 -53.65  0.002677243    2.467    0.595
         2 -14.5583     40.4008     38.4723   8.1163474344e+01   6.5047186529e+01    0.6029274    0.4241527 -17.22  0.001689027    1.270    0.212
         3 -11.9300     90.7365     18.6006   5.3691723928e+01   5.8870199966e+01    0.3129038    0.2279917  54.78 0.0006156943    1.311    0.237
         4 -12.9209    216.1182     13.8384   3.2352840054e+01   2.9925594228e+01    0.5457786    0.4110502  88.29  0.002325905    1.161    0.138
         5 -11.3300    130.4948     14.8984   4.3306578757e+01   5.0084157925e+01    0.3425611    0.1860659  53.17 0.0008135217    1.576    0.366
         6 -13.4546     64.6998     10.8235   5.8564126826e+01   6.4910479939e+01    0.3959537     0.246747  39.75 0.0009044598    1.357    0.263
         7 -13.1879     55.1484      5.4583   5.9531799441e+01   6.7178932092e+01    0.7674109    0.3343778  51.96  0.003664997    2.398    0.583
         8  -9.7008    114.7263     12.0258   4.5366229255e+01   5.4092200299e+01    0.1721567    0.1582418  37.44 0.0003854169    1.097    0.089
         9 -11.3896     46.5244     11.5139   6.6096118700e+01   6.8001311253e+01    0.2304993    0.1768692  14.96 0.0005921526    1.038    0.036
        10 -11.7225     36.6809     11.1707   7.0455026375e+01   6.9531728801e+01    0.2119122    0.1645624  11.95 0.0002426691    1.074    0.069
        11 -11.8785    204.9823      9.7258   3.2397878575e+01   3.2838326112e+01    0.4223972    0.1638063 -57.63  0.001821776    2.765    0.638
        12 -13.2532    193.6005      8.9447   3.3262625518e+01   3.5514813449e+01    0.3951654    0.2249486  64.33 0.0008538885    1.614    0.380
        13 -10.8732    114.8667      7.1447   4.3594990510e+01   5.4477857704e+01    0.2107938     0.178185  60.22 0.0004441352    1.059    0.055
        14 -11.8189    102.3763      2.9338   4.4617406274e+01   5.7688407623e+01    0.2494637    0.1912351  59.61 0.0003973208    1.150    0.131
        15 -10.0827     25.0365    224.3000   1.1972464745e+02   2.3350664676e+01    0.1640452    0.1292312  61.46 0.0003132843    1.091    0.083
        16 -11.3053    229.1922    248.5865   8.0232773436e+01  -9.7595255383e+00    0.2859872    0.1748037  25.91 0.0008014644    1.427    0.299
        17 -11.5354    221.2172    248.5731   8.1708082058e+01  -8.7384656914e+00    0.5070784    0.2731279  44.66  0.002593367    2.645    0.622
        18 -10.9390     61.1486    248.4445   1.1426991761e+02   1.4214033315e+01    0.2541241    0.2255898   3.25 0.0009603814    1.601    0.375
        19 -12.2145     37.7680    245.0974   1.1859786879e+02   1.7694878604e+01    0.4845546    0.2499658 -71.20  0.002496364    1.959    0.490
        20 -11.3828     37.7633    238.2941   1.1813611150e+02   1.9052437750e+01    0.5216407    0.1786291  58.78  0.002204981    3.057    0.673
        21 -10.6652    174.1566    221.7984   8.6674967626e+01   2.2707305771e+00    0.3148635    0.1979899 -50.03  0.001522873    1.903    0.474
        22  -9.6974     55.5685    223.4758   1.1327380237e+02   2.0013834581e+01    0.1298436    0.1028575  66.44 0.0002923321    1.080    0.074
        23 -11.7406    239.4434    215.6214   7.2666161161e+01  -6.4884997830e+00    0.4456104    0.1492032 -44.06  0.001724728    3.696    0.729
        24 -10.3077    107.0331    221.5342   1.0158262711e+02   1.3160036456e+01     0.202561    0.0939482  53.13 0.0008089062    2.478    0.596
        25 -10.4922     97.8115    221.3491   1.0365331675e+02   1.4608672161e+01    0.1918529    0.1603116  64.08 0.0009356526    1.160    0.138
        26 -11.4336     22.9766    218.2643   1.1974026100e+02   2.4857806767e+01    0.3040709    0.2514062  85.28  0.001286118    1.111    0.100
        27 -10.7255    228.4301    218.3041   7.5167471916e+01  -5.3809440597e+00    0.2193464    0.1044294  33.93  0.001079972    2.054    0.513
        28 -10.0366    221.5026    217.9614   7.6409361752e+01  -4.3489865936e+00     0.191926    0.1144071 -33.55    0.0010358    1.598    0.374
        29 -10.6980    179.9796    216.7703   8.4570609026e+01   2.2205572071e+00    0.2269726    0.1844632 -57.78  0.001275377    1.641    0.391
        30  -9.7619    111.3295    215.6626   9.9792502564e+01   1.3715360096e+01    0.1456287   0.09963399  65.12 0.0005800415    1.733    0.423
        31 -10.5521    176.7415    210.3752   8.4132450172e+01   3.9046474448e+00    0.2383824    0.1746912 -54.42  0.001181451    1.713    0.416
        32 -10.4048    193.1827    210.3477   8.0649681574e+01   1.2177910967e+00    0.2798465    0.1621103  55.27  0.001153674    3.016    0.668
        33  -9.8625    124.1760    206.0111   9.5337824839e+01   1.3674554016e+01    0.1800618    0.1721051  48.44  0.001055788    1.048    0.046
        34  -9.9504     94.0814    204.9452   1.0235923960e+02   1.8750284174e+01     0.211938    0.1698618 -14.11 0.0009033696    1.689    0.408
        35  -9.9236    133.4674    195.4449   9.1360731405e+01   1.4366369651e+01    0.2608212    0.1454418 -65.74  0.001034135    2.498    0.600
        36 -10.3834      5.4976    195.7858   1.2194441228e+02   3.1491138238e+01     0.288681   0.09769276  47.30  0.001340257    2.580    0.612
        37  -9.5451    202.5108    195.4865   7.5928240100e+01   2.3196256384e+00    0.1417436    0.1199167  -3.26 -5.464689e-05    1.044    0.042
        38 -11.3057    161.7379    193.6170   8.4383529722e+01   9.7359347637e+00    0.4604635    0.3509562  32.36  0.002379813    1.245    0.197
        39 -10.4957     45.6625    194.3301   1.1269538937e+02   2.7813073066e+01     0.144447   0.08514433  65.42  0.000705199    1.735    0.423
        40 -10.6392    173.3479    191.6972   8.1397120507e+01   8.0515426490e+00    0.3006679    0.2488262  74.33  0.001537436    1.747    0.428
        41 -10.0110     66.3175    194.6569   1.0774492739e+02   2.5142671597e+01    0.1481989   0.09370549  67.52 0.0007048906    1.716    0.417
        42 -10.1497     33.6703    185.9229   1.1472711238e+02   3.1149200099e+01     0.188988    0.1433408 -87.51  0.000628004    1.153    0.132
        43 -11.3110     42.4797    183.7909   1.1235772651e+02   3.0706704887e+01    0.2350483    0.1836819  41.67 0.0007136349    1.316    0.240
        44 -10.6235    147.5378    178.2942   8.4756574743e+01   1.5581022992e+01    0.4647003    0.1512913 -50.25  0.001469485    3.247    0.692
        45 -11.0927     94.1377    178.7828   9.8407547862e+01   2.4879534885e+01    0.4089454    0.2549968 -13.26   0.00148567    3.225    0.690
        46 -10.3169    191.6427    177.7324   7.4616701499e+01   7.5036921077e+00    0.3089881    0.1776274 -47.32  0.001331011    1.845    0.458
        47 -10.1758    129.3683    176.0479   8.8815379689e+01   1.9454535094e+01    0.4481234    0.1467765 -52.60   0.00141745    3.184    0.686
        48 -10.9130     58.6620    176.2902   1.0734183707e+02   3.0610557790e+01    0.3085929    0.2063114  84.73 0.0008079368    1.621    0.383
        49  -9.8861    217.8085    175.5588   6.8909496871e+01   3.3307895853e+00    0.2798215   0.09775309 -37.52  0.001026243    2.672    0.626
        50 -10.2958    159.2968    175.4288   8.1369411742e+01   1.3990826911e+01    0.2548909    0.1915321 -68.97  0.001080889    1.782    0.439
        51 -10.9843     38.8476    174.9073   1.1229503409e+02   3.3284170360e+01    0.2014932    0.1704148 -59.41 0.0006039365    1.230    0.187
        52 -11.2102     11.7877    172.1291   1.1878130306e+02   3.6520369778e+01    0.3623544    0.1503316 -67.95  0.001337477    1.980    0.495
        53 -11.0833     52.8718    173.1905   1.0845330919e+02   3.2103578984e+01    0.2854439    0.1647275  45.11  0.001113496    1.725    0.420
        54 -11.4527     45.1998    170.9864   1.1019104631e+02   3.3555913976e+01    0.4321117    0.2450659  80.97    0.0019441    2.086    0.521
        55 -10.2055    121.3131    169.6637   8.9644244737e+01   2.2420384901e+01    0.1577131    0.1203843  75.90 0.0007046094    1.689    0.408
        56 -10.2489    138.9730    165.1513   8.4194903790e+01   2.0166451540e+01    0.2649749    0.1792702  65.19   0.00108388    2.080    0.519
        57 -12.0875     95.9630    163.8208   9.5316441028e+01   2.8266107984e+01    0.5429565    0.3610185  59.37  0.000407825    1.760    0.432
        58 -10.5232     79.3093    163.3345   9.9825093635e+01   3.1010628948e+01    0.3067661    0.1779646 -88.14  0.001172697    2.561    0.610
        59  -9.7405    134.6577    171.3455   8.6554062115e+01   1.9559490785e+01    0.1600288    0.1217461  76.07 0.0007046341    1.790    0.441
        60 -10.7978    122.2353    161.0114   8.7665756351e+01   2.4315160309e+01    0.2859761    0.2319273 -58.02 0.0003644112    1.268    0.211
        61 -12.8765    118.8277    157.6920   8.7887288425e+01   2.5748913902e+01    0.6304575    0.3772459  35.82  0.001295937    1.692    0.409
        62 -12.6208    124.5420    154.6284   8.5707472645e+01   2.5410002507e+01    0.7251567      0.42459  54.56  0.002494625    2.077    0.518
        63 -11.2247    168.1044    156.0506   7.5143671115e+01   1.6442650995e+01    0.4911292    0.4583961  -4.01  0.002621223    1.041    0.040
        64  -9.6431    213.3593    163.6836   6.7268309506e+01   6.2648685154e+00    0.1364494    0.1152201 -79.14 0.0007043544    1.756    0.430
        65 -10.2813    218.2242    156.4219   6.4789842879e+01   6.7365741789e+00    0.2715566    0.1818072 -34.92 0.0009989073    1.342    0.255
        66 -11.1244    234.0811    153.8871   6.1420137883e+01   4.4222214477e+00    0.2699301    0.1903795 -25.48  0.001450124    1.299    0.230
        67  -9.9112     67.6751    154.3360   1.0159052817e+02   3.4970770995e+01    0.1547614    0.1072746  71.19 0.0007051281    1.717    0.418
        68 -10.9415    107.4471    158.8568   9.1215092689e+01   2.7530137045e+01    0.5922293    0.2285686  43.44  0.002013776    2.639    0.621
        69 -11.7443     21.0547    159.1306   1.1521194443e+02   3.8933975520e+01    0.3855403     0.290297  70.28  0.001596332    1.291    0.225
        70 -10.4265    189.8555    149.7552   6.8916117995e+01   1.3399853350e+01    0.2950981    0.1997234 -64.65  0.001249665    2.139    0.533
        71 -11.5505    108.2068    146.6212   8.8462082705e+01   3.0416074222e+01    0.7313399    0.3512969  59.79  0.002086266    4.223    0.763
        72 -10.6574    249.7123    144.6485   5.6936495760e+01   3.4073069290e+00    0.3049999    0.2409417 -72.24    0.0015815    1.857    0.461
        73 -10.5330    148.6354    145.2970   7.7359994292e+01   2.2790798860e+01    0.2491374    0.1965464  89.31 0.0007569005    1.761    0.432
        74 -10.6486     88.6610    144.9397   9.3738268295e+01   3.4218936890e+01    0.3096668    0.2226684  43.59  0.001090658    1.438    0.305
        75 -10.0074     99.1974    143.2536   9.0312714942e+01   3.2863353911e+01    0.2173633    0.1832644  79.90 0.0007897127    1.368    0.269
        76 -10.2486    181.9945    141.9855   6.8798048219e+01   1.6580193662e+01    0.2418935    0.1949612 -83.52  0.001132781    1.725    0.420
        77 -11.3065     21.7543    140.0436   1.1283290534e+02   4.3671778071e+01    0.3036507    0.2610122  20.59 0.0007706376    1.396    0.283
        78 -11.1008     68.9563    136.1599   9.7911692422e+01   3.9459284452e+01    0.3274878    0.3156465  58.50 0.0009652704    1.098    0.089
        79 -10.0019    125.0618    136.5080   8.1457321985e+01   2.9648067672e+01    0.3250595    0.1561871  41.80  0.001184866    2.104    0.525
        80  -9.8793    132.3191    132.6376   7.8552035099e+01   2.9084467635e+01     0.165812    0.1290962  89.13 0.0007041739    1.772    0.436
        81 -10.5751     82.4988    131.5027   9.2765231670e+01   3.8617425894e+01    0.2769069    0.1482868 -68.42  0.001033241    2.306    0.566
        82 -11.5848     98.0396    126.9079   8.6955576014e+01   3.7135604225e+01    0.5345972    0.3640298 -81.70  0.001775546    2.181    0.542
        83 -10.5169    117.9708    125.8570   8.0835371033e+01   3.3603274711e+01    0.3892992    0.2025914  59.42  0.001245745    3.170    0.685
        84 -11.3979     42.9214    122.0503   1.0351357203e+02   4.6283939080e+01    0.7374511    0.3057305 -77.71  0.002370202    3.790    0.736
        85 -10.5859    225.2421    124.2458   5.6432378444e+01   1.1316165566e+01    0.2362397   0.09701807 -47.44 0.0008888022    2.439    0.590
        86 -10.9402    189.3564    123.9159   6.2931398679e+01   1.8700431884e+01    0.2728434    0.2499909  45.78 0.0006500488    1.160    0.138
        87 -10.4359     58.9822    124.0201   9.8646334109e+01   4.3904144252e+01     0.239059     0.174338  73.12  0.001126712    1.750    0.428
        88 -10.6481     28.5195    123.0275   1.0836147303e+02   4.7416059541e+01    0.2005394    0.1070969  84.69 0.0008102636    2.655    0.623
        89 -11.4903    155.0775    115.9391   6.8479137423e+01   2.7905004759e+01    0.5021804    0.3186712  58.95  0.001090013    1.871    0.466
        90 -12.6716    144.5876    103.7674   6.7776734608e+01   3.2846825714e+01     1.119166     0.781773 -82.14   0.00372235    2.339    0.572
        91 -11.1910    136.7380    112.3937   7.2155423580e+01   3.2747164468e+01    0.7575052    0.4140966  68.72  0.002160547    4.292    0.767
        92 -11.2326    140.2507    109.3971   7.0426441566e+01   3.2624436238e+01    0.5385425    0.2938999 -38.70  0.001331698    1.862    0.463
        93 -11.3501    108.5575    116.3768   8.1155351704e+01   3.7711572606e+01    0.3615807    0.3255544 -58.18  0.000688998    1.145    0.127
        94 -11.8091    107.9169    110.1352   7.9689270168e+01   3.9298549553e+01    0.3895601    0.3203901 -40.69 0.0003721419    1.185    0.156
        95 -11.1493     92.2092    113.3961   8.5415490210e+01   4.1469921687e+01    0.3916207    0.2777929 -75.29  0.001587653    1.896    0.473
        96 -11.6257     78.7728    112.8509   8.9624132037e+01   4.3860846102e+01    0.4700182    0.2961373 -84.07  0.001752022    2.820    0.645
        97  -9.6637    186.2071    113.6376   6.1029039476e+01   2.1414880327e+01    0.2181001    0.1399075  38.87 0.0009481778    1.738    0.424
        98 -11.3366    162.2890    112.6292   6.5915062855e+01   2.6979056060e+01    0.5430099    0.3147083  58.12   0.00213876    2.039    0.510
        99 -11.1873     24.7291    112.6933   1.0792341596e+02   5.0327772485e+01    0.2784634    0.1914108 -48.94  0.000704013    1.284    0.221
       100 -11.7557     14.2060    108.6596   1.1083242105e+02   5.2089237960e+01    0.6875226    0.2046038 -58.70  0.002781231    2.374    0.579
       101 -11.9138     19.7118    105.6673   1.0845173494e+02   5.2449376828e+01    0.3383172    0.2198793 -28.98  0.001208687    1.671    0.402
       102 -11.2156    164.0565    106.5539   6.3908278638e+01   2.7822080157e+01    0.4689797    0.2539507  54.74  0.001006545    2.015    0.504
       103 -10.1946    132.7659    105.9780   7.1456533931e+01   3.5022591858e+01    0.2245123    0.2074274 -42.14 0.0003083718    1.075    0.070
       104 -11.5562    124.0781    106.0558   7.3861065162e+01   3.6893487756e+01    0.5385111    0.3341447  37.67  0.002245482    1.671    0.402
       105 -12.4063    125.8559    101.8855   7.2193187111e+01   3.7421655127e+01    0.8464702    0.3856144  47.29  0.003040196    2.262    0.558
       106 -11.1817    127.8288     97.2157   7.0312821602e+01   3.7985937600e+01    0.3353053    0.2961597  -6.77 0.0008126089    1.220    0.180
       107 -10.7810    129.3309     92.9896   6.8674526889e+01   3.8530814128e+01    0.3633088    0.2542157 -44.61 0.0008933656    1.439    0.305
       108 -11.3094     57.6034    105.3400   9.5009985872e+01   4.8750786908e+01    0.3636698    0.2798199  12.81  0.001229336    1.455    0.312
       109 -10.6392    105.4052     94.1698   7.5941985795e+01   4.3390286688e+01    0.4075841    0.2357484 -59.50  0.001398177    2.293    0.564
       110 -12.4431    112.2693    102.3742   7.6236665255e+01   4.0188741216e+01    0.9179361    0.3925213  46.85  0.001293163    2.494    0.599
       111 -11.3943    157.7430    103.4045   6.4504045340e+01   2.9910114031e+01     0.333233    0.2758157  59.78 0.0005868367    1.283    0.220
       112 -11.3443    155.4832    100.5032   6.4238095535e+01   3.1018080685e+01    0.3087693    0.2633089 -31.87 0.0008439572    1.186    0.157
       113 -11.9362     64.3295    102.8888   9.2050387320e+01   4.8442903474e+01    0.3744207    0.3224121 -83.26 0.0007816906    1.374    0.272
       114 -11.8584     44.4047    101.6036   9.8848772269e+01   5.1230641646e+01    0.5816163    0.3194871  71.07  0.001914988    4.538    0.780
       115 -10.9845     35.4186    103.0385   1.0239356193e+02   5.1791846455e+01    0.2589685    0.2084175 -34.55 0.0006445742    1.200    0.166
       116 -11.1021    159.9472     96.1782   6.2025503165e+01   3.0839053294e+01    0.3056595    0.2579459  26.78 0.0005201005    1.315    0.240
       117 -10.4251     94.6577     97.3186   8.0255109442e+01   4.4778930308e+01     0.239165     0.192369  87.58   0.00111036    1.747    0.428
       118  -9.9760     77.0202     97.2750   8.6144571783e+01   4.7861830668e+01    0.2003365    0.1869949  -3.26 0.0002299824    1.069    0.064
       119  -9.6870    188.5502     92.4951   5.5204964619e+01   2.4884478614e+01     0.149868    0.1386369 -60.10 0.0003616291    1.046    0.044
       120 -10.5766    124.1494     91.3238   6.9601627779e+01   4.0025611544e+01    0.3088577    0.2072151 -67.08  0.001235461    2.178    0.541
       121 -10.7853     34.2037     89.1991   9.9802293754e+01   5.5240715383e+01    0.4740809    0.1644363 -67.92  0.001517147    3.980    0.749
       122 -10.2635    233.4180     90.2244   4.7530248093e+01   1.5587133529e+01    0.2197859    0.1851315  68.66 0.0002430718    1.325    0.245
       123 -11.4559     86.9733     87.4550   7.9888712200e+01   4.8372056401e+01    0.4870445    0.2922802  65.08  0.001707322    3.389    0.705
       124 -10.1198     74.1575     87.8649   8.4467147381e+01   5.0465459136e+01    0.2011321    0.1955652 -23.42 0.0003064838    1.106    0.096
       125  -9.9078     79.5347     87.5500   8.2475747099e+01   4.9649733239e+01    0.1494626    0.1371203 -18.41  5.19605e-05    1.012    0.012
       126 -10.2090     43.9291     86.7868   9.5453762328e+01   5.4812648580e+01    0.2133794    0.1635231 -25.19  0.000542979    1.273    0.215
       127 -11.9137     44.9309     82.3181   9.3878932177e+01   5.5726509035e+01    0.4741449    0.3241637  54.67 0.0005002705    2.099    0.524
       128 -11.4290    104.5341     82.6532   7.2706567490e+01   4.5991028027e+01    0.7175201    0.3419054 -52.74  0.002576593    2.620    0.618
       129 -10.5724    140.7507     83.2691   6.2852273405e+01   3.7830581472e+01    0.3750362    0.1956233 -52.44  0.001395007    2.323    0.569
       130 -10.5110     36.7675     84.0066   9.7539043499e+01   5.6205958919e+01    0.2415353     0.172275  39.55  0.001304641    1.679    0.404
       131 -11.0289     23.8942     78.5572   1.0136078481e+02   5.8599835420e+01    0.5350133    0.2321368 -66.17  0.002280445    2.402    0.584
       132 -10.0660    211.9917     80.2841   4.8271214841e+01   2.1724331313e+01    0.1897019    0.1752979 -77.14 0.0003915845    1.067    0.063
       133 -11.1168     61.4610     75.8820   8.5543924977e+01   5.5018300618e+01    0.4609799    0.2802112 -24.13  0.002086892    1.890    0.471
       134 -11.3263     81.7955     72.5423   7.6953342558e+01   5.2412584583e+01    0.4103131    0.3002144 -74.84   0.00131648    2.302    0.566
       135 -10.8901     51.9413     70.6957   8.7674566519e+01   5.7425041309e+01    0.2658837       0.1997 -52.48  0.001442807    1.378    0.274
       136 -10.5596    235.0434     67.9143   4.2363313643e+01   1.8776384753e+01    0.1975645     0.167737 -55.27 0.0003048047    1.025    0.025
       137 -13.7992      9.6406     49.7987   1.0006776427e+02   6.5807787473e+01    0.6064005    0.4633569  -8.64  0.002092426    1.279    0.218
       138 -12.8861     41.9704     64.3041   8.9788342531e+01   5.9981288819e+01    0.8623669    0.5957651 -10.54  0.003950908    1.510    0.338
       139 -13.5395     27.4568     59.9885   9.4799269785e+01   6.2363496133e+01     1.193829    0.8046963 -86.73  0.003124083    2.899    0.655
       140 -12.5183     36.2361     56.9615   8.9896890621e+01   6.2113617209e+01     0.537517    0.4200333 -11.47  0.001635351    1.171    0.146
       141 -11.3373     40.6567     51.6024   8.6064701692e+01   6.2657426582e+01    0.3385354    0.1886714 -31.53 0.0009436714    1.674    0.403
       142 -11.9300      8.0727     65.8861   1.0502326093e+02   6.2490759360e+01    0.4491563    0.2596664  21.77  0.001430021    2.001    0.500
       143 -10.1090    100.4099     65.2840   6.8304034487e+01   5.0175572764e+01    0.1991191     0.177549  11.59  0.001080047    1.080    0.074
       144  -9.8785    144.9897     63.9505   5.6028979751e+01   4.0230778418e+01    0.2244247    0.1754394 -80.23 0.0004396914    1.586    0.370
       145 -10.9887    249.5640     73.3165   4.1866758987e+01   1.5082465633e+01    0.2651348   0.09885336 -41.70  0.001154728    2.170    0.539
       146 -10.9784    130.3268     58.4748   5.7722862062e+01   4.4623174524e+01    0.2567529    0.2397842  68.08 0.0004961377    1.108    0.097
       147  -9.4639    186.3584     53.7080   4.5452875274e+01   3.1766226679e+01      0.14851     0.100565 -73.35 0.0007029049    1.692    0.409
       148 -10.3326    232.0000     50.0267   3.8773876345e+01   2.1999935688e+01    0.2104584   0.06566376 -35.46 0.0008047745    2.959    0.662
       149 -10.8885    112.8742     49.3950   5.9151132887e+01   5.0074342567e+01    0.3460026    0.2562031 -87.75  0.001034581    2.078    0.519
       150 -10.6601     96.0026     49.7397   6.4177534578e+01   5.3707505340e+01     0.200507    0.1690418  34.88 0.0003060568    1.106    0.096
       151 -10.0445    124.6668     47.3192   5.5419479240e+01   4.7647284295e+01    0.1446211    0.1126356 -77.35 0.0006778514    1.696    0.411
       152 -11.7119     22.9786    248.1769   1.2156826388e+02   1.8724376667e+01    0.3219767     0.220537 -14.91  0.001735669    3.523    0.716
       153 -10.5665     81.5300     38.2867   6.4514110659e+01   5.8351062614e+01    0.2575219    0.2168247  73.71  0.001437522    1.703    0.413
       154 -11.3306    145.0606     35.9093   4.7344704155e+01   4.4246429908e+01    0.3492992    0.3098941 -28.11  0.002044635    1.240    0.194
       155  -9.3950    155.2648     36.5928   4.5711987975e+01   4.1656925876e+01    0.1460063    0.0981013 -63.04 0.0005790534    1.746    0.427
       156  -9.5735    188.5842     34.1411   4.0066002507e+01   3.3871976361e+01    0.1601053    0.1310444 -14.95 0.0003954239    1.545    0.353
       157 -10.4411     32.7429    242.5696   1.1939865831e+02   1.8761803869e+01    0.1640881   0.08405226  47.60 0.0007719936    1.575    0.365
       158 -12.2186      2.0066     29.4264   9.7431667578e+01   7.0190597540e+01    0.3579798    0.1603239 -50.68  0.001123166    1.820    0.451
       159 -10.3987    196.2274     30.2907   3.8165824201e+01   3.2545315989e+01    0.2129867    0.1410503  70.39 0.0004335151    1.406    0.289
       160  -9.6265    250.0036     27.0511   3.2371770249e+01   2.1330620207e+01    0.1394439    0.1092922 -71.65  0.000310374    1.057    0.054
       161 -10.6469    176.9381     26.1166   3.9483426205e+01   3.7619104673e+01    0.2552865    0.1651248  72.11 0.0005930618    1.409    0.290
       162  -9.2692    113.2858     25.6782   5.0597192363e+01   5.3063985760e+01    0.1293919    0.1042462 -71.10 0.0003399683    1.597    0.374
       163 -11.8651    204.4573     21.8599   3.5249258644e+01   3.1638897180e+01    0.5828734    0.2753543 -82.27  0.002491652    2.710    0.631
       164 -10.3114    123.0074     22.7274   4.7402431070e+01   5.1096246044e+01    0.3197794    0.2033345  83.18  0.001312388    2.005    0.501
       165 -10.2909     26.5405     22.0060   8.0879804816e+01   6.9349659151e+01    0.1754046    0.1338755   0.56 0.0003240654    1.088    0.081
       166  -9.2926    193.2537     21.3558   3.6306233322e+01   3.4281161856e+01    0.1185119    0.0971647  33.48 0.0006959153    1.607    0.378
       167 -11.5287     42.0846     20.9262   7.2672061939e+01   6.7500054467e+01    0.4261403      0.19513  23.30 0.0003508627    2.442    0.590
       168 -10.4864     37.6937     18.2032   7.3453421650e+01   6.8488564127e+01    0.2380587    0.2109542  -1.47 0.0009935084    1.299    0.230
       169 -13.3948     18.8890    236.1342   1.2165812635e+02   2.1534095832e+01    0.6438387    0.2371541  46.51  0.001215136    2.117    0.528
       170 -10.4432     32.4752     20.2719   7.7017038913e+01   6.8893129618e+01    0.2710344     0.153233  20.76  0.001204073    1.668    0.401
       171 -10.2501    211.5266     19.4181   3.4002646773e+01   3.0322529687e+01    0.2014929    0.1394945  89.55 0.0005597603    1.301    0.232
       172 -11.1006    209.6301    237.0090   8.2012358998e+01  -5.5446586267e+00    0.2703157    0.2232538 -65.18  0.001608329    2.234    0.552
       173 -10.8987    196.4669     18.8012   3.5341670177e+01   3.3817098566e+01    0.2282134     0.157799  79.31 0.0005042818    1.297    0.229
       174 -10.4020      2.9943    235.0059   1.2456849502e+02   2.3309912378e+01     0.170737    0.1240065  68.30  0.000380628    1.033    0.032
       175 -10.4037    120.5109     16.5240   4.5769250288e+01   5.2313718680e+01    0.1337908    0.1164246  54.62 1.820087e-05    1.012    0.012
       176  -9.9377    193.0307     15.4592   3.4889639143e+01   3.4975870595e+01    0.1957902    0.1104864  72.71  0.001026256    1.584    0.369
       177  -9.3761    166.6504    233.3213   9.0150570094e+01   1.4566155810e+00    0.1292731   0.09996711  58.79 0.0007048624    1.743    0.426
       178 -10.2261    123.5709    232.7206   9.9388106538e+01   8.3520775402e+00    0.2397961     0.126017 -49.40  0.001146889    2.160    0.537
       179 -10.0083    108.9031    232.8598   1.0262722446e+02   1.0584073732e+01    0.1973501    0.1671988  22.70 0.0008684384    1.241    0.194
       180 -10.1687     61.6973    233.0206   1.1283590304e+02   1.7223559738e+01    0.2992084    0.1148291  34.11  0.001330454    2.411    0.585
       181 -11.5143     72.5341    230.2506   1.1026455466e+02   1.6365208312e+01    0.4370027    0.2913085  57.93   0.00249865    1.364    0.267
       182 -10.6749    127.2195    229.8576   9.8191033523e+01   8.3295158040e+00     0.308515    0.1627793 -57.68  0.001450633    2.241    0.554
       183 -11.3410    149.5986    221.6077   9.1992696235e+01   6.3010262904e+00    0.5267196    0.2601126 -47.23   0.00237527    2.225    0.551
       184  -9.7770    145.6678     10.7371   3.9494887209e+01   4.6797755651e+01    0.1341762   0.08501866  45.69 0.0002275704    1.576    0.365
       185 -11.3351     35.8175    223.0510   1.1742534688e+02   2.2449520890e+01    0.3043078    0.1920223  72.30 0.0009232301    1.427    0.299
