#   1 NUMBER                 Running object number                                     
#   2 MAG_AUTO               Kron-like elliptical aperture magnitude                    [mag]
#   3 X_IMAGE                Object position along x                                    [pixel]
#   4 Y_IMAGE                Object position along y                                    [pixel]
#   5 X_WORLD                Barycenter position along world x axis                     [deg]
#   6 Y_WORLD                Barycenter position along world y axis                     [deg]
#   7 A_WORLD                Profile RMS along major axis (world units)                 [deg]
#   8 B_WORLD                Profile RMS along minor axis (world units)                 [deg]
#   9 THETA_WORLD            Position angle (CCW/world-x)                               [deg]
#  10 FWHM_WORLD             FWHM assuming a gaussian core                              [deg]
#  11 ELONGATION             A_IMAGE/B_IMAGE                                           
#  12 ELLIPTICITY            1 - B_IMAGE/A_IMAGE                                       
         1 -14.9616    165.4308     47.3980   7.1867183940e+01   3.7948708628e+01      1.46789     1.136218  -9.65   0.00400371    1.380    0.275
         2 -15.2832    182.8940     15.1277   5.8397162023e+01   3.7258630244e+01     2.191714     1.459265  73.67  0.007484933    1.496    0.332
         3 -10.4913    163.2377    245.8106   1.1546274476e+02   5.8009329805e+00    0.2073551    0.1138912  42.32  0.001289132    1.442    0.306
         4 -20.1495     71.5998    172.9157   1.2557583183e+02   3.0887268877e+01     14.74536     6.038215 -69.34   0.06777107    2.613    0.617
         5 -11.8857    162.9202    181.6302   1.0641877890e+02   1.5025503160e+01     0.244094    0.2026975 -48.33  0.001468435    1.461    0.316
         6 -13.5645    188.2799    175.2870   1.0005366944e+02   1.1536657075e+01    0.8647504     0.475048 -50.47  0.003693653    2.670    0.625
         7 -12.4064    168.5578    177.6194   1.0453540068e+02   1.4689410939e+01    0.4304969    0.2105128  53.19   0.00175712    2.712    0.631
         8 -10.2935    139.8598    241.7849   1.1922506518e+02   9.6502996876e+00    0.2014633    0.1252714 -57.00  0.001280717    2.235    0.552
         9 -11.6528    127.2824    228.1080   1.2007870656e+02   1.3377287679e+01    0.3505587    0.2003654  31.33  0.001470702    1.581    0.368
        10 -11.8489    194.7755    172.4341   9.8215370620e+01   1.0802856322e+01    0.3007568    0.2438706 -45.50  0.001522311    1.593    0.372
        11 -11.9209     26.2703    173.5530   1.3572923285e+02   3.5626259148e+01      0.22139    0.1924622  48.48 0.0002405785    1.248    0.199
        12 -10.6782    207.8302    171.5693   9.5506134628e+01   8.5964452942e+00    0.2406045      0.16913 -48.16  0.001261646    2.013    0.503
        13 -12.3899    176.9791    169.4659   1.0127356038e+02   1.4499220244e+01    0.3257837    0.2042828 -55.57  0.001531236    2.374    0.579
        14 -12.2860    161.0779    166.0949   1.0403658333e+02   1.7981182004e+01    0.2856706     0.229143 -84.15  0.001503133    1.922    0.480
        15 -13.2496    134.4257    239.7825   1.2000323070e+02   1.0691017685e+01    0.3151103    0.2117423 -44.94   0.00157022    1.984    0.496
        16 -11.1100     25.4512    165.0130   1.3533193714e+02   3.7443346120e+01    0.1783706    0.1604468  25.25 0.0006769233    1.410    0.291
        17 -11.2365    127.3255    222.7261   1.1947057548e+02   1.4179941401e+01    0.2061862    0.1991533 -37.94 0.0008991528    1.314    0.239
        18 -12.2161    188.3665    154.2726   9.5876335592e+01   1.4832039889e+01    0.6353238    0.3712904  36.59  0.003029131    1.565    0.361
        19 -10.0061    178.0844    156.1610   9.8419476369e+01   1.6493429150e+01    0.1754868    0.1610188  49.52 0.0002552433    1.266    0.210
        20 -12.4615    164.4229    152.3743   1.0061437389e+02   1.9774616224e+01    0.3353109    0.2896428  27.78 0.0009491394    1.042    0.041
        21 -10.5851     13.0426    239.6974   1.4125639062e+02   2.4981335508e+01    0.1482115    0.0725745  47.79  0.001095105    1.445    0.308
        22 -11.4786    174.4327    148.7700   9.7664423619e+01   1.8464042733e+01    0.3009452    0.2784963  81.76   0.00113556    1.418    0.295
        23 -10.5216     18.6939    218.7321   1.3954705012e+02   2.7900391073e+01   0.07868885   0.07589082 -72.91 0.0005355233    1.534    0.348
        24 -11.8891      8.6522    138.2544   1.3741492639e+02   4.4430315904e+01    0.3044629    0.2352984 -53.79  0.001270366    1.467    0.318
        25 -12.7614    160.3629    127.4935   9.6076806300e+01   2.5169988083e+01    0.4743288    0.3631476 -57.54  0.002218315    1.624    0.384
        26 -10.3944     23.8549    217.0930   1.3856643137e+02   2.7708295546e+01    0.1159519   0.09319756  81.01 0.0005402668    1.206    0.171
        27 -12.9050     11.7322    206.0524   1.4027177334e+02   3.0719783580e+01     0.352074    0.1940809  30.78  0.002425384    1.921    0.480
        28 -10.8671    151.5412    236.6886   1.1651440970e+02   8.6516772263e+00    0.2422955    0.1515944  39.88 0.0007416742    1.220    0.181
        29 -11.0961    125.2946    236.8887   1.2138128724e+02   1.2380914803e+01    0.1465615    0.1272403  69.12 0.0003981238    1.319    0.242
        30 -11.0268    231.2560    113.7903   7.8539566987e+01   1.2510170971e+01    0.2496021    0.2091582  20.29 0.0007317745    1.137    0.121
        31 -11.0209    168.0068    113.0053   9.0752134875e+01   2.6237286480e+01     0.352778    0.2597288 -83.20  0.001473393    2.400    0.583
        32 -11.7260    220.0692    197.7103   9.8059868298e+01   3.0750674142e+00    0.1892292    0.1597874 -17.49 0.0006678838    1.365    0.267
        33 -10.6639    134.5116    197.5090   1.1485559471e+02   1.7123745014e+01     0.225548    0.1739951 -33.34 0.0007383192    1.601    0.375
        34 -10.7215    120.8812    196.9551   1.1764017363e+02   1.9342602035e+01    0.1904431    0.1534119  46.44 0.0006265042    1.066    0.062
        35 -10.5274    160.4839    234.1140   1.1455647765e+02   7.6785149763e+00    0.1371115    0.1161034 -34.85 0.0005873823    1.523    0.343
        36 -10.9365    205.3616    110.2476   8.2266090112e+01   1.8480100079e+01    0.3097436    0.1972551  41.00 0.0008935694    1.544    0.352
        37 -11.3852    149.6712    195.0380   1.1134257231e+02   1.5081756426e+01    0.2264745    0.1542901  46.05 0.0007362124    1.344    0.256
        38 -13.1277    174.3922    185.1271   1.0464196896e+02   1.2470823710e+01    0.5892162    0.2481955 -50.65  0.002356438    3.552    0.718
        39 -10.1178    130.8785    231.8490   1.1980857288e+02   1.2313664757e+01    0.1529436    0.1175132  41.59 0.0003457794    1.022    0.021
        40 -12.0477    164.7953    187.2131   1.0696813779e+02   1.3798782893e+01    0.2460447    0.2069737  52.57 0.0006673388    1.335    0.251
        41 -10.3028    132.9505    228.5257   1.1904926185e+02   1.2497120471e+01    0.1566747    0.1351545  45.21 0.0005160352    1.131    0.116
        42 -12.7041    169.0981    184.3374   1.0559372304e+02   1.3513672448e+01    0.4017456    0.2168677 -30.54  0.001910648    2.301    0.565
        43 -10.7605    145.8179     82.1786   8.7504479131e+01   3.7020850701e+01    0.2173092    0.1799782   8.90 0.0004055933    1.299    0.230
        44 -10.6934     25.0126    185.5529   1.3673206299e+02   3.3367684012e+01     0.150798    0.1176186  82.70 0.0004508786    1.108    0.098
        45 -14.3523    153.6024     61.4651   7.9064841034e+01   3.8794808445e+01      1.25265      1.03945  18.07  0.000906854    1.253    0.202
        46  -9.7201    127.5509    247.9634   1.2207468015e+02   1.0534496406e+01    0.1114354    0.1093419 -29.81 0.0004370445    1.379    0.275
        47 -13.2896    170.1660     38.9761   6.8173200422e+01   3.7867659395e+01    0.4665999     0.452923 -26.42 0.0008468038    1.065    0.061
        48 -10.5385    136.8951    185.3007   1.1257314552e+02   1.8832077274e+01     0.183023    0.1452963  35.37 0.0003206178    1.098    0.090
        49 -11.3531     13.5773     59.9270   1.2697396728e+02   6.2029084733e+01    0.1859578    0.1768819  44.88 0.0004162981    1.294    0.227
        50 -11.1537     31.3913    182.5788   1.3523846085e+02   3.3358642596e+01    0.3073388    0.1954377   6.29  0.001778571    2.733    0.634
