#   1 NUMBER                 Running object number                                     
#   2 MAG_AUTO               Kron-like elliptical aperture magnitude                    [mag]
#   3 X_IMAGE                Object position along x                                    [pixel]
#   4 Y_IMAGE                Object position along y                                    [pixel]
#   5 X_WORLD                Barycenter position along world x axis                     [deg]
#   6 Y_WORLD                Barycenter position along world y axis                     [deg]
#   7 A_WORLD                Profile RMS along major axis (world units)                 [deg]
#   8 B_WORLD                Profile RMS along minor axis (world units)                 [deg]
#   9 THETA_WORLD            Position angle (CCW/world-x)                               [deg]
#  10 FWHM_WORLD             FWHM assuming a gaussian core                              [deg]
#  11 ELONGATION             A_IMAGE/B_IMAGE                                           
#  12 ELLIPTICITY            1 - B_IMAGE/A_IMAGE                                       
         1 -14.9659     68.4806    144.1891   1.0716913530e+02   3.7195828531e+01     5.779103     2.854697  67.06   0.02045028    3.589    0.721
         2 -14.3984    198.0574     37.6797   4.7685883501e+01   3.1088462610e+01     1.650373     1.378537   2.89  0.003820102    1.498    0.332
         3 -14.5372    208.7117     26.2763   4.3329554346e+01   2.9920576536e+01      1.42538     1.062043  -3.41  0.002499094    1.818    0.450
         4 -13.7866    188.3459     44.8705   5.1093227539e+01   3.2527825714e+01     1.168305    0.8616699  31.15  0.001028932    1.668    0.400
         5 -11.6919     21.5815     33.8056   9.6903079986e+01   6.7172555318e+01    0.3066937    0.1738504  31.62  0.001764239    2.131    0.531
         6  -8.8957    152.6315      9.2817   4.5821779418e+01   4.5688950028e+01    0.1401118   0.09757896 -72.39 0.0006565164    1.692    0.409
         7  -9.2494    120.7730      8.5830   5.1234289114e+01   5.3525571038e+01    0.1912676    0.1239575  75.40 0.0009519325    1.744    0.427
         8 -10.8584     61.1879      7.1724   6.7353770517e+01   6.6056494860e+01    0.2607084    0.1520391  -8.58  0.001359733    1.757    0.431
         9 -12.5296    234.0054      2.7254   3.5309948274e+01   2.6665619613e+01      0.56277    0.3420412  67.28  0.002626398    1.627    0.385
        10 -12.0203    229.9885      2.2351   3.5501075317e+01   2.7614029299e+01    0.4094423    0.2593049  74.73  0.001413851    1.484    0.326
        11 -11.7438     44.9276      5.3960   7.3041160270e+01   6.8859425450e+01    0.4077069    0.1846544  18.06  0.001711354    3.289    0.696
        12 -10.5699     57.4969      2.9897   6.6647583123e+01   6.7131414325e+01    0.1813782    0.1079068 -19.80 0.0008412719    1.594    0.372
        13 -10.5348     29.5254      3.5087   7.9272892518e+01   7.1172541250e+01    0.1179294   0.08918439  -6.04  1.25759e-05    1.013    0.012
        14 -10.4045     21.9960      2.4813   8.2623777127e+01   7.2178763644e+01    0.1326896   0.09707662  48.10 0.0008099437    2.536    0.606
        15  -9.3572    159.7640    196.9617   9.4363171984e+01   1.0224591914e+01    0.1795115    0.1754072  28.03 0.0003409491    1.087    0.080
        16 -11.9538    139.4767    248.8574   1.0599060152e+02   4.7112898967e+00    0.3916194     0.316766 -68.87  0.002678653    1.567    0.362
        17 -13.0791     71.7621    174.2079   1.1079897973e+02   2.9624601359e+01     1.047858    0.5699434 -29.65  0.003601018    4.859    0.794
        18 -13.6968     46.8561    222.4039   1.2098684127e+02   2.2477586872e+01     1.083201    0.7675639  67.33  0.003501342    1.127    0.113
        19 -13.0274     17.5722    191.5761   1.2442598051e+02   3.1952299401e+01    0.2918742    0.2196827  51.06 0.0005625517    1.327    0.246
        20 -15.9830     50.4497    198.3224   1.1824736175e+02   2.6990361747e+01     18.67004     6.267015 -84.95   0.01135984    5.946    0.832
        21 -11.2062     74.9901    189.4993   1.1200273531e+02   2.5733015154e+01    0.3796087    0.2077904  62.03 0.0009995603    1.971    0.493
        22 -10.6795     72.3251    186.6870   1.1225761220e+02   2.6723423136e+01    0.2395254    0.1777433  69.44  0.001195457    1.265    0.209
        23  -9.2251     94.4823    187.0027   1.0727702235e+02   2.3417054899e+01    0.1913805     0.128874 -66.83 0.0004332865    1.505    0.336
        24 -10.7228    146.4926    182.7408   9.4743058945e+01   1.5410390250e+01    0.2804985    0.2478143  42.99 0.0008427132    1.067    0.063
        25 -10.7791     99.2986    180.9748   1.0528967807e+02   2.3990682355e+01    0.3135197    0.2729014 -23.95  0.001796366    1.481    0.325
        26 -14.4577     85.4689    228.8769   1.1414955882e+02   1.6208113723e+01     1.280244     1.091119 -77.74  0.006467209    1.275    0.216
        27  -9.5945    204.4231    176.7435   8.1268918919e+01   5.6712716281e+00    0.2661426    0.1309458 -43.28   0.00113683    2.143    0.533
        28 -11.5838    141.4214    174.4126   9.4361301292e+01   1.8073419346e+01    0.5181569    0.3888098  83.75  0.002102249    1.820    0.451
        29 -13.2281     55.3804    146.3530   1.1098061827e+02   3.8342296622e+01     1.730061    0.9351352 -47.92  0.008187585    1.972    0.493
        30 -13.0132     82.8328    162.0611   1.0634600470e+02   3.0873699281e+01     1.273974    0.5040536  55.89 0.0003687619    3.771    0.735
        31 -12.2411     89.6950    155.0419   1.0345203878e+02   3.1487960107e+01    0.6175946    0.4437666 -26.76  0.002964847    1.966    0.491
        32 -13.8047     71.1770    157.2538   1.0853435869e+02   3.3682492500e+01    0.5918831    0.5181589 -39.76  0.003068013    1.346    0.257
        33  -9.2987    172.4942    238.4739   9.8345179584e+01   1.1254217270e+00    0.1953604     0.121085 -59.80  0.001034696    2.500    0.600
        34 -10.9962    134.0000    146.4724   9.0498340498e+01   2.5607241213e+01    0.7563844    0.2122733 -51.84  0.002151831    3.882    0.742
        35 -10.6852    133.0000    141.0276   8.9547231892e+01   2.7033966757e+01    0.6181976    0.1970068 -51.96   0.00186348    3.381    0.704
        36  -9.8479     84.4979    174.0044   1.0774620380e+02   2.7848971285e+01    0.1952571     0.127396 -63.61 0.0003251191    1.487    0.327
        37 -10.8399    174.4171    148.6106   8.1482064666e+01   1.6886025228e+01     0.343286    0.2977002 -67.59  0.001232438    1.363    0.266
        38 -10.6041     40.6053    146.7675   1.1488156988e+02   3.9902304268e+01    0.2523595     0.214313 -78.65  0.001001973    1.037    0.035
        39 -10.6836     44.0232    144.2484   1.1366110734e+02   4.0145550981e+01    0.2503482    0.1935998  25.19 0.0007222178    1.583    0.368
        40 -10.8352     84.6872    144.0392   1.0280632981e+02   3.4898995407e+01    0.3273374    0.2382408  67.29  0.001023624    1.550    0.355
        41 -10.9858    103.2883    140.0771   9.7059095066e+01   3.2810471641e+01    0.5354692    0.3347887 -30.74  0.002230485    2.211    0.548
        42 -12.4186     90.6520    140.1069   1.0046013421e+02   3.4913516905e+01     0.292262    0.2689231 -60.25 0.0004223587    1.059    0.056
        43 -12.7251     44.0725    128.7636   1.1138963871e+02   4.3895518918e+01     0.621897    0.3517635  58.33  0.002981675    2.142    0.533
        44 -16.3224     57.2499    247.1597   1.2091550116e+02   1.6600878215e+01     9.139971     2.863081  29.06   0.01451809   10.347    0.903
        45 -10.5840    105.9037    130.6682   9.4338509749e+01   3.4585452597e+01    0.3501823    0.3013363 -77.39  0.001116954    1.224    0.183
        46 -11.4963    135.8346    127.6794   8.5710193888e+01   2.9472053845e+01    0.6678279    0.2026713 -51.09  0.001889801    3.689    0.729
        47 -14.5393     29.1400    248.2514   1.2576681283e+02   1.9674629035e+01    0.6689634    0.5538974   5.24  0.004926208    2.304    0.566
        48 -16.8790      8.7877    244.2845   1.2888211729e+02   2.2476371620e+01     1.627725     1.432649  81.18   0.01426206    1.429    0.300
        49 -10.3316    160.5123    127.8118   7.9708373767e+01   2.4173529969e+01     0.379262    0.2597907 -66.71   0.00156897    1.996    0.499
        50 -10.6830    111.9710    196.7807   1.0474910309e+02   1.8543538968e+01    0.4362302    0.2792191   3.45  0.001708066    3.612    0.723
        51 -11.0710     99.3097    126.6018   9.5253819212e+01   3.6715391282e+01    0.2843145    0.2432386 -15.74 0.0003935642    1.383    0.277
        52 -11.3195    119.4029    123.1578   8.8920202418e+01   3.3814850960e+01    0.6290907     0.374486 -17.01  0.002039193    3.610    0.723
        53 -10.2564    112.0834    130.4362   9.2607937274e+01   3.3512903714e+01    0.3127188    0.2474588  -2.62  0.001034082    1.678    0.404
        54  -9.9954    108.1721    119.1912   9.1043363559e+01   3.6879171581e+01    0.2124105    0.1982972 -21.82  0.000338337    1.128    0.113
        55 -16.6523      6.4396    210.0766   1.2766041388e+02   2.9154656297e+01     6.314076    0.6325282 -69.04   0.02247315    5.510    0.818
        56 -12.1352     41.7521    114.3943   1.0968738652e+02   4.7628117749e+01    0.3425533    0.2676874 -46.59  0.002016164    1.249    0.199
        57 -12.7959     43.5394    109.0224   1.0816399107e+02   4.8744282416e+01    0.7066571    0.4532441 -83.84  0.003568175    1.764    0.433
        58 -10.3953    159.5292    162.9033   8.7934371861e+01   1.6986148513e+01    0.3394246     0.256373 -71.19 0.0009661507    1.744    0.427
        59  -9.8727    168.2308    113.1311   7.4181704418e+01   2.5498506922e+01    0.3605167    0.2409045 -71.46  0.001357592    2.361    0.576
        60 -10.6642    134.6296    112.9649   8.2291680332e+01   3.3003992233e+01    0.3580983    0.1472315 -45.12  0.001226114    2.378    0.579
        61 -11.3932    117.2116    108.8516   8.5891800645e+01   3.7521714793e+01     0.581991    0.3969179  54.76  0.002586725    1.668    0.400
        62 -10.1381    205.4129    110.1924   6.5798886186e+01   1.7613845400e+01    0.3170495    0.2150687  40.33  0.001003957    1.595    0.373
        63 -10.2092    134.5832    105.0789   8.0180844518e+01   3.4735855033e+01    0.5415147    0.1504569 -43.54  0.001529018    3.518    0.716
        64  -9.6277     81.9885    194.9938   1.1112467536e+02   2.3544818335e+01    0.2073076    0.1750633  71.92  0.001287903    1.042    0.040
        65 -11.1072    241.4252    100.5466   5.7464086418e+01   1.1553074619e+01    0.3374716    0.1199503 -36.82  0.001259756    2.429    0.588
        66 -10.5181     33.1668    100.3752   1.0983323454e+02   5.1813032841e+01    0.2721848    0.2010432  73.34  0.001229601    1.636    0.389
        67 -10.1172     32.0024     96.0676   1.0939548492e+02   5.2936795139e+01    0.2161481    0.1675343 -69.31  0.001303549    1.157    0.136
        68  -9.2467    115.6502    100.6908   8.4117050410e+01   3.9661169330e+01    0.1597014    0.1219203  -3.81 3.328676e-05    1.713    0.416
        69  -8.8536    164.6702     97.3011   7.0693526953e+01   2.9494049620e+01    0.1591921    0.1254362 -79.27  0.000372799    1.646    0.393
        70 -11.5578     53.1051     93.3211   1.0175597493e+02   5.1435274423e+01    0.5834565    0.2931209 -63.93  0.002570931    1.985    0.496
        71 -10.5750     41.6488     91.8815   1.0529829548e+02   5.3018546351e+01    0.2032885    0.1712165 -22.83 0.0004348021    1.284    0.221
        72  -8.9138    107.5305     92.6012   8.4169393625e+01   4.3048306360e+01    0.1491649    0.1442462 -72.38 0.0001451446    1.118    0.105
        73 -10.1214    157.9801     81.2714   6.7588357897e+01   3.4157032055e+01    0.2212056    0.2048777  46.57 0.0005012031    1.089    0.082
        74  -9.1805    184.5992     77.2014   6.0911962857e+01   2.8407237001e+01    0.2137681    0.1455683 -21.04 0.0005805868    1.694    0.410
        75 -10.0405     58.8274     67.4850   9.2713243348e+01   5.6499801060e+01    0.2244451    0.2073245  82.38 0.0006627702    1.413    0.292
        76 -11.5646     12.8507     59.5500   1.0850505877e+02   6.2611370012e+01    0.3774558    0.2453648  46.80  0.001784794    2.166    0.538
        77  -9.9825     72.6335    229.8775   1.1671790614e+02   1.7781956306e+01    0.2963138    0.1769493 -51.12  0.001262487    2.213    0.548
        78  -9.3358     68.2665    192.9935   1.1389569249e+02   2.5884794461e+01    0.1776328    0.1423382  87.84 0.0004110116    1.122    0.108
        79  -9.2670     97.2245    190.7761   1.0718368015e+02   2.2170929252e+01    0.1678275    0.1591107 -15.17 0.0004586533    1.327    0.246
        80  -9.1823     22.6564     55.2571   1.0333857551e+02   6.2847567416e+01    0.1072191   0.09404393  69.82 0.0004991018    1.588    0.370
        81 -10.9443    148.9763     44.9930   5.8195978277e+01   4.2384971231e+01     0.290698    0.2529674 -77.51 0.0004087894    1.298    0.230
        82 -10.7949    108.1178    203.3777   1.0651404931e+02   1.7810292798e+01    0.2119267    0.1810139 -55.63  0.000757779    1.308    0.235
        83 -11.4451    226.8327     21.8730   4.0341087847e+01   2.6175905666e+01    0.3286191    0.2336711  23.96  0.001721765    2.177    0.541
        84  -9.5338    189.5008     15.0153   4.2563022967e+01   3.5898810041e+01    0.1906304    0.1317941 -29.86 0.0005245112    1.537    0.349
        85 -11.8633    147.2760     51.4422   6.0669483561e+01   4.1848565082e+01    0.5613557    0.3680529 -85.99  0.002262237    2.471    0.595
        86  -9.4964    130.9438    214.1319   1.0316246136e+02   1.1994545133e+01    0.1925549    0.1562142  61.10 0.0003073949    1.227    0.185
        87  -9.9782    104.2357    212.5433   1.0853196300e+02   1.6583900333e+01    0.2996711    0.1583263 -46.08  0.001432706    2.412    0.585
        88 -10.3963    107.3298    210.2904   1.0759652362e+02   1.6547358804e+01    0.2051907    0.1489526  43.53 0.0005064594    1.242    0.195
        89 -10.5964    113.2757    207.5102   1.0596842443e+02   1.6154896274e+01    0.2549851    0.1932508  73.63   0.00032145    1.416    0.294
        90  -9.4130     36.1440    206.8197   1.2185788495e+02   2.6844875421e+01    0.1795034    0.1190064  68.85 0.0007587391    1.254    0.203
        91 -12.2720    193.9692    196.5253   8.7210854003e+01   4.1823554835e+00     1.357722    0.6680441 -56.45  0.005002309    3.871    0.742
        92 -12.7438    203.6524    200.2230   8.5985890132e+01   1.8932892512e+00      1.04374     0.397935  27.90   0.00347205    3.950    0.747
        93  -9.6576    152.8708    198.4535   9.6089424802e+01   1.1176256677e+01    0.2953121    0.1611427 -63.59  0.001225704    2.778    0.640
