#   1 NUMBER                 Running object number                                     
#   2 MAG_AUTO               Kron-like elliptical aperture magnitude                    [mag]
#   3 X_IMAGE                Object position along x                                    [pixel]
#   4 Y_IMAGE                Object position along y                                    [pixel]
#   5 X_WORLD                Barycenter position along world x axis                     [deg]
#   6 Y_WORLD                Barycenter position along world y axis                     [deg]
#   7 A_WORLD                Profile RMS along major axis (world units)                 [deg]
#   8 B_WORLD                Profile RMS along minor axis (world units)                 [deg]
#   9 THETA_WORLD            Position angle (CCW/world-x)                               [deg]
#  10 FWHM_WORLD             FWHM assuming a gaussian core                              [deg]
#  11 ELONGATION             A_IMAGE/B_IMAGE                                           
#  12 ELLIPTICITY            1 - B_IMAGE/A_IMAGE                                       
         1 -13.3150    190.6100     29.1006   7.1286522575e+01   3.3966216799e+01     1.247161     1.160475  78.87  0.006499947    1.032    0.031
         2 -13.9174    203.1766     11.1433   6.4617775877e+01   3.2728171935e+01     1.768639     1.116199  44.31  0.008656051    1.829    0.453
         3 -13.2924      5.6522     10.7047   1.2103361241e+02   7.2715301011e+01     1.541317    0.5645642 -45.72  0.008433602    1.978    0.494
         4  -8.4699     73.7652     38.3519   1.0217746352e+02   6.0135550569e+01    0.1243228    0.1003728 -56.32 0.0003423886    1.569    0.363
         5 -10.5967    249.7172    248.9001   1.1108120045e+02  -1.0381416811e+01    0.2702445    0.1687522  -5.97  0.001836922    1.637    0.389
         6 -12.0460    139.2610    248.7529   1.2992068114e+02   6.7240123572e+00    0.4573898    0.2991097  49.81  0.002987625    1.182    0.154
         7 -11.3761    124.5014    249.9060   1.3263044314e+02   8.8607339994e+00    0.5003794    0.1291097  43.15  0.002099172    2.904    0.656
         8 -11.3129    109.5684    249.8093   1.3521817731e+02   1.1144253714e+01    0.3915664    0.1522096  52.16  0.001996149    2.094    0.523
         9 -11.4597     98.9726    249.7519   1.3704062627e+02   1.2716177678e+01    0.3863775    0.2104097  46.82  0.002412565    1.401    0.286
        10 -11.8579     28.2124    248.8797   1.4862259685e+02   2.1962473136e+01    0.5064223    0.1853055  50.34  0.003129263    1.891    0.471
        11 -10.5278     33.6160    248.1883   1.4774305527e+02   2.1473105772e+01     0.199628    0.1444121  84.39  0.001017798    1.255    0.203
        12 -11.9882     35.8860    243.7313   1.4714832745e+02   2.1961397043e+01    0.4702068    0.3539031  43.03  0.003701185    1.575    0.365
        13 -12.9569      6.5428    243.4761   1.5171616793e+02   2.5124959763e+01     1.103289    0.6441614 -87.92  0.008648273    1.463    0.316
        14 -14.7168      7.1280    209.5193   1.5017702618e+02   3.1105378050e+01     3.708478    0.7253406 -74.12   0.01635017    3.965    0.748
        15  -9.2445    186.3142    239.3226   1.2039534943e+02   3.9291031406e-01    0.1192202   0.08071423  18.35 0.0002566805    1.659    0.397
        16  -9.2204     72.4767    239.0214   1.4072480229e+02   1.8199408521e+01     0.151142   0.09824594 -81.66 0.0007974747    1.572    0.364
        17 -13.9055     48.3171    224.3354   1.4386624724e+02   2.3903175157e+01     0.998562    0.6321545  84.13  0.006446217    1.353    0.261
        18 -15.2672     18.0391    167.7446   1.4556000341e+02   3.8480833536e+01     6.477503     1.901801 -87.03   0.02370969    4.316    0.768
        19 -10.6026     19.3471    230.3742   1.4914029767e+02   2.6084852794e+01    0.1992052    0.1591131  40.40  0.001606555    1.665    0.399
        20 -10.4050    228.6461    228.1787   1.1133075850e+02  -5.0690309994e+00    0.2895668    0.2300296 -60.14   0.00141638    2.282    0.562
        21 -11.6730    148.6659    229.7284   1.2594656535e+02   8.0325301032e+00    0.5770885    0.1725809  37.48  0.002126089    3.462    0.711
        22  -9.8290     34.8307    224.3313   1.4621577221e+02   2.5487927412e+01    0.2947758    0.1336564  75.99  0.001218006    2.053    0.513
        23  -9.2704     32.8729    228.3619   1.4678791619e+02   2.4980188665e+01    0.1768564    0.1177266  81.38 0.0005219369    1.191    0.160
        24 -10.2961    174.2360    222.1888   1.2013900256e+02   4.8019385430e+00    0.2673716    0.1969852  64.55  0.001445452    1.646    0.392
        25  -9.3589     94.5698    216.4476   1.3463324488e+02   1.9035594826e+01    0.2455772    0.1463964  72.04 0.0008965926    1.760    0.432
        26  -8.7670    152.5475    212.9784   1.2292357028e+02   1.0041207737e+01    0.1586394    0.1292305 -53.10 0.0004192107    1.465    0.317
        27 -10.6934     31.9403    206.6784   1.4560847891e+02   2.9127394673e+01    0.3639254    0.1185072  54.48  0.001486796    2.523    0.604
        28 -11.1858     81.6208    242.1989   1.3939423333e+02   1.6410636881e+01    0.3588416     0.191547  67.10  0.002145456    1.757    0.431
        29  -9.9741    192.9160    194.6004   1.1211526603e+02   5.6390786960e+00    0.6827665    0.3436653 -63.00  0.001825607    8.296    0.879
        30 -11.4184     67.0764    197.6204   1.3810322555e+02   2.6624410031e+01    0.3323661    0.2364712 -49.33  0.001552441    1.940    0.485
        31  -9.4518     51.8173    197.3377   1.4111358778e+02   2.8656227785e+01    0.1958257    0.1277568  82.59 0.0005821998    1.322    0.244
        32 -10.4436     46.6544    248.4445   1.4568029195e+02   1.9908655730e+01    0.2878467    0.1292015  74.09 0.0009598296    2.136    0.532
        33 -11.4868     72.3046    190.1320   1.3625618336e+02   2.7430220848e+01    0.2436569    0.2176866 -74.85 0.0005103336    1.299    0.230
        34 -13.1370     68.8028    175.2850   1.3531659237e+02   3.1047209434e+01    0.4651913    0.2762857 -46.91  0.001847264    2.266    0.559
        35 -10.9027     81.5288    177.5061   1.3278664106e+02   2.8751922213e+01    0.2350752    0.2039651  79.45 0.0003562545    1.058    0.055
        36 -11.8448     88.2133    168.0576   1.3000152856e+02   2.9777477429e+01    0.7093311    0.5129097  62.28   0.00399697    1.288    0.224
        37 -12.8341     67.5729    144.5335   1.3148175207e+02   3.8089852940e+01     1.169681    0.6240313  84.63  0.004901947    2.691    0.628
        38 -10.5635    199.1895    247.3098   1.1925591326e+02  -2.6662581791e+00    0.1958521    0.1677065 -50.43  0.001434435    1.670    0.401
        39 -12.0623     89.1309    151.4313   1.2722845034e+02   3.3331493822e+01     0.270895    0.2442029 -52.58 0.0005420737    1.266    0.210
        40  -9.8826    100.5460    151.8971   1.2452521445e+02   3.1349873598e+01    0.2914099    0.2573188 -61.91 0.0008230062    1.176    0.150
        41  -8.4993    192.2591    143.9890   1.0206290849e+02   1.4401236591e+01    0.1780533    0.1276917 -38.06 0.0003528501    1.432    0.302
        42  -9.2316    103.2647    147.5975   1.2309494825e+02   3.1846877614e+01    0.2498853    0.1961512 -33.45  0.001033482    1.648    0.393
        43  -9.7062    110.7730    137.1959   1.1921944387e+02   3.2846028175e+01    0.3554556    0.2271633 -32.14  0.001526823    2.244    0.554
        44 -12.0963     56.4867    127.4781   1.3169978202e+02   4.3482987085e+01    0.7203881    0.2981589 -76.70  0.002690335    3.154    0.683
        45 -10.4351     98.5929    134.3529   1.2176335116e+02   3.5661873367e+01    0.2725243    0.2331207 -31.81 0.0008888095    1.426    0.299
        46 -12.5366     42.0785    232.2090   1.4546101178e+02   2.3235336490e+01    0.2884016    0.2245258 -80.78 0.0007458552    1.423    0.297
        47  -9.4679    107.8944    123.9488   1.1715138671e+02   3.6376277731e+01    0.2072792    0.1985348 -80.71 0.0003250967    1.033    0.032
        48 -11.2419    234.4056    238.4555   1.1198041804e+02  -7.1045433548e+00    0.3197067    0.2029383 -55.16   0.00166555    3.706    0.730
        49 -10.6701    168.1776    113.1706   9.9713542840e+01   2.5762995375e+01    0.3595935    0.3143171 -81.67 0.0007956976    1.293    0.226
        50  -8.9679    203.4531    111.5208   9.2082429395e+01   1.7732620375e+01    0.1507096    0.1448302  -1.11 0.0001475825    1.043    0.041
        51 -14.5797     55.9693    211.6705   1.4152226182e+02   2.5320563690e+01     7.685238          nan  46.74   0.02109267    7.525    0.867
        52 -10.2080     88.7350    248.4279   1.3868175701e+02   1.4394842773e+01    0.1840494    0.1177191  88.55 0.0007215323    1.668    0.401
        53 -11.0765     81.7818    248.8017   1.3989433027e+02   1.5306423951e+01     0.306967    0.1704066  49.05  0.001986402    1.362    0.266
