#   1 NUMBER                 Running object number                                     
#   2 MAG_AUTO               Kron-like elliptical aperture magnitude                    [mag]
#   3 X_IMAGE                Object position along x                                    [pixel]
#   4 Y_IMAGE                Object position along y                                    [pixel]
#   5 X_WORLD                Barycenter position along world x axis                     [deg]
#   6 Y_WORLD                Barycenter position along world y axis                     [deg]
#   7 A_WORLD                Profile RMS along major axis (world units)                 [deg]
#   8 B_WORLD                Profile RMS along minor axis (world units)                 [deg]
#   9 THETA_WORLD            Position angle (CCW/world-x)                               [deg]
#  10 FWHM_WORLD             FWHM assuming a gaussian core                              [deg]
#  11 ELONGATION             A_IMAGE/B_IMAGE                                           
#  12 ELLIPTICITY            1 - B_IMAGE/A_IMAGE                                       
         1 -13.8824    177.5289     45.8350   6.2273127081e+01   3.5268769213e+01     1.134676    0.9072326 -11.27 0.0008556608    1.366    0.268
         2 -14.0332    189.3138     35.5860   5.7015333347e+01   3.3610499695e+01     1.124692     1.034064 -39.93  0.003211006    1.103    0.093
         3 -14.0630    196.1520     26.7227   5.3248777077e+01   3.2936768152e+01     1.046349    0.8822101  21.67  0.001287851    1.328    0.247
         4 -14.3976    215.7609      4.2044   4.4270115895e+01   3.0309189873e+01     3.122779     1.651606  46.59    0.0103345    2.079    0.519
         5 -10.0006     42.6512    221.5455   1.2536638755e+02   2.5425909779e+01    0.1706921   0.09740632  26.96 0.0009509558    3.560    0.719
         6 -16.5333     71.5278    148.3048   1.1289974114e+02   3.6064180835e+01     8.254086     3.875335  82.93   0.02858609    4.587    0.782
         7  -9.6693    163.0975    203.6919   1.0254173603e+02   1.0425101290e+01    0.1776902    0.1368899  45.85 0.0003512834    1.099    0.090
         8 -11.2527    155.8867    199.9707   1.0331792468e+02   1.2312193896e+01    0.3696883    0.2453885 -67.19  0.001950907    1.961    0.490
         9 -10.5829     95.1502    200.3257   1.1461138907e+02   2.2315777147e+01    0.3005098    0.1743756  71.55  0.001313796    1.786    0.440
        10 -12.8466    101.3687    196.1332   1.1298632808e+02   2.2142385935e+01    0.6591452     0.434939  18.66  0.003188652    3.294    0.696
        11 -11.7320     48.5261    206.2465   1.2335193960e+02   2.7431978449e+01    0.2319151    0.1512838  85.87 0.0009532312    1.240    0.193
        12 -11.9230     71.6183    210.6269   1.1979246794e+02   2.3765888158e+01    0.2896722    0.1852214  44.04 0.0009374383    1.577    0.366
        13 -10.4763    209.9415    199.5169   9.3424655421e+01   2.4869955165e+00     0.203336    0.1765213 -57.03 0.0006102542    1.546    0.353
        14 -12.0287    193.3445    193.0903   9.5301034136e+01   6.4707085474e+00    0.7612486    0.4305189 -53.82  0.003694167    2.486    0.598
        15 -12.3938    141.0036    197.9420   1.0579818441e+02   1.5286815086e+01    0.3193282     0.238611 -45.26  0.001504302    1.642    0.391
        16 -12.4739     35.3503    199.5889   1.2508454210e+02   3.0130469266e+01    0.1882264    0.1376657  73.29 0.0005205141    1.064    0.060
        17 -10.4884     82.0142    195.6277   1.1651116095e+02   2.5080390231e+01    0.2434769     0.238579 -45.47  0.001830058    1.555    0.357
        18 -13.1724     68.0991    191.4970   1.1864626819e+02   2.7745519487e+01    0.6426965    0.5439609 -69.80  0.004718008    1.402    0.287
        19 -10.5143    152.4078    194.2857   1.0311791631e+02   1.3877722522e+01    0.2217199    0.1392988  62.00 0.0005575189    1.682    0.406
        20  -9.7934     76.5210    206.0160   1.1852574664e+02   2.3933203942e+01    0.2750067    0.1207166 -73.33  0.001257667    2.385    0.581
        21 -13.5110     59.2665    204.7853   1.2141214974e+02   2.6399521277e+01    0.7177746    0.4727089  66.13  0.001474913    1.196    0.164
        22 -10.1985     53.3302    228.6303   1.2416408221e+02   2.2980902618e+01     0.230591   0.09971801  69.01  0.001330525    2.183    0.542
        23 -10.7974    151.6567    183.5518   1.0158496971e+02   1.5859768473e+01    0.2118448    0.1553988 -81.58 0.0007511161    1.737    0.424
        24 -11.9112     99.4787    180.8890   1.1146429139e+02   2.5313747994e+01     0.244579    0.2042414 -89.17  0.000606237    1.108    0.097
        25 -12.0685    144.8183    179.1978   1.0222441417e+02   1.7900975559e+01    0.4022497    0.2480375  34.72  0.002013043    1.802    0.445
        26  -9.7272    168.3019    176.6525   9.7168455131e+01   1.3900061811e+01    0.2132159    0.1827395 -75.66 0.0004940056    1.364    0.267
        27 -10.0271    166.1377    173.1670   9.6972650470e+01   1.4926584323e+01    0.2422003    0.1871806 -80.77 0.0007609232    1.675    0.403
        28 -19.4001     12.3270    133.7285   1.2417169020e+02   4.5386938087e+01     16.57824     1.833805 -74.00   0.04161808    9.197    0.891
        29  -9.8239     73.9275    218.1000   1.2004597696e+02   2.2154710707e+01    0.1724402    0.1115047  70.17 0.0003797405    1.250    0.200
        30 -11.5431    195.0033    168.3076   9.0449631225e+01   9.9955165320e+00    0.3212289    0.2933524  35.15  0.001938303    1.019    0.018
        31 -11.0887    145.9780    168.3140   1.0016388723e+02   1.9694676998e+01    0.1990875    0.1664065  53.44 0.0006453687    1.089    0.082
        32 -10.1137     61.4614    186.8666   1.1942080656e+02   2.9484438174e+01    0.2747104    0.1464457  36.77  0.001192848    2.179    0.541
        33 -10.6727     48.3244    216.6943   1.2414042072e+02   2.5604590678e+01    0.2343008    0.1380299  59.91  0.001007894    1.311    0.237
        34 -10.6716    190.1375    160.6674   8.9868353412e+01   1.2252362688e+01    0.2699035    0.2358048 -51.62 0.0008219961    1.291    0.225
        35 -11.2622    189.0233    155.1301   8.8953390584e+01   1.3428437731e+01    0.4321327    0.3667377 -86.59  0.002345006    1.498    0.333
        36 -10.7102    140.4388    157.2940   9.9345400663e+01   2.2865218978e+01    0.2716386    0.2055876  76.21  0.000354074    1.487    0.328
        37 -13.2771     96.2034    154.7216   1.0843804912e+02   3.1120624991e+01    0.6591294    0.5762313 -41.57  0.004108839    1.453    0.312
        38 -12.1808    133.8335    144.9288   9.8434241270e+01   2.6605881950e+01     1.115438    0.3174648 -56.44  0.003092055    5.140    0.805
        39 -10.7790    113.0637    151.5277   1.0422900052e+02   2.9018940726e+01    0.2516899     0.176695 -78.11 0.0006285636    1.548    0.354
        40  -9.8113    182.6898    150.5800   8.9260547409e+01   1.5557783243e+01    0.2291941    0.1727303 -65.96 0.0005855995    1.705    0.414
        41 -10.4355    174.9027    149.1411   9.0535627573e+01   1.7461110526e+01    0.2220409     0.194936  77.73  0.000590405    1.269    0.212
        42 -11.5961    143.9164    146.6052   9.6556362365e+01   2.4305647082e+01    0.3629607    0.2427208 -71.05  0.001691797    1.900    0.474
        43 -16.6821     72.7568    247.0588   1.2245582446e+02   1.7615308554e+01     7.761925     2.408151  36.53   0.02916613    6.120    0.837
        44 -12.3731    107.5771    140.2017   1.0345447117e+02   3.2347400636e+01    0.5017704    0.3505653 -35.73  0.002539346    1.892    0.471
        45 -12.5935     95.5146    140.3929   1.0625731764e+02   3.4281170369e+01    0.2835398    0.2647432 -59.95 0.0004051652    1.203    0.168
        46 -12.0966    114.7929    130.5696   9.9927386805e+01   3.3154176710e+01     0.463489    0.3501276  22.99  0.001493991    1.776    0.437
        47 -11.2216    106.0862    130.8297   1.0203674881e+02   3.4618757903e+01    0.3640352      0.28804 -86.82  0.001225777    1.317    0.241
        48 -11.2028    102.4536    126.6405   1.0208400528e+02   3.6142379372e+01    0.2705762    0.2278153 -41.80 0.0005268707    1.326    0.246
        49 -11.4002    136.0000    128.0951   9.4458855705e+01   2.9658100510e+01    0.4692205    0.1840099 -51.92  0.001691259    2.681    0.627
        50  -9.5239    145.1846    129.4247   9.2658997272e+01   2.7520943120e+01    0.2013927    0.1351358  59.95 0.0004647406    1.617    0.382
        51 -10.3840    160.8772    128.1140   8.8876296093e+01   2.4463447201e+01    0.2375768    0.2072244 -83.61  0.001244076    1.284    0.221
        52 -11.5130    119.4307    124.7955   9.7627690551e+01   3.3547420279e+01    0.4063008    0.2590001 -24.99  0.001682773    2.643    0.622
        53 -10.4698    110.2030    119.3211   9.8684284718e+01   3.6401976828e+01    0.2186196    0.2039844 -36.66 0.0003620984    1.195    0.163
        54 -10.1865     35.9425    206.2864   1.2544329050e+02   2.8849001939e+01    0.1796771   0.08712431  57.72  0.001156564    1.652    0.395
        55  -9.9366    167.8991    112.7452   8.3630528266e+01   2.5904242842e+01    0.3017709     0.199355 -67.93  0.001226113    2.186    0.543
        56 -11.4997    120.2310    110.4671   9.4201070846e+01   3.6466857634e+01    0.3634136    0.2659063  69.05  0.001772064    1.629    0.386
        57 -10.7132    104.0306    111.0809   9.8412815745e+01   3.9275088129e+01    0.2065863     0.189432 -79.09            0    1.047    0.045
        58 -10.2106    205.6763    110.0988   7.5266617649e+01   1.7570958657e+01    0.2879465    0.2150805  41.00 0.0006198247    1.344    0.256
        59 -12.0932     53.0216     90.7578   1.0779214923e+02   5.0996982322e+01    0.3263774    0.2464318  82.74  0.001853924    1.543    0.352
        60 -11.5414     41.7992     91.7763   1.1118288787e+02   5.1939343558e+01    0.2208547    0.1942929  86.24 0.0004614593    1.205    0.170
        61  -9.7635     69.1005     71.8503   9.8497624550e+01   5.3107920036e+01    0.1828378    0.1656848 -73.53  0.000385655    1.203    0.169
        62 -11.4419    165.2605     65.7743   7.0986873629e+01   3.5233774327e+01      0.44275     0.312787 -82.83 0.0005124221    2.095    0.523
        63  -9.4482    104.5148     60.9826   8.4592175416e+01   4.9589062573e+01     0.191734    0.1192769 -62.00 0.0003812922    2.313    0.568
        64  99.0000     65.8197    224.6604   1.2190270753e+02   2.2095848967e+01    0.4337626   0.08970608  52.99  0.001737977    4.092    0.756
        65 -11.6904     42.8937    212.4253   1.2472417858e+02   2.6980356328e+01    0.4193924    0.2703201  47.16  0.003069872    1.537    0.349
        66 -12.9804     53.8781    210.0812   1.2274657302e+02   2.6107034369e+01    0.3730241     0.161298  64.37  0.001863258    2.146    0.534
        67 -10.6587     49.1509    225.9203   1.2463469787e+02   2.3931237589e+01    0.1525044    0.1028584  63.96 0.0003299636    1.110    0.099
        68 -10.0229    198.7633    222.8079   9.9086411780e+01   1.4241057273e+00    0.1744309    0.1353383  31.77 0.0004913579    1.116    0.104
        69 -10.2040     53.4612    231.4835   1.2433370591e+02   2.2494126900e+01    0.1860535    0.1053378  73.33  0.001014405    1.421    0.296
