#   1 NUMBER                 Running object number                                     
#   2 MAG_AUTO               Kron-like elliptical aperture magnitude                    [mag]
#   3 X_IMAGE                Object position along x                                    [pixel]
#   4 Y_IMAGE                Object position along y                                    [pixel]
#   5 X_WORLD                Barycenter position along world x axis                     [deg]
#   6 Y_WORLD                Barycenter position along world y axis                     [deg]
#   7 A_WORLD                Profile RMS along major axis (world units)                 [deg]
#   8 B_WORLD                Profile RMS along minor axis (world units)                 [deg]
#   9 THETA_WORLD            Position angle (CCW/world-x)                               [deg]
#  10 FWHM_WORLD             FWHM assuming a gaussian core                              [deg]
#  11 ELONGATION             A_IMAGE/B_IMAGE                                           
#  12 ELLIPTICITY            1 - B_IMAGE/A_IMAGE                                       
         1 -14.8423     67.6558    143.8476   1.1335236020e+02   3.7845532838e+01     4.860974     2.001181  62.53   0.01740236    3.946    0.747
         2 -14.5412    196.2386     32.4227   5.4718826699e+01   3.1523753551e+01     2.225102     1.437505  29.71  0.007643795    1.959    0.490
         3 -14.5331    207.3508     19.0707   4.9395851597e+01   3.0183300242e+01     1.620749     1.135239  11.25  0.007837635    1.861    0.463
         4 -10.6909     63.3761      8.8492   7.6074258213e+01   6.6221211049e+01    0.2180663     0.182892  80.21 0.0007427743    1.924    0.480
         5 -11.1780     47.9859      3.0045   7.9315716589e+01   6.9514329220e+01    0.2018494    0.1654255  -7.84  0.001338197    1.003    0.003
         6 -10.9584     57.4896      2.3322   7.4917320604e+01   6.8072813339e+01    0.2143404     0.110775  44.75  0.001092345    1.996    0.499
         7 -10.1522     41.3291      2.3166   8.1990090849e+01   7.0585008555e+01    0.1264998   0.08149157  -1.88 0.0007046035    1.680    0.405
         8  -9.7344     94.9835    199.9580   1.1426141456e+02   2.2731942335e+01    0.1978275     0.117201  66.20 0.0007302313    1.712    0.416
         9 -10.2780    174.1767    249.5210   1.0565749927e+02   3.3470053528e+00    0.1957697    0.1444863  56.81  0.000738126    1.501    0.334
        10 -16.0078    106.5034    247.5126   1.1673716784e+02   1.3502445471e+01     9.355137     1.784498  40.47   0.03609959    4.112    0.757
        11 -14.9529     48.4752    209.2450   1.2388663747e+02   2.7192733070e+01     1.453637     1.199194  12.97   0.01052401    2.066    0.516
        12 -15.3583     57.4914    199.0406   1.2144236921e+02   2.7963670428e+01     2.926846     1.758227  85.04   0.01861809    1.587    0.370
        13 -10.1913     80.3200    194.5411   1.1658080117e+02   2.5812893288e+01    0.3692825    0.1533786  49.07  0.001861112    2.007    0.502
        14 -10.8722    207.8314    183.8248   9.0148085383e+01   6.0597880822e+00    0.2579213    0.2130451   3.16  0.001043596    1.189    0.159
        15 -10.3009    211.3193    179.4030   8.8724379377e+01   6.0336213096e+00    0.3424037    0.2041918 -25.48   0.00181714    1.860    0.462
        16 -12.0693     71.6372    180.9623   1.1694130084e+02   2.9590693414e+01    0.3579388    0.2541346 -41.63  0.002121888    2.131    0.531
        17 -11.9736     75.8898    175.5548   1.1545372405e+02   3.0080223010e+01     0.268899    0.2231848 -50.19  0.001243989    1.551    0.355
        18  -9.7830     99.2255    180.7399   1.1113963017e+02   2.5643447163e+01    0.1865047    0.1465313  62.58  0.001171712    1.103    0.093
        19 -10.7160    144.4694    179.0398   1.0148991765e+02   1.8346626710e+01    0.2634753    0.1732558  30.67  0.001380229    1.643    0.392
        20  -9.9079    197.1797    176.0872   9.0677526445e+01   9.0836879927e+00    0.2374135    0.1695557  66.61 0.0009152261    2.040    0.510
        21 -12.6177     90.5564    158.5207   1.1002504604e+02   3.1413496276e+01     1.479164     0.786191 -77.64  0.006774863    2.379    0.580
        22 -12.3330     84.2043    165.2601   1.1238428730e+02   3.0976662135e+01    0.5389332    0.3500209  71.74 0.0006249795    1.602    0.376
        23 -13.6948     72.5380    161.1640   1.1448050698e+02   3.3480037218e+01    0.6388168    0.5151013 -49.47  0.004032691    1.537    0.349
        24 -11.2834     93.1704    236.3609   1.1805497827e+02   1.6976859668e+01    0.2203043     0.153645  67.66 0.0004505337    1.271    0.213
        25 -10.4814    195.7666    170.2572   8.9852923042e+01   1.0208710733e+01    0.2958215    0.2511383 -12.11  0.001356131    1.236    0.191
        26 -10.1578    193.0925    164.5271   8.9258322910e+01   1.1589708178e+01    0.3286678     0.272596 -69.45  0.001859081    1.699    0.411
        27 -10.0172    139.9223    156.5462   9.8601579875e+01   2.3282539314e+01     0.227158    0.1872802 -84.56 0.0005721574    1.411    0.291
        28 -10.0672    145.7670    168.4036   9.9456126891e+01   1.9994179647e+01    0.1881706    0.1181154  36.28 0.0005224242    1.563    0.360
        29 -10.8528    134.2174    146.9923   9.8079576335e+01   2.6216821198e+01     0.514328    0.2043556 -55.49  0.001893723    3.035    0.671
        30 -12.1656     54.0827    147.5883   1.1710398828e+02   3.8754570394e+01    0.3991158    0.3303799  82.91  0.002663509    1.008    0.008
        31 -12.0545     43.3195    148.4509   1.1974507340e+02   3.9807014595e+01    0.4645668    0.2461552  49.90   0.00235628    1.769    0.435
        32 -11.0209     47.9587    146.1833   1.1839778146e+02   3.9777898968e+01    0.2459103     0.196243  21.78  0.001576431    1.684    0.406
        33 -10.2108    174.6521    148.8794   8.9749207123e+01   1.7814828804e+01    0.2485529    0.2219568  85.61 0.0008649644    1.352    0.261
        34 -10.9323    103.9889    142.0593   1.0423404512e+02   3.2706196594e+01    0.4934698      0.33795 -24.53  0.002276312    2.481    0.597
        35 -12.3445     91.4532    142.6792   1.0737467883e+02   3.4627634460e+01     0.245908    0.2402934 -64.30 0.0006924358    1.204    0.170
        36 -13.5287     44.6673    130.3391   1.1729563884e+02   4.3643057171e+01     1.005618    0.3618792 -76.56  0.004000988    3.079    0.675
        37 -10.1482    105.9529    130.7215   1.0164582678e+02   3.4794181464e+01    0.3037094    0.2050181 -60.52  0.001530396    1.497    0.332
        38 -15.0106     10.7209    206.4174   1.3042853260e+02   3.1645163036e+01    0.6535094    0.5965191  55.87  0.002741408    1.518    0.341
        39 -10.6197    160.1291    128.6141   8.8420080222e+01   2.4519641659e+01    0.3782748    0.2112849 -24.01  0.001430322    2.761    0.638
        40 -11.1867    118.1054    126.4651   9.7758193899e+01   3.3491412827e+01    0.5571264    0.2395255 -43.04  0.002112112    2.638    0.621
        41 -10.9677     99.8972    128.3231   1.0270542590e+02   3.6361562425e+01    0.2798017    0.2432226 -19.72  0.001275722    1.489    0.328
        42  -9.5712    125.5165    127.0253   9.6062162410e+01   3.1953248041e+01    0.1995685    0.1255191 -76.24 0.0007588773    2.420    0.587
        43 -10.7435    135.1625    121.4685   9.2500706089e+01   3.1171854416e+01    0.4825679     0.102125 -50.67  0.001131553    6.233    0.840
        44  -9.7272    108.6206    120.1207   9.8798934924e+01   3.6610472101e+01    0.1910312    0.1690507 -61.45 0.0003838498    1.115    0.103
        45 -17.4838      5.6205    238.9367   1.3247281300e+02   2.6680110149e+01     11.17193     1.619887 -78.56   0.01521155    5.969    0.832
        46 -10.2437    112.6470    131.7379   1.0018639600e+02   3.3381571792e+01    0.2958185      0.23283  11.24 0.0007185967    1.786    0.440
        47  -9.5824    108.4618    114.4765   9.7601649834e+01   3.7864424143e+01    0.3416601    0.2030448  69.58    0.0013066    2.599    0.615
        48  -9.9995    167.6012    112.4010   8.2918750268e+01   2.5906286976e+01     0.329342    0.2373411 -74.74  0.001440441    2.032    0.508
        49 -11.4993    137.2075    170.7942   1.0165750835e+02   2.1126574504e+01    0.5308048    0.2479171  31.93  0.002120197    2.766    0.638
        50 -11.2654    120.1550    110.4308   9.3631719249e+01   3.6498456273e+01    0.3221022    0.3101222 -63.86  0.001833855    1.038    0.036
        51  -9.8779    205.5253    110.1963   7.4867743305e+01   1.7662685680e+01    0.2586683    0.2001166  46.10 0.0005917636    1.287    0.223
        52 -12.5062     52.7035    109.6474   1.1205388970e+02   4.7424351692e+01    0.4595008    0.3621551 -81.39  0.002811939    1.147    0.128
        53 -11.4494     40.8550    107.9206   1.1517655929e+02   4.9129461238e+01    0.2354439    0.1527662 -75.98 0.0009271425    1.361    0.265
        54  -9.7984    134.4565    103.1637   8.8212096440e+01   3.5059112517e+01    0.2870017    0.1465862 -39.91  0.001133896    2.045    0.511
        55  -9.4880     86.7945     99.7327   1.0017999132e+02   4.4898132455e+01    0.1866138    0.1537513  77.53  0.000350557    1.335    0.251
        56 -10.9457     20.8156    110.9970   1.2126711441e+02   5.0272623336e+01    0.2483862    0.1520514  43.10 0.0009191328    1.751    0.429
        57  -9.1029    185.5047     85.5017   7.2112739638e+01   2.6441022662e+01     0.150228    0.1485352 -15.35 0.0001162195    1.019    0.019
        58  -9.2190     24.7899     82.5639   1.1598535025e+02   5.6397622157e+01     0.140294    0.1104086  52.28 0.0003381393    1.444    0.308
        59  -9.5021    183.0152     77.7995   7.0413789496e+01   2.8333619340e+01    0.3066973    0.2053933  39.03   0.00124119    1.601    0.375
        60 -10.1870     61.5532     68.7075   1.0023372792e+02   5.5563483435e+01    0.2576728    0.2136241  72.33 0.0008000751    1.470    0.320
        61  -8.8832     30.3252     63.2407   1.1012356866e+02   6.0262490129e+01    0.1187198   0.08212329 -34.59  0.000266022    1.527    0.345
        62 -10.7557    157.0576     59.2696   7.0000960991e+01   3.7920167341e+01    0.3297855    0.2645589 -89.46 0.0005297328    1.507    0.337
        63 -10.5116    159.0997     53.0119   6.7544054982e+01   3.8397143222e+01    0.3238196    0.2562231  89.82 0.0006061607    1.516    0.340
        64 -12.7847    186.9476     39.2529   5.8159604989e+01   3.3093120123e+01    0.7103413    0.5754716  42.36 0.0009841801    1.286    0.222
        65 -13.8716     23.5585    194.3300   1.2752152455e+02   3.2612439614e+01     1.111237    0.3562461  47.25   0.00177059    2.334    0.572
        66 -11.3625    182.3372    233.8102   1.0235156418e+02   3.9333901870e+00    0.2348524    0.1528639  56.51  0.001378416    1.785    0.440
        67 -11.5493     26.9691     35.4445   1.0368395290e+02   6.6447771476e+01    0.2628582    0.1871956  44.46  0.001217067    1.837    0.456
        68  -9.5326    113.0099    195.9901   1.1024895023e+02   2.0685777325e+01    0.2280921    0.1541173  -5.73 0.0009659785    4.191    0.761
        69 -10.4508    189.6770     15.0029   5.0255068840e+01   3.5253980700e+01    0.2024496    0.1853871 -33.59  0.000553996    1.122    0.109
        70  -9.9380     70.4844    229.9529   1.2146066270e+02   2.0984283412e+01    0.2821098    0.1257032  38.55  0.001627325    2.035    0.509
        71 -12.0655     13.0248     44.3081   1.1245213658e+02   6.5683994049e+01    0.2885974    0.1456032 -62.73  0.001608868    1.585    0.369
        72 -11.6105    183.9503    215.3615   9.9530839975e+01   5.9744692169e+00    0.2812407    0.1860523  60.88  0.001611415    1.999    0.500
        73 -12.2093    194.0615    194.0717   9.4400235599e+01   7.1002029021e+00    0.6929126    0.5524295 -66.24  0.004187976    1.933    0.483
