#   1 NUMBER                 Running object number                                     
#   2 MAG_AUTO               Kron-like elliptical aperture magnitude                    [mag]
#   3 X_IMAGE                Object position along x                                    [pixel]
#   4 Y_IMAGE                Object position along y                                    [pixel]
#   5 X_WORLD                Barycenter position along world x axis                     [deg]
#   6 Y_WORLD                Barycenter position along world y axis                     [deg]
#   7 A_WORLD                Profile RMS along major axis (world units)                 [deg]
#   8 B_WORLD                Profile RMS along minor axis (world units)                 [deg]
#   9 THETA_WORLD            Position angle (CCW/world-x)                               [deg]
#  10 FWHM_WORLD             FWHM assuming a gaussian core                              [deg]
#  11 ELONGATION             A_IMAGE/B_IMAGE                                           
#  12 ELLIPTICITY            1 - B_IMAGE/A_IMAGE                                       
         1 -15.2165      4.8392    132.2264   1.4629337706e+02   4.6703238542e+01     8.128647     1.592759 -88.60   0.02353882    5.300    0.811
         2 -13.4343    200.2233     28.5307   6.3640500457e+01   3.0933939879e+01     1.457877     1.031805 -34.00  0.007758339    1.338    0.252
         3 -13.3127    216.3951     10.5547   5.7422310520e+01   2.9020247046e+01    0.8743814    0.8346936 -88.71   0.00308956    1.196    0.164
         4 -11.7090     63.1840    189.1895   1.3391187479e+02   2.7621741293e+01    0.2591248    0.2317255  44.71 0.0004829135    1.127    0.113
         5 -13.5944    242.4068    247.0764   1.0385303061e+02  -5.6723829339e+00     1.594042    0.5181972  30.79  0.008790359    2.431    0.589
         6 -12.7759      6.3407    227.8209   1.4884692018e+02   2.5826811214e+01     0.697076    0.4709598  50.25  0.005161401    1.047    0.045
         7 -13.7164    133.2056    245.6945   1.2366093628e+02   8.0784695698e+00     1.161643    0.8919234  10.57   0.00814511    1.349    0.259
         8 -12.7972     43.8062    213.2585   1.4029471177e+02   2.4945837822e+01    0.8215562     0.619709 -71.30  0.004723955    1.574    0.365
         9 -12.7018     28.2926    230.8310   1.4446094301e+02   2.3254394446e+01    0.2939896    0.2487099  51.60 0.0007651036    1.205    0.170
        10 -13.9405     33.1083    224.4414   1.4319609358e+02   2.3941323993e+01    0.8306897    0.5426658  47.59  0.002492429    1.114    0.103
        11 -10.7500    229.3048    229.7847   1.0349018875e+02  -2.4676619526e+00    0.2753205    0.1910987 -50.57  0.001598182    3.550    0.718
        12 -10.5830     65.1484    248.7101   1.3777995536e+02   1.6210479528e+01    0.2468452    0.1590887  51.06 0.0006689981    1.222    0.182
        13 -11.3782     45.9747    248.3051   1.4159866647e+02   1.8409634701e+01    0.3218449    0.1755554  53.37  0.001713412    1.402    0.287
        14 -10.1416    101.8282    229.6107   1.2861326286e+02   1.4779378171e+01    0.1890678   0.08313418  40.28 0.0009539044    1.701    0.412
        15 -10.8799     87.4561    226.0846   1.3143591907e+02   1.7288211342e+01    0.3760762   0.09265415  42.92  0.001477621    2.932    0.659
        16 -12.5204     35.4450    244.6953   1.4353696365e+02   2.0114044773e+01    0.5105634    0.4194604 -50.11  0.003819013    1.841    0.457
        17 -12.5960      9.1976    207.2780   1.4776728454e+02   2.9479883547e+01    0.7654281     0.526822  15.46  0.003900955    1.796    0.443
        18 -11.3841     58.9599    213.0089   1.3682382151e+02   2.3271859895e+01    0.6140524    0.1081379  46.59  0.002108313    3.964    0.748
        19  -8.7426    152.4841    212.9532   1.1565331991e+02   1.0224585343e+01     0.154272    0.1268794 -36.73 0.0003809439    1.474    0.322
        20 -10.0541     54.6060    204.7057   1.3725351183e+02   2.5426588333e+01    0.2341136    0.1048397  46.24  0.001073041    1.739    0.425
        21 -13.4606    136.9431    231.5032   1.2131994264e+02   9.6346521121e+00     1.064942      0.45178  26.67  0.004998945    2.175    0.540
        22 -12.3694     10.8049    120.6366   1.4371576934e+02   4.9273597334e+01    0.5520331    0.3244506  48.68  0.001938956    1.605    0.377
        23 -10.4894     74.2005    176.3951   1.2974778664e+02   2.8985292799e+01    0.2342724    0.2087141  56.75 0.0003514956    1.050    0.048
        24 -13.0501     60.5991    174.2616   1.3318456305e+02   3.1250767292e+01    0.5141262     0.295986 -45.60  0.002015095    2.298    0.565
        25  -8.7471     93.5651    170.7660   1.2382736001e+02   2.7420074303e+01    0.1795766    0.1346337 -89.12 0.0005422549    1.571    0.363
        26 -11.4396     81.5392    167.8013   1.2670931222e+02   2.9892709081e+01    0.5321504     0.429194 -46.37  0.002951393    1.463    0.316
        27  -9.9629     95.3828    151.9328   1.2045574913e+02   3.1427941438e+01    0.2785192    0.2762831  43.38 0.0008109281    1.103    0.093
        28 -11.7660     83.8662    150.7610   1.2363093166e+02   3.3540852997e+01    0.3010924     0.265591 -41.31  0.000496862    1.303    0.233
        29  -8.8596     98.6123    147.7268   1.1880479073e+02   3.1876032933e+01    0.1842281    0.1448058 -74.65 0.0003871562    1.421    0.296
        30 -11.9239     67.1976    143.2808   1.2758136373e+02   3.7810281908e+01    0.7761395    0.3867732  52.51  0.003195068    2.079    0.519
        31  -9.4925    108.2137    136.8360   1.1394936111e+02   3.2739575401e+01      0.41643    0.2531247 -20.21  0.001469179    3.110    0.678
        32 -10.2476     94.9593    134.2100   1.1741384480e+02   3.5739288644e+01    0.2435661    0.2174068 -48.88 0.0003099004    1.201    0.167
        33 -11.4368     56.3827    197.5587   1.3629990790e+02   2.6682014660e+01     0.248189    0.2361446  84.10 0.0005814251    1.246    0.198
        34  -8.9001    105.5957    123.5356   1.1191725300e+02   3.6388133660e+01    0.1531077    0.1492112  44.77 0.0001591554    1.027    0.026
        35  -9.3510     76.4918    120.8575   1.2080926349e+02   4.2139226835e+01      0.28987    0.1875559  52.37 0.0007830823    1.595    0.373
        36  -9.2651     63.5580    119.6779   1.2506701223e+02   4.4351038877e+01    0.2511438    0.1548217  51.91 0.0005376142    1.668    0.400
        37  -9.7521     63.2452     79.3042   1.1625095414e+02   5.4889602625e+01    0.2577348    0.2174664  64.00 0.0004722512    1.314    0.239
        38  -8.9484     51.9611     72.4490   1.1940663167e+02   5.8235682077e+01    0.2137697    0.1409756  34.24 0.0008596781    1.563    0.360
        39 -11.2766      6.8591    192.2409   1.4788586787e+02   3.2736286879e+01    0.2817432    0.1737901  52.01 0.0005093733    1.231    0.188
        40 -13.6178      8.4094    244.8338   1.4878538805e+02   2.2667881208e+01     1.304053    0.8535833  38.94   0.00987562    1.233    0.189
        41 -10.0242     53.4823    238.0720   1.3956814089e+02   1.9315139264e+01    0.1440663    0.1062935 -88.78  0.000540844    1.558    0.358
