#   1 NUMBER                 Running object number                                     
#   2 MAG_AUTO               Kron-like elliptical aperture magnitude                    [mag]
#   3 X_IMAGE                Object position along x                                    [pixel]
#   4 Y_IMAGE                Object position along y                                    [pixel]
#   5 X_WORLD                Barycenter position along world x axis                     [deg]
#   6 Y_WORLD                Barycenter position along world y axis                     [deg]
#   7 A_WORLD                Profile RMS along major axis (world units)                 [deg]
#   8 B_WORLD                Profile RMS along minor axis (world units)                 [deg]
#   9 THETA_WORLD            Position angle (CCW/world-x)                               [deg]
#  10 FWHM_WORLD             FWHM assuming a gaussian core                              [deg]
#  11 ELONGATION             A_IMAGE/B_IMAGE                                           
#  12 ELLIPTICITY            1 - B_IMAGE/A_IMAGE                                       
         1 -11.7152    234.7304     12.5114   3.0415225708e+01   2.6238159751e+01    0.7368777    0.4221487  81.81  0.004545004    1.581    0.367
         2 -11.2979    235.1977      5.7282   2.9088037421e+01   2.6885674131e+01     0.678206    0.3182936  75.29  0.003892112    1.939    0.484
         3 -11.4436     32.7667      8.2372   6.8568431030e+01   6.9748637654e+01    0.4917453    0.2606066 -39.76  0.002753946    2.346    0.574
         4 -10.2625    115.2239    245.1012   1.0000648976e+02   7.3165713892e+00     0.224151    0.1609296 -65.85  0.001018513    1.666    0.400
         5  -9.4175    141.2854    249.7682   9.5097876219e+01   2.5572880946e+00    0.2048224    0.1680324 -56.06  0.001290189    1.482    0.325
         6 -10.6018    107.1489    249.7277   1.0227048185e+02   7.6540290834e+00    0.4040522    0.1758569  34.52  0.001864705    2.002    0.500
         7  -9.6875     73.4301    238.2383   1.0820907174e+02   1.4709586447e+01    0.6030908     0.142839 -62.39  0.002160447    4.233    0.764
         8  -9.6414     71.8310    248.3757   1.0952134931e+02   1.2903010724e+01    0.3083334    0.1727544 -72.94 0.0008430631    1.995    0.499
         9  -9.3933     72.2864    244.6734   1.0907880263e+02   1.3570783278e+01    0.2599401    0.1497125  57.91 0.0007191756    1.645    0.392
        10  -8.9720     61.8883    250.3359   1.1173243519e+02   1.3833774207e+01    0.2983883    0.1053573  46.75   0.00128655    2.299    0.565
        11 -16.7085      9.4311    242.0095   1.2147503600e+02   2.1546057623e+01     12.35698     4.536926 -77.75   0.02746445    2.518    0.603
        12 -10.4059    124.0909    202.0761   9.1888942721e+01   1.4619476113e+01    0.3305289    0.2175945 -66.05  0.001561997    1.807    0.447
        13  -9.8794     40.7203    207.3541   1.1246853867e+02   2.5637092872e+01    0.3558734    0.2157128  83.90  0.001381985    1.665    0.399
        14  -9.0507    133.6623    209.3397   9.0825550018e+01   1.1460139681e+01    0.1462779    0.1071076  67.65 0.0007050729    1.761    0.432
        15  -8.9738     74.8439    208.5100   1.0460344576e+02   2.0932376477e+01    0.2665113      0.16765  87.76  0.001280106    1.895    0.472
        16 -13.0465     54.9609    233.1188   1.1167476312e+02   1.8215396535e+01    0.7978667    0.6681674  57.16  0.001309869    1.058    0.054
        17  -7.6009     67.3149    197.6410   1.0507884954e+02   2.4509442817e+01    0.1500554   0.09460229  67.92 0.0007043427    1.751    0.429
        18  -8.7737     58.5781    195.9955   1.0702379891e+02   2.6076036281e+01    0.1910506    0.1690846  62.58 0.0001437863    1.055    0.052
        19  -9.6193     83.1707    245.6552   1.0688767834e+02   1.1877463614e+01    0.2096746    0.1623981  77.98 0.0006741478    1.335    0.251
        20  -9.6335    114.8314    193.9847   9.2797815322e+01   1.7984309752e+01    0.2475231     0.164132 -27.30   0.00108582    2.107    0.525
        21  -8.0120    158.0283    192.9165   8.2390216189e+01   1.0642343995e+01    0.1711741     0.158691 -31.04 0.0005484211    1.101    0.092
        22  -9.1702    108.4813    191.4609   9.3950932413e+01   1.9630809018e+01    0.1452565    0.1362866  56.52 5.521028e-05    1.018    0.018
        23 -11.6514     56.0252    183.9648   1.0619240200e+02   2.9305855103e+01    0.7741158    0.6735491 -76.76  0.003709219    1.098    0.089
        24  -9.5724     81.4564    182.1539   9.9359108049e+01   2.6172837230e+01    0.3643136    0.2654782  47.12  0.001033548    1.329    0.248
        25  -9.2768     99.4259    181.0139   9.4515852882e+01   2.3592059180e+01    0.2632057    0.2102549  14.05 0.0005485648    1.492    0.330
        26  -9.4309     41.1345    177.5429   1.0924622124e+02   3.2695178368e+01    0.3158348    0.2340008  -3.14  0.001449586    1.944    0.485
        27 -10.8024     93.8782    237.1434   1.0366756800e+02   1.2029003110e+01     0.424962    0.2141819 -68.99  0.001996828    2.409    0.585
        28 -10.3937    102.5657    171.8077   9.2097266527e+01   2.5274818414e+01     0.501963     0.322858 -83.58  0.002078095    2.196    0.545
        29 -10.3336     69.3746    170.5688   1.0079796419e+02   3.0804228496e+01    0.4204044    0.2839246 -29.23  0.001922308    2.058    0.514
        30 -10.5296     73.6774    165.8628   9.8878343199e+01   3.1355903295e+01    0.4061427    0.3020948 -37.61  0.001136965    1.561    0.360
        31 -10.7337     55.1810    206.9986   1.0907540073e+02   2.3943985187e+01     0.532328    0.3209106  65.09  0.002013554    1.706    0.414
        32  -8.6753    110.6046    167.7873   8.9236991740e+01   2.4840136513e+01    0.2131738    0.1450762 -68.90 0.0005141523    1.682    0.405
        33 -12.4866     58.9798    132.1480   9.7236805282e+01   4.1923877078e+01     1.920869    0.8882679 -81.79  0.005316785    5.229    0.809
        34 -11.2379     81.6185    158.1551   9.5347757428e+01   3.2078929059e+01    0.8016914    0.5318287  49.09  0.002658511    1.559    0.359
        35 -11.7768     70.4069    152.4566   9.7531717224e+01   3.5205056180e+01    0.5011054    0.4207711 -42.32  0.000841296    1.256    0.204
        36 -11.6338     70.2908    144.8874   9.6195594060e+01   3.7132063331e+01    0.7411219     0.526868  71.18  0.002451066    1.718    0.418
        37  -9.9663    133.4968    143.4866   7.8184435905e+01   2.6229685495e+01    0.3430943    0.1999773 -57.64 0.0009428139    1.911    0.477
        38 -10.9335    125.3210    208.8097   9.2676996382e+01   1.2968017022e+01    0.5027635    0.2030411 -46.68  0.001938313    2.716    0.632
        39 -10.2312     88.4978    151.6198   9.2181411471e+01   3.2604840625e+01    0.5600213    0.3778483 -23.89  0.001741542    2.107    0.525
        40 -15.6274      6.8650    204.1401   1.1977550142e+02   2.9878480466e+01     11.51907     1.292483 -75.53  0.008851913    7.307    0.863
        41  -9.3418     33.6326    143.5714   1.0692447037e+02   4.2009471503e+01    0.3242733     0.145671 -61.34  0.001360662    1.897    0.473
        42  -9.8906     28.6519    143.6917   1.0841541616e+02   4.2470078762e+01     0.284614    0.1571825  36.04  0.001392205    1.918    0.479
        43  -9.4977    101.9787    138.7133   8.5657128038e+01   3.3444819460e+01    0.3334374    0.2353687 -20.15  0.001423073    1.953    0.488
        44  -9.7623    105.9523    131.0893   8.2794982005e+01   3.4544558818e+01    0.5165288    0.3177812 -46.44  0.002213932    1.611    0.379
        45 -10.4236     90.1881    136.9653   8.8698710832e+01   3.5954286994e+01    0.2921544    0.2708733 -33.86 0.0004266722    1.115    0.103
        46  -9.4718     32.7336    130.0930   1.0515585427e+02   4.5486651373e+01    0.3457333   0.09688574 -63.14  0.001210936    2.905    0.656
        47  -9.9359    111.6642    128.9433   8.0670247627e+01   3.3958983600e+01    0.3475287    0.2263865  21.78  0.001068076    1.990    0.497
        48  -8.8393    134.7979    128.8157   7.4418145699e+01   2.9303079998e+01    0.3515649    0.1180198  37.70   0.00101796    3.520    0.716
        49 -10.1908     27.3808    149.9091   1.0960685605e+02   4.1030808280e+01    0.3218309    0.2055355  86.45 0.0004400706    1.643    0.391
        50  -9.2665     98.9906    124.5574   8.3281105975e+01   3.7400530075e+01    0.2891192    0.2366126  -5.11 0.0007302903    1.487    0.327
        51  -8.3092    108.1172    117.8921   7.8980237499e+01   3.7226815560e+01     0.205992    0.1814646  -9.97 -0.0006383859    1.268    0.211
        52  -8.7128    231.1889    113.9588   5.1746169811e+01   1.2222869295e+01    0.2117466    0.1978295  79.58  0.001345061    1.196    0.164
        53  -9.7418    126.5631    243.3878   9.7364654241e+01   5.9195460452e+00    0.2781045   0.08176565  45.30 0.0009626786    3.423    0.708
        54  -9.7793    115.4096    108.9354   7.4593325269e+01   3.7780658287e+01     0.381565    0.1367149 -38.83  0.001145819    3.374    0.704
        55  -9.8220     44.5548    105.2948   9.6518896059e+01   5.0321689847e+01    0.2942358    0.1487684  41.62    0.0012841    2.247    0.555
        56 -10.3637     32.9835    108.3899   1.0122870143e+02   5.0812795245e+01    0.3307149    0.1616752 -68.38  0.001440568    2.055    0.513
        57 -10.2780    140.5269    231.5593   9.2706211613e+01   5.9476844671e+00    0.2448419    0.1673333  41.72  0.001323269    1.336    0.251
        58  -9.5107     33.3635     88.0009   9.6682286867e+01   5.5561829941e+01     0.316736    0.1144981 -58.56  0.001251362    2.493    0.599
        59  -9.3048     55.0185    221.7128   1.1060400169e+02   2.0657257977e+01    0.2154381    0.1762195 -77.59 0.0006684386    1.233    0.189
        60  -7.8657    150.9821     82.9938   5.8587232475e+01   3.5101382585e+01    0.1752898    0.1684046  77.10 0.0003451801    1.009    0.009
        61 -11.1857    187.4792     53.5567   4.4327691513e+01   3.1312981463e+01    0.4895573    0.3989033  24.69  0.001336108    1.714    0.417
        62 -10.5795     57.4999    211.2557   1.0898644905e+02   2.2671275831e+01    0.6127277    0.3449655  27.89  0.003003928    1.962    0.490
        63 -11.7820    199.5458     44.3274   4.0518880335e+01   2.9848728911e+01    0.7619063    0.6826052 -83.36  0.003183165    1.075    0.070
        64 -11.9601    208.9299     35.5856   3.7459053051e+01   2.8910789036e+01    0.5723585    0.5322396 -76.78  0.001324023    1.192    0.161
        65  -8.9072     59.8229    218.4461   1.0920222808e+02   2.0754799338e+01     0.254723    0.1520161  83.55 0.0007050153    1.891    0.471
        66 -10.3995     32.6467     31.6173   7.9138983016e+01   6.6605474079e+01    0.3908314    0.1093385 -45.44  0.001485287    3.856    0.741
        67  -9.1819     62.9782    213.7653   1.0798809075e+02   2.1381683946e+01    0.2795059    0.2151681  39.02 0.0009471705    1.268    0.212
        68  -9.6584    126.1129    249.6592   9.8265454022e+01   4.8520100409e+00    0.2792147   0.09013471  41.07  0.001111002    2.585    0.613
        69  -9.4152     76.1312    245.7870   1.0838054560e+02   1.2826865166e+01    0.5608847      0.14832 -55.50  0.002118898    4.125    0.758
