#   1 NUMBER                 Running object number                                     
#   2 MAG_AUTO               Kron-like elliptical aperture magnitude                    [mag]
#   3 X_IMAGE                Object position along x                                    [pixel]
#   4 Y_IMAGE                Object position along y                                    [pixel]
#   5 X_WORLD                Barycenter position along world x axis                     [deg]
#   6 Y_WORLD                Barycenter position along world y axis                     [deg]
#   7 A_WORLD                Profile RMS along major axis (world units)                 [deg]
#   8 B_WORLD                Profile RMS along minor axis (world units)                 [deg]
#   9 THETA_WORLD            Position angle (CCW/world-x)                               [deg]
#  10 FWHM_WORLD             FWHM assuming a gaussian core                              [deg]
#  11 ELONGATION             A_IMAGE/B_IMAGE                                           
#  12 ELLIPTICITY            1 - B_IMAGE/A_IMAGE                                       
         1 -12.6809    158.4827     55.8307   7.4920979709e+01   3.7607120956e+01     1.388282     1.061013  25.50  0.004540885    1.549    0.355
         2 -12.9243    171.0417     40.4836   6.8738060447e+01   3.6722984191e+01    0.9727645    0.8616408 -14.44  0.004004398    1.333    0.250
         3 -13.2373    188.1251      8.6812   5.8858888712e+01   3.6284722617e+01     1.111168    0.8146624  66.04  0.004222458    1.202    0.168
         4 -11.7676    210.5154      3.1041   5.5461969646e+01   3.1968760092e+01     1.308273    0.2941377  73.87   0.00454469    4.590    0.782
         5  -9.8087    157.1079    199.7547   1.0964116285e+02   9.9505273831e+00    0.2410786     0.202961 -65.73  0.001284243    1.400    0.286
         6  -8.9595    167.9018    249.6370   1.1585669763e+02  -1.1593482738e+00    0.2293271    0.1833571 -49.27  0.001401798    1.490    0.329
         7  -9.5309    150.4288    249.0308   1.1929310987e+02   1.7484316080e+00    0.2500222    0.2199063 -44.87 0.0009805129    1.299    0.230
         8  -9.9904    133.4173    249.9933   1.2287600737e+02   4.3058324964e+00    0.2202343    0.2044016  36.69  0.001459264    1.066    0.062
         9 -14.2475     75.2344    249.0208   1.3430559913e+02   1.3250380347e+01    0.3266839    0.2862245  78.49  0.001224253    1.084    0.078
        10 -18.7184     53.1163    240.5193   1.3769920134e+02   1.7857893050e+01     4.882315     4.553488  79.39   0.02349241    1.217    0.178
        11  -9.7527    130.9046    214.8656   1.1813128264e+02   1.1483833571e+01    0.2686123    0.1996551 -65.63 0.0006371809    1.545    0.353
        12  -8.9006    153.9723    193.4689   1.0914943210e+02   1.1824039995e+01    0.3180629    0.1698307 -32.05  0.001138419    2.395    0.583
        13  -9.6017    169.7660    183.4473   1.0363566760e+02   1.0940118575e+01    0.5435935    0.3159471  65.35   0.00189441    3.457    0.711
        14 -10.5969    172.5087    189.6246   1.0428032978e+02   9.1657419735e+00    0.5224683    0.3575781  -8.69  0.002329242    2.001    0.500
        15  -9.2105    152.9155    186.8748   1.0810620457e+02   1.3408457281e+01    0.2257956    0.1986936  -6.76 0.0004790626    1.209    0.173
        16  -8.9389     18.2322    186.0638   1.3945222527e+02   3.3477660798e+01    0.2042137    0.1623619 -14.31 0.0008102171    1.839    0.456
        17  -9.3278    108.2025    184.5489   1.1820035156e+02   2.1981133246e+01    0.4863675    0.1808202  43.92  0.001742753    2.714    0.632
        18  -9.6555    167.8953    230.7311   1.1281748752e+02   2.1023365612e+00    0.2188486    0.1949581 -47.66 0.0004039186    1.283    0.221
        19 -10.2644    163.1451    203.3835   1.0898979487e+02   8.1224880582e+00    0.4024304     0.303791  84.34  0.001382929    2.108    0.526
        20  -9.7021    201.5411    170.0530   9.4113114254e+01   7.5659848865e+00    0.6180801    0.2838273 -55.25  0.002108531    3.356    0.702
        21 -10.1408    204.2746    166.3201   9.2771405558e+01   7.7685938461e+00     1.462227    0.3460914 -43.58  0.004225038    4.077    0.755
        22 -10.2701    137.4469    172.2265   1.0877405120e+02   1.9516875241e+01    0.4008751    0.3342691  68.29  0.001229921    1.405    0.288
        23  -9.3416    129.4934    175.8179   1.1141007504e+02   2.0198680948e+01    0.2800421    0.2094415  39.98 0.0007159471    1.334    0.250
        24  -9.1830    144.4798    175.4989   1.0777533776e+02   1.7458292129e+01    0.1491921    0.1442776  -2.66 0.0001990561    1.024    0.023
        25  -9.6563    124.8487    173.1523   1.1200679008e+02   2.1653273174e+01     0.302545     0.237821  25.15 0.0006413162    1.379    0.275
        26  -8.9279      5.2043    227.7543   1.4550005827e+02   2.5735884724e+01    0.2200774    0.1205766 -51.63  0.001285559    2.352    0.575
        27 -11.4309    194.0310    168.0770   9.5216305394e+01   9.3846162355e+00    0.7225558    0.4158919 -52.63  0.001933577    2.002    0.500
        28 -10.1526     18.3875    168.5616   1.3751761834e+02   3.7455983145e+01    0.5428917     0.257268 -79.65  0.002607242    2.077    0.518
        29 -10.6016     24.9330    166.4458   1.3571791477e+02   3.7348921252e+01    0.3323365    0.2532834   6.42  0.001188937    1.779    0.438
        30  -9.1832    243.0504    168.5418   8.6100059093e+01   4.4270037334e-01    0.2314379    0.1676092 -46.91 0.0004031102    1.411    0.291
        31  -9.5784    121.0590    165.2582   1.1134649179e+02   2.4147539614e+01    0.4487589    0.2851139  65.59  0.001715967    2.324    0.570
        32  -8.8707    140.6823    165.0052   1.0648888191e+02   2.0505061854e+01    0.2150846    0.1909347 -45.54 0.0004379524    1.121    0.108
        33  -9.1796    243.9759    163.8818   8.4993211737e+01   1.0972784480e+00    0.2000145    0.1746439 -21.74 0.0004132793    1.028    0.027
        34 -10.2238     36.3605    162.5841   1.3242243144e+02   3.7122741265e+01    0.4195613    0.2910276   1.43  0.002271281    2.087    0.521
        35 -11.2343     37.9220    156.7678   1.3119439388e+02   3.8329070645e+01    0.4972944    0.3805014  -3.61  0.001893629    1.744    0.427
        36  -8.8857    165.0917    160.9994   9.9919731815e+01   1.6551011121e+01    0.2211364    0.2152044  -8.24 0.0003038253    1.019    0.018
        37 -11.5071     24.1942    157.3020   1.3472617819e+02   3.9544150129e+01    0.5477464    0.3786655  64.39  0.001590647    1.641    0.391
        38 -10.4820     28.0971    152.0764   1.3302652194e+02   4.0403749082e+01    0.3916956    0.2572961  66.50  0.001908122    1.842    0.457
        39 -10.0341     27.1755    145.5195   1.3231486962e+02   4.2020696833e+01     0.278957    0.2420541 -73.05  0.001308202    1.065    0.061
        40 -10.8817     32.8383    142.4599   1.3034036293e+02   4.2202562334e+01    0.4358996    0.2842372  -9.34  0.002117724    2.203    0.546
        41 -10.9310     14.8585    152.1817   1.3638186447e+02   4.1533474183e+01    0.7387131    0.2894541 -55.53  0.001484157    2.060    0.514
        42  -9.1280    244.0227    159.0023   8.3985859809e+01   1.9389178951e+00     0.202503    0.1767405 -29.99 0.0003528837    1.029    0.029
        43  -8.3112    162.9466    237.3343   1.1492854311e+02   1.7505553751e+00    0.1835233    0.1557982  28.36 0.0005300717    1.048    0.046
        44 -10.2589    212.1298    156.7237   8.9179439187e+01   8.1090264992e+00    0.2473204    0.2325781 -22.01 0.0003388779    1.036    0.034
        45 -10.4083    133.8580    146.3084   1.0403150183e+02   2.6011418133e+01     1.326434    0.3348895 -53.19  0.003004286    6.119    0.837
        46  -9.5835      8.7178    149.8651   1.3761630553e+02   4.2543463645e+01    0.3386614    0.1825564 -46.79  0.001852513    1.810    0.447
        47 -10.1785      8.6363    145.8704   1.3714011655e+02   4.3464318037e+01    0.2631135    0.1956407 -63.31  0.001134773    1.092    0.085
        48  -9.4412    142.6757    144.1252   1.0135645346e+02   2.4732220415e+01    0.4536043    0.1809298 -57.31   0.00128012    4.080    0.755
        49 -10.5847    114.5131    138.2013   1.0712513417e+02   3.1550431523e+01    0.5720255    0.2663915 -41.74  0.002155556    2.187    0.543
        50  -8.5508     19.0937    142.2876   1.3396838692e+02   4.3474304573e+01    0.1618853    0.1482532 -80.76 0.0004033223    1.132    0.117
        51 -11.1068      5.8619    139.3232   1.3700989402e+02   4.5156762200e+01    0.4451436    0.3215321  66.87   0.00280279    1.609    0.378
        52  -8.5719    231.1717    139.1439   8.1969755215e+01   7.7596810529e+00    0.1903629      0.17005 -21.67 0.0002769131    1.098    0.089
        53  -9.1318    176.2691    231.9948   1.1129747660e+02   4.8030127510e-01    0.1834969    0.1665367  -4.59 0.0004338078    1.091    0.083
        54 -10.9433    104.2393    137.4647   1.0969813370e+02   3.3581822046e+01     0.279479    0.2639735  34.75 0.0004210392    1.101    0.092
        55  -8.0708    164.3071    133.6671   9.3806570201e+01   2.2463500539e+01    0.1542292     0.123049 -81.91 0.0003025534    1.667    0.400
        56  -7.8367    159.3499    138.2746   9.6032036375e+01   2.2548123478e+01    0.1558847    0.1204464   6.20 0.0007002719    1.634    0.388
        57 -10.5181    135.2742    123.5371   9.8217558359e+01   3.0696255699e+01    0.8552961    0.2041873 -46.38  0.002283393    4.266    0.766
        58  -9.5109    160.0608    128.5511   9.3531576206e+01   2.4424906228e+01    0.4284023    0.2212156 -45.30  0.001695554    1.921    0.479
        59 -10.4133    119.3245    129.1012   1.0369542225e+02   3.2674973837e+01    0.4579199    0.2805087 -26.49  0.001569485    2.109    0.526
        60 -10.8610     32.6936    127.2005   1.2781815084e+02   4.5759004440e+01    0.3462588     0.287522  52.36   0.00119656    1.435    0.303
        61  -9.7099    107.7971    125.0961   1.0581027869e+02   3.5728885126e+01    0.2974325     0.233528 -26.74 0.0005678069    1.343    0.256
        62 -11.2005      2.2727    123.8689   1.3586534673e+02   4.8882335755e+01      0.54229    0.1886301 -70.05  0.002376856    2.507    0.601
        63 -10.3781      2.8715    116.9338   1.3467562612e+02   5.0390939957e+01    0.2263064    0.2176236 -59.70   0.00107089    1.215    0.177
        64 -10.6780     23.5580    127.8912   1.3053961939e+02   4.6418823095e+01    0.4278039    0.2510937 -40.08  0.001352655    1.675    0.403
        65 -10.5292     36.5962    119.1382   1.2517409531e+02   4.7223463330e+01    0.2788956    0.2026607 -45.53  0.001106329    1.191    0.160
        66  -8.9464    113.2585    118.9354   1.0279331539e+02   3.6054800559e+01    0.2481672    0.2138639  33.44  0.000446037    1.182    0.154
        67 -10.0953     72.2165    117.3686   1.1412064539e+02   4.3306279763e+01    0.2773708    0.1966286  49.92  0.001393865    1.705    0.414
        68 -11.0643     71.8752    112.3686   1.1303192538e+02   4.4464485115e+01    0.4893776    0.3540698  -8.37  0.002466647    1.672    0.402
        69  -8.3652    168.0112    113.7134   8.8104080157e+01   2.5672927903e+01    0.3135519    0.1862772 -64.32   0.00117184    2.625    0.619
        70 -10.5146     91.8303    110.6820   1.0669665545e+02   4.1695757283e+01    0.5922572    0.2470916 -39.42  0.001715288    2.489    0.598
        71 -11.6611     61.0783    109.2577   1.1557720489e+02   4.6632712067e+01    0.5266895    0.4891908  85.17  0.003197893    1.321    0.243
        72 -10.8975     65.5084    104.9949   1.1317118162e+02   4.6965185186e+01    0.5471373    0.3151648  15.52  0.002455974    2.253    0.556
        73  -9.1594     46.0330    113.4744   1.2116059099e+02   4.7512249672e+01    0.1851393    0.1323559  22.45 0.0008287205    1.574    0.365
        74 -10.8153     31.3187    111.9539   1.2535381958e+02   4.9342336830e+01     0.619305    0.2330498  15.44  0.002362948    4.026    0.752
        75  -8.6783    141.1359    199.2069   1.1312966505e+02   1.2959189439e+01    0.2712715    0.1929047 -83.15  0.001219872    2.131    0.531
        76  -9.0352     64.6343    100.0833   1.1220624077e+02   4.8131067963e+01    0.2286276    0.1882574  39.36 0.0009563254    1.387    0.279
        77  -8.8474    113.3129     95.0830   9.6433558537e+01   4.0934457219e+01    0.2049229    0.1836957 -27.92 0.0004260624    1.092    0.084
        78  -8.6780    172.5289     91.9868   8.1679499125e+01   2.8687334448e+01    0.2109077    0.1854415  52.94 0.0001166903    1.132    0.117
        79  -9.4184    228.5730     83.8940   7.0407250062e+01   1.7763376558e+01    0.2093741    0.1783599  77.68  0.000415595    1.206    0.171
        80  -8.3983    147.4876     81.4797   8.4171580182e+01   3.6151114605e+01    0.1439874    0.1385435  31.56 0.0001138482    1.012    0.011
        81  -8.4588    115.1371     74.1382   8.9910152073e+01   4.4349757747e+01    0.2067748    0.1760429  14.62 0.0003309467    1.170    0.145
        82 -11.9690    237.4802    245.9878   1.0180764223e+02  -1.1040773002e+01    0.2351879    0.2007965   3.27 0.0003767042    1.179    0.152
        83 -11.4939    175.3000     33.3101   6.6294323483e+01   3.6599942960e+01    0.3612595    0.3511286  -2.70 0.0009696793    1.213    0.176
        84 -10.6397    187.8863    243.7675   1.1091612685e+02  -3.3797174411e+00    0.4055554    0.2052811 -44.00 0.0008979905    2.201    0.546
        85 -10.2607    128.0473     51.9562   8.0106856237e+01   4.4975611353e+01    0.2045881    0.1868916  35.11            0    1.006    0.006
        86  -9.1880    223.7629     35.1385   6.0681785456e+01   2.5665018807e+01    0.2681466    0.1644782 -36.83  0.001534015    1.703    0.413
        87  -9.9293    170.1980     19.1380   6.3512053183e+01   3.9281095493e+01    0.3025783    0.1968059  45.62  0.001720314    1.591    0.371
        88  -8.4082    150.0612    240.7226   1.1812335814e+02   3.2723304357e+00    0.1807006    0.1571002  30.68 0.0003599609    1.029    0.029
