#   1 NUMBER                 Running object number                                     
#   2 MAG_AUTO               Kron-like elliptical aperture magnitude                    [mag]
#   3 X_IMAGE                Object position along x                                    [pixel]
#   4 Y_IMAGE                Object position along y                                    [pixel]
#   5 X_WORLD                Barycenter position along world x axis                     [deg]
#   6 Y_WORLD                Barycenter position along world y axis                     [deg]
#   7 A_WORLD                Profile RMS along major axis (world units)                 [deg]
#   8 B_WORLD                Profile RMS along minor axis (world units)                 [deg]
#   9 THETA_WORLD            Position angle (CCW/world-x)                               [deg]
#  10 FWHM_WORLD             FWHM assuming a gaussian core                              [deg]
#  11 ELONGATION             A_IMAGE/B_IMAGE                                           
#  12 ELLIPTICITY            1 - B_IMAGE/A_IMAGE                                       
         1 -12.1692    162.9662     46.3989   7.8881723947e+01   3.8765947858e+01     1.152268    0.9777707  21.88  0.004226826    1.356    0.263
         2 -11.2425    177.1822     18.1248   6.8516138574e+01   3.8767095295e+01    0.8828045    0.4867099  69.73  0.004276067    1.632    0.387
         3 -11.6223    177.5845     11.9870   6.6808416880e+01   3.9314759372e+01    0.8205894    0.4213588  67.42  0.003953162    1.677    0.404
         4  -8.9853    233.2375     10.9882   6.0333433595e+01   2.6094719429e+01     0.269848    0.1954958 -30.70  0.001347348    1.654    0.395
         5  -9.4525    119.3419      9.8634   7.6165660360e+01   5.3276839767e+01    0.5515744    0.2856351  36.77  0.002580817    1.909    0.476
         6  -9.2388    205.4554      5.6705   6.1871375822e+01   3.3190213883e+01    0.2086672    0.1157157 -38.50 0.0006919958    1.877    0.467
         7  -9.3865    110.6417    185.1344   1.2539352507e+02   2.1527792600e+01    0.4535145    0.2956294  69.65  0.002142753    1.754    0.430
         8  -9.6193    135.8774    237.9616   1.2786873425e+02   6.4239663311e+00    0.8428791    0.3340866 -67.57  0.002702311    5.801    0.828
         9  -9.6915    134.7734    242.9174   1.2872719657e+02   5.7453246193e+00     0.417247    0.2376204 -39.60  0.001285294    2.602    0.616
        10  -8.8497    139.0130    243.6803   1.2801874545e+02   4.8880628302e+00    0.3679928    0.1745334 -54.95   0.00148372    2.509    0.601
        11  -8.4835    127.1210    250.4521   1.3109650078e+02   5.7412868113e+00    0.1691054     0.118356  48.30  0.000340809    1.169    0.145
        12 -13.8334    102.8797    243.3005   1.3477171275e+02   1.0955579262e+01     0.978232    0.3360287 -62.00  0.004228487    3.301    0.697
        13 -18.4807     67.1380    232.9990   1.4029512971e+02   1.8278304868e+01     4.654112      3.63311  88.03   0.01246272    1.145    0.127
        14  -7.9774    216.6538    186.6845   1.0295281298e+02   5.1545251260e-01    0.1470963    0.1048964   6.90 0.0007047853    1.720    0.418
        15  -9.2945      9.8247    224.6343   1.4961616507e+02   2.6831110509e+01    0.2872804    0.1163772 -75.02 0.0009534585    2.025    0.506
        16  -8.7065     10.3189    220.6886   1.4929141650e+02   2.7555651590e+01    0.1526706    0.1041846  71.70 0.0007810682    1.121    0.108
        17  -9.2228    195.9654    183.7829   1.0649269472e+02   5.0944577313e+00     0.322538    0.2011164 -31.15  0.001462997    1.807    0.446
        18  -9.1712    164.6144    180.9491   1.1256887127e+02   1.2025879654e+01    0.3759995    0.2644356 -89.44  0.001052732    2.176    0.541
        19  -9.8746    139.5932    180.3598   1.1801971420e+02   1.7173374328e+01    0.5472828    0.3413643  68.81  0.001463933    2.147    0.534
        20  -8.8011    212.3739    178.4512   1.0210881596e+02   2.8126016477e+00    0.3570635    0.1711014 -47.64  0.001439235    2.327    0.570
        21  -8.5675    222.3992    178.7330   1.0022381952e+02   8.0997847935e-01     0.192797     0.129109 -27.53 0.0007146666    1.549    0.355
        22 -10.0226    204.7085    176.6852   1.0326679326e+02   4.6660926831e+00    0.3483447    0.3396302  34.22 0.0009658231    1.079    0.073
        23  -9.2016    197.3528    177.4019   1.0490764591e+02   6.0206180089e+00    0.2979868    0.2324741  61.57  0.001500984    1.484    0.326
        24  -9.8195    126.4593    173.2501   1.1971019434e+02   2.1288553560e+01    0.5350865     0.280758  50.05  0.002237726    1.891    0.471
        25  -8.7607    121.6562    172.2052   1.2063579487e+02   2.2433179053e+01    0.2698493    0.2059887  72.08 0.0005011794    1.405    0.288
        26  -9.6946    136.4352    170.6360   1.1690225354e+02   1.9933714997e+01    0.4802766    0.2499341  55.05  0.001896253    2.123    0.529
        27  -8.8698    200.3195    168.5310   1.0243936776e+02   7.1099893191e+00    0.2884753    0.2203562 -70.14  0.001370808    1.752    0.429
        28 -10.0439    193.5987    167.0448   1.0350545877e+02   8.8030837358e+00    0.4749185    0.3210222 -47.56 0.0007439004    1.542    0.351
        29  -9.4547    190.4828    162.0009   1.0306801373e+02   1.0464947990e+01     0.430348    0.3500731 -35.61  0.001767306    1.258    0.205
        30  -9.9262     18.6642    167.1696   1.4349282312e+02   3.8058500201e+01    0.3533826     0.227234 -87.13  0.000903272    1.272    0.214
        31  -8.9782    204.2477    164.2600   1.0072538256e+02   7.1145312751e+00    0.7039154    0.2349309 -47.77  0.002227756    3.427    0.708
        32  -8.7463    141.3770    164.9714   1.1463453058e+02   2.0204605698e+01    0.2661838    0.2004302  64.84 0.0004996024    1.434    0.303
        33  -8.9662    153.1347    201.6541   1.1885033580e+02   1.0108752875e+01    0.4664156    0.2581593 -64.80  0.001943708    2.490    0.598
        34  -9.0077     21.1356    162.7684   1.4251178970e+02   3.8815710448e+01     0.210949     0.188094 -18.14 0.0009364802    1.642    0.391
        35  -8.8043     17.2048    159.8357   1.4306688421e+02   3.9827909479e+01    0.2144784    0.1385345 -76.23 0.0006527468    1.209    0.173
        36  -8.3417     18.0292    155.6945   1.4244799712e+02   4.0685302880e+01    0.2181696    0.1425942 -77.04 0.0009504542    1.199    0.166
        37  -9.4786    147.0276    158.6768   1.1201596419e+02   2.0443384693e+01    0.4560842    0.3002157  34.37  0.001523129    1.679    0.404
        38 -10.1578    142.2089    154.4178   1.1224614705e+02   2.2396589511e+01    0.4862041    0.3948745 -72.25  0.001647246    1.334    0.250
        39  -9.0731    158.4764    157.3304   1.0908043175e+02   1.8322570276e+01    0.3144816    0.2463762  82.67 0.0001956387    1.575    0.365
        40  -8.9461    190.1557    155.4379   1.0169155897e+02   1.1856617340e+01    0.4516745    0.3261934 -83.95   0.00192731    2.130    0.530
        41  -9.4495    122.4738    156.7358   1.1747264007e+02   2.5819091248e+01     0.283554    0.2677507  84.91 0.0007302699    1.006    0.006
        42  -8.0718     22.8674    156.9328   1.4149732067e+02   3.9971770571e+01    0.1750423    0.1350552 -66.52  0.000412431    1.195    0.164
        43  -9.3291      9.1299    153.8290   1.4423143920e+02   4.1843026990e+01    0.4199109    0.2242362 -31.17  0.002050663    3.553    0.719
        44 -10.5651    125.0027    143.1874   1.1400760845e+02   2.8455076715e+01    0.5192934    0.4127412 -59.07  0.002581253    1.245    0.197
        45 -11.3991    133.5636    146.7366   1.1266840023e+02   2.5917276952e+01    0.9990889    0.5724156 -67.43  0.003655843    2.367    0.578
        46 -10.2799    131.1456    139.9608   1.1176012919e+02   2.7959903577e+01    0.5539486    0.2784435  55.27  0.002044399    2.355    0.575
        47  -9.8333    147.6670    151.5047   1.1032400617e+02   2.1905974632e+01    0.4265125    0.2908903 -74.44  0.001487017    1.963    0.491
        48  -9.8400    143.8421    146.0039   1.1001706380e+02   2.3946596631e+01    0.4441607     0.265543 -63.62  0.001762528    2.064    0.515
        49  -9.9019    128.5470    153.4702   1.1532857934e+02   2.5384574399e+01    0.5702151    0.2525882  53.26  0.001343225    2.622    0.619
        50  -8.1718    139.4505    145.9340   1.1105955120e+02   2.4884702286e+01    0.2146434     0.134608 -74.52 0.0008059966    2.381    0.580
        51  -8.1025    141.4967    199.8717   1.2103393566e+02   1.2688901514e+01    0.2504681    0.1767185 -72.07 0.0006765481    1.682    0.406
        52  -8.7114     13.9007    144.3076   1.4213523751e+02   4.3593420783e+01    0.3187121    0.1935976 -16.38  0.001690919    3.049    0.672
        53  -8.4685    185.0436    141.1239   9.9509635578e+01   1.5916008719e+01    0.2207181     0.217855 -28.13 0.0003366059    1.023    0.023
        54  -8.7986    137.0552    201.3710   1.2223450248e+02   1.3217756257e+01    0.4375809    0.1911124  36.33  0.001686897    2.504    0.601
        55 -10.7185     46.7660    136.7442   1.3300368504e+02   4.2211255099e+01     0.489042    0.2668134  15.53  0.002241764    2.977    0.664
        56 -10.0383    231.2909    134.2837   8.8888016337e+01   7.0826108330e+00    0.2524811    0.2478917  79.93 0.0002748967    1.096    0.088
        57  -9.3266    136.3701    197.2079   1.2169490691e+02   1.4206758634e+01    0.3198893    0.2352255 -74.90 0.0006920209    1.557    0.358
        58 -10.1829    172.1937    197.0308   1.1399618632e+02   7.3031974149e+00     0.486976    0.3103191 -65.37  0.001363595    2.182    0.542
        59  -7.2317    161.2733    200.2680   1.1688365569e+02   8.8095652951e+00    0.1320492    0.1097294   9.53  0.000686973    1.477    0.323
        60  -9.1914    121.0753    128.6802   1.1171798545e+02   3.2572206090e+01    0.2097268     0.201822  46.39 0.0005930968    1.081    0.075
        61  -9.9285    177.5725    221.8252   1.1722465190e+02   1.7635114761e+00    0.2994049    0.1342502 -48.50  0.001292096    2.600    0.615
        62  -9.4337    110.0954    124.0415   1.1351225787e+02   3.5755040103e+01    0.2726114     0.231597 -50.99 0.0005072162    1.132    0.117
        63  -9.6252     47.3498    124.9480   1.3087632572e+02   4.4891350458e+01    0.2851109    0.1679242  50.46  0.001464419    2.002    0.501
        64  -9.3483     85.0179    123.7408   1.2025906120e+02   4.0152639518e+01    0.1951012    0.1869346  60.34 0.0005887981    1.116    0.104
        65  -9.6119     39.9783    123.3491   1.3260699642e+02   4.6038700439e+01    0.2704397    0.2331366 -52.00  0.001768325    1.149    0.130
        66  -8.5100      1.3251    198.0190   1.4938613522e+02   3.2984747185e+01    0.1607637   0.07665221 -76.43 0.0004803144    1.624    0.384
        67  -8.7444    131.4820    234.0003   1.2819623835e+02   7.8957001575e+00    0.2067043    0.1615042  40.24  0.000464497    1.247    0.198
        68  -8.7626    114.8680    118.1639   1.1082233029e+02   3.6182005750e+01    0.2272861    0.2015852 -89.47 0.0004683626    1.230    0.187
        69 -10.0939    156.3931    192.1962   1.1648029891e+02   1.1373795672e+01    0.7989157    0.4251335 -71.84  0.002626422    4.044    0.753
        70  -8.9153    249.2699    115.6378   8.1704111271e+01   6.6846653936e+00    0.2356717    0.2116232 -33.37 0.0002607321    1.082    0.076
        71 -11.4493     11.5361    207.1479   1.4819186311e+02   3.0158365849e+01    0.5234554    0.3593594  46.85  0.002309393    1.558    0.358
        72  -7.7822    234.6834    115.3060   8.3958329009e+01   9.8183552528e+00    0.1477391    0.1098346 -70.85 0.0003528927    1.628    0.386
        73  -9.7117    100.5831    113.3206   1.1352679700e+02   3.9936725130e+01    0.4664445    0.3074333 -82.95  0.001906691    2.450    0.592
        74  -8.1766     17.4614    200.4777   1.4663535509e+02   3.0953450648e+01    0.1446437    0.1151976 -64.14  0.001037334    1.493    0.330
        75 -11.4026     63.9590    108.8764   1.2298838620e+02   4.6595438806e+01    0.7911927     0.550751  24.99  0.002976541    1.701    0.412
        76 -10.0387     72.1854    104.2827   1.1950895655e+02   4.6512727616e+01     0.531037     0.190502  39.38  0.001823385    3.017    0.669
        77  -9.8914    105.9386    105.2425   1.0999152379e+02   4.0757704197e+01    0.3410098    0.2390118  56.16  0.001486141    1.646    0.393
        78  -8.2494     46.0291    105.5786   1.2757812431e+02   4.9455608336e+01    0.1719537    0.1277595  29.80 0.0007786545    1.578    0.366
        79  -9.2215     38.5437    103.6334   1.2940964288e+02   5.0649857605e+01    0.2235932    0.1597786  32.58  0.001342649    1.654    0.395
        80  -9.2010     32.9844     98.0501   1.2997083456e+02   5.2399910687e+01    0.3198093    0.1425164 -53.91  0.001583323    1.758    0.431
        81  -7.3625    203.2927     93.3694   8.4101688951e+01   2.1037187806e+01    0.1527617    0.1218776   8.08  0.000702641    1.721    0.419
        82  -8.8639     23.3360     87.9059   1.3091394558e+02   5.5390210377e+01    0.3138191    0.2790456  -5.21  0.002264821    1.315    0.239
        83  -9.0020    173.8873    189.8880   1.1229994876e+02   8.3544908917e+00    0.3236356    0.1936145  48.01 0.0009558043    1.601    0.375
        84  -7.7573    149.8335     74.1366   8.9808330678e+01   3.7543550118e+01    0.1990058    0.1749878  15.91 0.0002938372    1.264    0.209
        85  -8.3686    187.1015     71.3605   8.1331893877e+01   2.8884336644e+01    0.2200928    0.1995204 -25.40 0.0004286552    1.222    0.182
        86  -8.8532    128.4009    190.1817   1.2226170613e+02   1.7190748659e+01    0.2530122    0.1857845  56.29  0.001192004    1.293    0.227
        87 -10.2714    148.9842     65.5439   8.7466731878e+01   3.9221522097e+01     0.502078    0.2883357  57.52  0.002156224    1.745    0.427
        88 -11.1975    151.8745     60.2254   8.5239185031e+01   3.9396016848e+01    0.4899246    0.4560649  54.04  0.001336474    1.025    0.024
        89  -9.7668    242.4954     59.5135   7.0001227869e+01   1.7472221184e+01    0.2423848     0.225006 -82.87 0.0005581428    1.121    0.108
        90  -8.7107    128.0271     58.4682   9.0290563991e+01   4.5219490988e+01    0.2537456    0.2102654 -29.85  0.001364429    1.243    0.195
        91  -8.5997    247.0668     55.3118   6.8518883126e+01   1.7081389384e+01    0.2138698    0.1824836 -35.90  0.000614327    1.309    0.236
        92  -8.3986    164.9111    249.5757   1.2390819205e+02  -5.3188244200e-01    0.2565458    0.1036348  39.84 0.0008136869    2.101    0.524
        93 -10.5917    167.5063     37.3937   7.5443300288e+01   3.8864894270e+01    0.4052628     0.395224  42.41 0.0007744548    1.111    0.100
        94 -10.3287    138.8303     35.1418   8.0337934127e+01   4.6093077499e+01    0.2288998    0.2234586 -17.67 0.0003017986    1.115    0.103
        95 -10.3124    173.4530    204.4261   1.1507257431e+02   5.6567409869e+00     0.269224    0.2458542  43.30 0.0001157515    1.015    0.015
        96  -8.8498    198.4813    246.4943   1.1714748676e+02  -5.7850685007e+00    0.1258026    0.1035693  31.47 4.373116e-05    1.014    0.014
        97 -10.3979    169.8372    241.6482   1.2183723684e+02  -1.3503661889e-01    0.3979563    0.1952479  50.48  0.001892618    1.936    0.484
        98  -8.0371    150.9163    240.6965   1.2533811300e+02   3.3337156335e+00    0.1750435    0.1404941  49.10 0.0002814662    1.040    0.039
