#   1 NUMBER                 Running object number                                     
#   2 MAG_AUTO               Kron-like elliptical aperture magnitude                    [mag]
#   3 X_IMAGE                Object position along x                                    [pixel]
#   4 Y_IMAGE                Object position along y                                    [pixel]
#   5 X_WORLD                Barycenter position along world x axis                     [deg]
#   6 Y_WORLD                Barycenter position along world y axis                     [deg]
#   7 A_WORLD                Profile RMS along major axis (world units)                 [deg]
#   8 B_WORLD                Profile RMS along minor axis (world units)                 [deg]
#   9 THETA_WORLD            Position angle (CCW/world-x)                               [deg]
#  10 FWHM_WORLD             FWHM assuming a gaussian core                              [deg]
#  11 ELONGATION             A_IMAGE/B_IMAGE                                           
#  12 ELLIPTICITY            1 - B_IMAGE/A_IMAGE                                       
         1 -12.9574    195.8562     31.3651   6.6696111678e+01   3.2659412311e+01     1.163337    0.9931974  64.53  0.007065633    1.174    0.148
         2 -13.5300    209.8028     13.7534   6.0906244940e+01   3.1417407059e+01     1.284404    0.9423257  41.35  0.007491763    1.814    0.449
         3 -11.5071      2.1095     12.7940   1.1456760552e+02   7.0881432683e+01    0.6173042    0.1027955 -46.05  0.002434188    4.732    0.789
         4 -10.0627     14.8385     12.8214   1.0855452972e+02   6.9862264681e+01    0.1322282     0.112391  -8.66 0.0005255779    1.337    0.252
         5 -11.4069    138.8619    244.9417   1.2543938868e+02   4.1463291995e+00    0.3544307    0.1919371  52.59  0.001768185    1.714    0.417
         6 -11.6119    137.1911    249.4667   1.2636484650e+02   3.6371225590e+00     0.685837    0.1883277  47.23  0.002480477    3.223    0.690
         7 -11.9241    127.6399    245.3410   1.2769222347e+02   5.9814904106e+00    0.4899022     0.343989 -45.69  0.002826062    1.793    0.442
         8 -10.8938     65.2652    248.8801   1.3984705607e+02   1.5034888084e+01    0.2630503    0.1882495  78.39  0.001738745    1.172    0.147
         9 -13.1063     31.8687    246.5720   1.4548764630e+02   1.9812342363e+01     1.215245    0.6355848  40.03  0.007338522    1.980    0.495
        10 -14.9298      7.6243    245.5856   1.4940283979e+02   2.2714989924e+01     17.32216     1.358814 -75.91   0.03913799   14.118    0.929
        11 -12.3930     34.8481    228.8361   1.4366973684e+02   2.2978348284e+01    0.3056418    0.2482192 -72.45 0.0007828434    1.408    0.290
        12 -15.0062     51.8502    210.3518   1.3876674724e+02   2.4772692523e+01     11.28088     4.756944  72.21   0.04269375    3.635    0.725
        13  -8.6056    152.5252    213.0013   1.1783941411e+02   7.6858497987e+00    0.1869154    0.1403398 -52.23 3.607375e-05    1.458    0.314
        14  -8.5839    180.3076    232.6527   1.1536540514e+02  -9.6476940190e-01    0.1291292    0.1019944  72.69 0.0007043524    1.703    0.413
        15  -9.7451    193.3494    195.7896   1.0612850791e+02   3.2285743660e+00    0.6650247    0.3123492 -62.99   0.00159832    7.853    0.873
        16 -11.3368     61.6637    195.5548   1.3507903660e+02   2.6768609337e+01    0.3563276    0.2457028 -48.39  0.001501086    1.789    0.441
        17  -8.4257    112.6269    193.7019   1.2343681593e+02   1.9129054585e+01    0.1387633    0.1160348  -5.42 0.0007028204    1.744    0.427
        18  -8.8397     75.6720    190.5921   1.3134796857e+02   2.5906523678e+01    0.1819697    0.1152068  53.36  0.000711875    1.516    0.340
        19 -11.6091     67.9246    187.8063   1.3271770809e+02   2.7679333435e+01    0.3168067    0.2918476 -23.59 0.0007690129    1.507    0.337
        20  -9.0116    120.5053    188.2966   1.2073576792e+02   1.8920291276e+01    0.2459083    0.1765765  21.33  0.001142324    1.894    0.472
        21 -10.8585    141.1178    231.1768   1.2305799487e+02   6.2621693968e+00    0.2927925    0.1746588  33.30  0.001284351    1.742    0.426
        22 -10.6880     77.5907    175.7639   1.2876758874e+02   2.9096462192e+01    0.2623713    0.2221695 -68.15 0.0004812363    1.138    0.121
        23 -12.9131     64.3984    173.5229   1.3156962510e+02   3.1531557871e+01    0.5120811    0.2791364 -45.60  0.001421135    2.236    0.553
        24 -11.6131     85.2304    166.6905   1.2546055714e+02   3.0083320802e+01    0.6445849     0.567441  70.35  0.003693413    1.099    0.090
        25 -10.5298    163.2814    247.8780   1.2106609828e+02  -5.4183171774e-01    0.2436692    0.2009119 -59.78   0.00153161    1.479    0.324
        26  -9.6937     97.8843    150.9099   1.1936552838e+02   3.1787029312e+01    0.2934256    0.2342357 -54.25 0.0007417591    1.213    0.176
        27  -8.9627    100.9651    147.0035   1.1777708546e+02   3.2186848414e+01    0.2261567    0.1798582 -22.66  0.000497682    1.639    0.390
        28 -11.8578     86.4762    150.0808   1.2217061793e+02   3.3891112025e+01    0.3047658    0.2512471 -44.32 0.0008455053    1.293    0.226
        29 -12.1417     67.5881    143.8462   1.2599781833e+02   3.8228687739e+01    0.7611219    0.5116569  71.36  0.002574684    1.821    0.451
        30 -11.4989     57.3508    132.1453   1.2664099080e+02   4.2389238650e+01     1.173027    0.4348817 -73.55  0.003102442    5.944    0.832
        31  -8.5731    134.4458    148.5167   1.0956891956e+02   2.5380988190e+01    0.1568755    0.1470534 -89.20 0.0001005654    1.059    0.055
        32  -8.4355    192.1608    144.1839   9.5390091425e+01   1.3775615323e+01    0.2038112     0.176995 -76.84 0.0003949375    1.294    0.227
        33  -9.4863    109.6983    136.4649   1.1321241214e+02   3.3105670058e+01    0.3263967    0.2422629 -10.94  0.001435477    2.028    0.507
        34 -10.6629    149.6803    229.9933   1.2113351645e+02   4.9592859205e+00    0.2508666     0.185222  22.00 0.0009888399    1.613    0.380
        35 -10.2811     96.7529    133.6378   1.1606044975e+02   3.6120888703e+01    0.2752134    0.2382622 -34.50 0.0007599048    1.250    0.200
        36 -13.7823     41.3618    220.5111   1.4177382529e+02   2.3918135245e+01    0.9281296    0.6599413  60.10  0.004465571    1.223    0.182
        37 -10.4041     50.1223    129.8583   1.2823304329e+02   4.3806909003e+01    0.2589346    0.2152777  67.67 0.0007006736    1.326    0.246
        38  -9.2619     33.3334    127.3270   1.3246297197e+02   4.6184538130e+01    0.1337667   0.08384264 -40.57 -0.0002419657    1.716    0.417
        39  -8.8958    106.8226    123.3358   1.1093597330e+02   3.6717576119e+01    0.1935034     0.186538  28.63 0.0003351093    1.104    0.095
        40 -10.3135    168.0196    113.0811   9.3003176724e+01   2.5761190056e+01    0.3730016    0.2892465 -84.08 0.0007391658    1.599    0.375
        41  -8.6480    203.4569    111.5200   8.5396462723e+01   1.7769202025e+01    0.1500652    0.1446269 -52.32 0.0002364502    1.050    0.048
        42 -14.8555      9.1963    207.1532   1.4673813445e+02   3.0291211258e+01     4.961003     1.234236 -73.11   0.01634847    3.144    0.682
        43  -9.9113    120.4140    239.1896   1.2832754809e+02   8.3353533591e+00    0.1718293    0.1197977 -80.13 0.0008022101    1.681    0.405
        44  -9.2245    157.5457     77.4937   8.5731542028e+01   3.5135562755e+01    0.1496035     0.144297  77.84 0.0001005889    1.009    0.009
        45 -10.0275    249.6190    249.2304   1.0512795012e+02  -1.4385288397e+01    0.1836184    0.1344858  22.47  0.001241201    1.169    0.145
        46  -9.9826    242.9863    249.4905   1.0634028959e+02  -1.3492021949e+01    0.1508528   0.09724546  53.37 0.0008103977    2.546    0.607
        47 -11.8949     51.3188    236.1166   1.4126824363e+02   1.9432905354e+01    0.4271269    0.2630762  73.16  0.001768299    1.398    0.285
