#   1 NUMBER                 Running object number                                     
#   2 MAG_AUTO               Kron-like elliptical aperture magnitude                    [mag]
#   3 X_IMAGE                Object position along x                                    [pixel]
#   4 Y_IMAGE                Object position along y                                    [pixel]
#   5 X_WORLD                Barycenter position along world x axis                     [deg]
#   6 Y_WORLD                Barycenter position along world y axis                     [deg]
#   7 A_WORLD                Profile RMS along major axis (world units)                 [deg]
#   8 B_WORLD                Profile RMS along minor axis (world units)                 [deg]
#   9 THETA_WORLD            Position angle (CCW/world-x)                               [deg]
#  10 FWHM_WORLD             FWHM assuming a gaussian core                              [deg]
#  11 ELONGATION             A_IMAGE/B_IMAGE                                           
#  12 ELLIPTICITY            1 - B_IMAGE/A_IMAGE                                       
         1 -15.6499    193.8208    193.1156   3.2767966094e+01   7.2876956716e+00     7.132668     3.794043  53.04   0.02938619    4.194    0.762
         2 -15.7902    236.4174    132.5652   1.4663587227e+01   1.0527531259e+01     1.988265    0.6584684 -28.41  0.007230122    3.896    0.743
         3 -15.8013    163.8411    117.9087   2.3514644213e+01   2.5624594993e+01     6.112573     4.645759  -7.92   0.02219162    1.688    0.408
         4 -15.9785    203.8157    120.8411   1.6974794499e+01   1.7559737219e+01     4.594629     2.410427 -27.29   0.02114226    2.065    0.516
         5 -16.5806    246.9138    113.0876   9.5310072526e+00   1.1779818546e+01     4.901065     2.185115 -54.83   0.01681515    3.602    0.722
         6 -17.8070    241.7343    140.1433   1.5417374257e+01   8.6849532669e+00     4.654316     3.132366 -14.78   0.02107255    1.500    0.334
         7 -13.6596    200.2375     16.0038   3.5240025957e+02   3.3329544953e+01     4.150887     1.079818 -60.91   0.01222738    5.777    0.827
         8 -12.0324    229.3827     30.4874   3.5378598526e+02   2.5742307693e+01    0.3625182    0.2219471 -57.40  0.002238856    1.343    0.255
         9 -14.3221    232.5168      7.7458   3.4868908412e+02   2.7625846987e+01     2.853694     1.207593  86.43   0.01532807    2.469    0.595
        10 -10.4925    247.5104     38.1480   3.5422516437e+02   2.1535392835e+01    0.2557096    0.1502947  68.63  0.001066731    2.030    0.507
        11 -11.3730    180.6259    209.8718   3.7991346626e+01   6.4326763278e+00    0.3110791    0.2109452 -49.26   0.00174892    1.888    0.470
        12 -10.3628    222.8392    213.6335   3.1087535371e+01   8.5548164733e-01    0.1921101    0.1478769  -7.34 0.0003939389    1.064    0.060
        13 -11.2050     12.1969    206.6040   7.7630841990e+01   2.8174163964e+01    0.3930027    0.1841286   9.29  0.001740394    2.914    0.657
        14 -10.9622    228.0008    203.7992   2.8696125823e+01   1.5678215039e+00    0.2391025     0.181972 -38.28  0.001052036    1.599    0.375
        15 -11.0862    175.6806    222.1832   4.0811490188e+01   5.1933702646e+00    0.2251434    0.1973825  30.97 0.0009035931    1.402    0.287
        16  -9.6071    169.4579    209.9319   4.0199743487e+01   7.8831082956e+00    0.1755238    0.1152768 -37.77  0.001023165    1.573    0.364
        17 -11.4470    171.5827    198.0572   3.7884324101e+01   9.5311403703e+00    0.4526463    0.3649385  84.11  0.002512688    2.394    0.582
        18  -9.6629     67.9882    226.7592   6.5216705320e+01   1.8107067588e+01    0.1830216    0.1735499  63.90 0.0004865589    1.186    0.157
        19 -10.0632     12.9680    200.2866   7.7176842977e+01   2.9524149529e+01     0.176044    0.1401276  42.64 0.0003809328    1.108    0.097
        20 -10.1018    161.8059    196.8394   3.9696625326e+01   1.1115124879e+01    0.1989768    0.1578793  -4.68 0.0005052009    1.195    0.163
        21 -10.4464    150.9095    196.1938   4.1926594274e+01   1.2800282320e+01    0.1936075     0.170017  38.31 0.0006061124    1.255    0.203
        22 -10.3339    193.8493    223.9823   3.7665154112e+01   2.7516623432e+00    0.2853487    0.1861615  -0.32  0.001043687    1.405    0.288
        23 -10.4599     12.9980    189.8425   7.6704225338e+01   3.1938224939e+01    0.2010551    0.1420483 -22.43  0.001089128    2.002    0.501
        24 -10.2542     89.6447    184.9659   5.5200138710e+01   2.4178656599e+01    0.2590229    0.1963946  -2.49  0.001317825    1.631    0.387
        25 -15.3101    197.3977    176.3017   2.9163893172e+01   9.4431627809e+00     2.211544     1.529102  63.79   0.01092488    3.012    0.668
        26 -11.3064    154.9648    179.6060   3.8240366450e+01   1.5242020588e+01    0.2897083    0.1942882 -43.54 0.0009133985    1.534    0.348
        27 -12.0210    113.3727    171.2106   4.6780716904e+01   2.3638001188e+01    0.5625049    0.2453349  28.63  0.002120427    2.408    0.585
        28 -10.4893    122.0141    165.2427   4.3493365393e+01   2.3530076447e+01    0.2085752    0.1841093  34.13 0.0005710935    1.079    0.073
        29  -8.9815    200.9365    218.4856   3.5564363554e+01   2.6854399412e+00    0.1594064   0.09746065  25.37 0.0003657367    1.485    0.327
        30 -11.5605     67.6559    143.7828   5.5571046139e+01   3.7493950633e+01     0.797728    0.4122463  56.76  0.003018377    2.342    0.573
        31 -10.5075      2.7187    137.9159   7.7135584453e+01   4.5829305761e+01    0.2200964    0.2059224  40.00 0.0002395605    1.153    0.133
        32 -11.9073    114.2385    124.7728   3.7257675052e+01   3.4185894753e+01      0.82236    0.5939944 -45.16  0.003573442    1.408    0.290
        33 -11.2102    234.1244    215.8357   2.9635794078e+01  -6.2624628626e-01    0.2084174     0.175567   3.67 0.0004850655    1.358    0.264
        34 -12.0301    125.7716    123.0945   3.3695370945e+01   3.2273872425e+01    0.7348222    0.3003525 -48.15  0.001345077    2.445    0.591
        35 -11.5873    119.8935    116.6175   3.3707661999e+01   3.4930376785e+01    0.4736009    0.3903899  30.21  0.001950141    1.293    0.226
        36 -10.5709    120.9116    132.6484   3.7210338975e+01   3.1066998737e+01    0.2568554    0.2103555 -36.50 0.0005717662    1.279    0.218
        37 -10.4889     80.8664    126.4768   4.7970759920e+01   3.9924154742e+01    0.8313726    0.2128768 -58.29  0.002296492    3.939    0.746
        38  -9.7487    224.9440    245.9882   3.5508664669e+01  -3.2922184209e+00    0.1292252      0.10885  19.53  0.001051949    1.657    0.396
        39 -12.5551    122.1727    104.7695   3.0031475903e+01   3.7104164901e+01     1.081931    0.9241593  85.74  0.005378562    1.325    0.245
        40 -10.7437    111.0658    104.4359   3.3075162196e+01   3.9548587735e+01    0.5039776    0.3206649  53.90   0.00131452    1.673    0.402
        41 -12.6441     46.1451     99.4610   5.5286523798e+01   5.2368391847e+01    0.5600497    0.5184298  31.40  0.000947147    1.112    0.101
        42 -13.1697     62.3758    105.6677   5.0069617652e+01   4.8385356175e+01     1.091098    0.6585805  40.88    0.0010834    1.638    0.389
        43 -13.8906     56.1020    100.8708   5.1460028948e+01   5.0606163272e+01     2.472734     1.041161  32.29  0.005376888    2.342    0.573
        44  -8.9714     95.2961    107.0608   3.8644307937e+01   4.2155917739e+01    0.2151799    0.2044624 -68.14 0.0003764697    1.053    0.050
        45 -13.7581     15.3129     95.9237   6.8316000164e+01   5.6439240757e+01      1.64626     1.325143  20.02   0.00621813    1.335    0.251
        46 -12.2244    167.9807     99.0500   1.8062733911e+01   2.8317042722e+01    0.6928217    0.5023629  16.51  0.002359546    2.019    0.505
        47 -10.8501    170.8003     91.7713   1.5685816213e+01   2.9024874661e+01    0.3320817    0.2826215  -7.11 0.0008272014    1.420    0.296
        48  -9.3782    223.2199    239.4367   3.4868828294e+01  -2.3699558941e+00    0.1328179    0.0843327  27.85 0.0004969229    1.624    0.384
        49 -11.8995    114.1441    110.0769   3.3667547659e+01   3.7611390010e+01    0.6224933    0.4061408 -51.06  0.002717589    1.543    0.352
        50 -15.4701    178.4277    167.5075   3.1113375254e+01   1.3760008294e+01     2.455582     1.452296 -39.88   0.01259636    1.619    0.382
        51 -13.7218    187.2825    173.9427   3.0602243347e+01   1.1301130715e+01    0.6618229    0.4128758 -39.55   0.00182649    1.539    0.350
        52  -9.6918    108.0735     94.5782   3.1229032375e+01   4.2423885363e+01    0.4062879    0.2515897 -26.46  0.001159496    2.351    0.575
        53 -11.8318    173.9701    215.3333   4.0126874967e+01   6.4468735232e+00    0.3654522    0.2323183  23.37  0.002179653    1.380    0.275
        54 -10.2316    248.8380    247.1337   3.1986252588e+01  -5.5761355422e+00    0.1403691    0.1021936  -2.46 0.0004924845    1.192    0.161
        55  -8.3746     92.5074     86.4673   3.3788399168e+01   4.7596629625e+01    0.1550822    0.1529384  14.55 1.604026e-05    1.067    0.063
        56  -9.9364    202.1314     82.8005   8.5676363600e+00   2.4008946511e+01    0.3403563    0.2072178 -53.83 0.0008372377    1.615    0.381
        57 -12.1297      2.7094     62.2224   6.9732620738e+01   6.6115275666e+01    0.9710699    0.2706053 -74.23  0.003386738    3.212    0.689
        58 -11.7366    170.8875     68.4067   9.4797836940e+00   3.2963432192e+01    0.6218512    0.4842984 -38.14  0.003362525    1.239    0.193
        59  -9.7296    215.3634     66.9685   3.2548752904e+00   2.3754745836e+01    0.2140991    0.1839675  50.61  0.001138157    1.439    0.305
        60 -10.5100    218.9594     55.8261   3.2559722047e-01   2.4588047467e+01    0.4899044    0.2504369  42.92  0.002257627    3.154    0.683
        61  -9.5043    226.9969     65.2979   1.6758878525e+00   2.1784824991e+01     0.217887    0.1794198  66.88 0.0007417367    1.445    0.308
        62 -11.7190    225.4338     49.6439   3.5833681391e+02   2.4151326442e+01    0.5093313    0.3982554  71.77  0.002414555    1.475    0.322
        63 -10.7781    222.4979     63.4610   1.7117312847e+00   2.2875821693e+01    0.2645161    0.2289738  72.14 0.0006246408    1.350    0.259
        64 -11.0058    229.5958     61.1125   5.0580406792e-01   2.1870136249e+01    0.4117917    0.2771035  63.32  0.001784814    1.765    0.433
        65 -10.9570    228.7354     55.1953   3.5928174896e+02   2.2809982578e+01     0.342869    0.3087587  25.20  0.001270337    1.537    0.350
        66  -9.4200    233.0235     55.7547   3.5902960336e+02   2.1946963381e+01    0.2024654    0.1722699 -55.66 0.0004207875    1.100    0.091
        67  -9.8660    180.0067     64.3923   7.0257005554e+00   3.1531456245e+01      0.23369    0.1906344 -18.92 0.0006324385    1.449    0.310
        68  -9.7706    176.6996     61.6978   6.7805613005e+00   3.2688780380e+01    0.2440834    0.1685073 -24.02 0.0007584537    1.670    0.401
        69  -8.8550     42.0030     59.9739   4.6498375402e+01   6.3000577598e+01    0.1700409    0.1556123 -45.42 0.0003500975    1.073    0.068
        70  -9.9190    249.0241    234.0470   3.0105934831e+01  -4.1898908967e+00    0.1522975    0.1093102  -6.28 0.0004776208    1.102    0.093
        71 -10.4345      6.1352     53.3784   6.5914737092e+01   6.8192975549e+01    0.2578963    0.1851041 -75.56 0.0006565393    1.373    0.272
        72 -10.1270    247.0324     46.2131   3.5591626296e+02   2.0655182989e+01     0.260076    0.1481047  61.36  0.001593774    2.183    0.542
        73 -11.5079    190.1817    212.8018   3.6640362917e+01   4.7857649136e+00    0.3061662    0.2710789  61.67  0.001993334    1.941    0.485
        74  -9.8798    212.6057    213.9728   3.2841127533e+01   1.9546743728e+00    0.1898934     0.144535  23.86 0.0006856244    1.378    0.274
        75 -10.3254    223.6782    223.3130   3.2436369933e+01  -4.6545090549e-01    0.1824518    0.1416544   1.47 0.0008294559    1.139    0.122
