#   1 NUMBER                 Running object number                                     
#   2 MAG_AUTO               Kron-like elliptical aperture magnitude                    [mag]
#   3 X_IMAGE                Object position along x                                    [pixel]
#   4 Y_IMAGE                Object position along y                                    [pixel]
#   5 X_WORLD                Barycenter position along world x axis                     [deg]
#   6 Y_WORLD                Barycenter position along world y axis                     [deg]
#   7 A_WORLD                Profile RMS along major axis (world units)                 [deg]
#   8 B_WORLD                Profile RMS along minor axis (world units)                 [deg]
#   9 THETA_WORLD            Position angle (CCW/world-x)                               [deg]
#  10 FWHM_WORLD             FWHM assuming a gaussian core                              [deg]
#  11 ELONGATION             A_IMAGE/B_IMAGE                                           
#  12 ELLIPTICITY            1 - B_IMAGE/A_IMAGE                                       
         1 -13.3068    219.3297     38.7077   6.6881328644e-01   2.5422595086e+01     2.012364     1.522888  45.58  0.006626695    1.706    0.414
         2 -12.6497    194.3460     59.9263   8.6308088262e+00   2.8085042188e+01     1.525044     1.154235 -50.49   0.00635524    1.203    0.169
         3 -12.8779    205.8951     50.8106   4.9293349223e+00   2.6769275253e+01     1.374436     1.080596 -40.81  0.005802633    1.136    0.120
         4  -9.3062    120.0868      9.2511   3.0675139086e+00   5.3240186369e+01    0.2693256    0.2063821 -40.37 0.0008649688    1.372    0.271
         5  -9.1892    103.8582      2.7833   3.0645648207e+00   5.8158159091e+01    0.3381529    0.2163894 -60.73   0.00142156    1.760    0.432
         6  -9.2821     90.8577    247.4850   6.6919202521e+01   1.2560233013e+01    0.3635546    0.1969793  63.93   0.00189664    2.620    0.618
         7  -9.0240     75.6068    248.8949   7.0276436604e+01   1.4167288663e+01    0.2559566    0.2394456 -45.71  0.001971742    1.427    0.299
         8 -13.2534     36.5382    210.6289   7.6498784368e+01   2.5799378433e+01     2.312348     1.311473  19.60     0.012262    1.906    0.475
         9 -13.9645     35.4445    190.9229   7.5482860066e+01   3.0173696546e+01     7.608223      2.45072  64.89    0.0242308    4.716    0.788
        10 -13.2128      7.5340    232.5751   8.4027660140e+01   2.4255812089e+01      0.53043    0.3729966 -40.50  0.001680639    2.245    0.555
        11 -14.2628      1.7524    229.7697   8.5183227036e+01   2.5285610809e+01     1.138164    0.2752699 -85.92  0.003528303    4.359    0.771
        12  -7.2625    140.5259    243.4667   5.6120760739e+01   6.8827862794e+00    0.1203543   0.09110549  23.45 -4.654584e-05    1.002    0.002
        13 -12.8505     46.4080    181.3617   7.1780772982e+01   3.1142578955e+01     2.267028       1.5092 -20.41   0.01097909    2.351    0.575
        14  -9.2341     67.6100    240.7315   7.1396995348e+01   1.6505915165e+01    0.4135899    0.1379541  32.71  0.001299521    2.176    0.540
        15  -9.7374     62.0833    238.0904   7.2420464490e+01   1.7620323075e+01    0.3930364    0.2149055  51.92  0.000461262    1.598    0.374
        16  -8.5631    241.6743    246.6864   3.8387274820e+01  -5.2002461335e+00    0.1072473   0.05668928   0.92 0.0005850279    1.665    0.399
        17  -8.7395    244.9906    241.7562   3.7181363164e+01  -5.0322832069e+00    0.1277121    0.0667869  23.17 0.0006728845    1.592    0.372
        18  -8.6592     83.5642    237.4859   6.7635702537e+01   1.5141593171e+01     0.240637    0.1781332 -30.62  0.001047763    1.872    0.466
        19  -9.8004    247.5029    236.6749   3.6067278495e+01  -4.7664053090e+00    0.2375176    0.1293896  20.50  0.001688868    1.518    0.341
        20  -8.5479     64.5330    229.4689   7.1242589159e+01   1.8906713475e+01     0.262443    0.1455187 -69.05  0.001222656    2.168    0.539
        21  -9.7471    124.8626    231.3807   5.7972157655e+01   1.0790818158e+01     0.387457    0.2688212 -89.44  0.002123032    2.660    0.624
        22  -7.6309     91.3089    232.3395   6.5449427482e+01   1.5060870810e+01    0.1179153   0.08940992  -3.86 0.0002886054    1.687    0.407
        23 -13.5375     10.4540    216.0270   8.2875431432e+01   2.7227439059e+01      1.50203    0.5099745  74.91   0.00662789    3.115    0.679
        24 -10.1679     96.0201    228.8904   6.4054974687e+01   1.5056053341e+01    0.4407894    0.1707201  36.16  0.002058056    1.949    0.487
        25 -10.1957     93.5734    225.2149   6.4236138123e+01   1.6033382963e+01     0.481636    0.2192956  29.35  0.001678192    1.842    0.457
        26 -12.8986      3.1613    210.3382   8.4364679640e+01   2.9013353738e+01    0.9285005    0.3198951  86.18  0.003372046    2.939    0.660
        27  -9.2463     85.2069    215.6266   6.5202884977e+01   1.8926650080e+01    0.2585373    0.1709068  -1.15 0.0006841902    2.238    0.553
        28  -9.9551     82.7132    222.9380   6.6508198733e+01   1.7868206849e+01     0.449307     0.272764 -69.44  0.002525236    2.046    0.511
        29 -10.8490     77.4414    220.1027   6.7470464172e+01   1.9079946141e+01    0.6203801    0.3762498  38.09  0.002900237    1.303    0.233
        30 -10.4584     72.6635    211.7532   6.7827892616e+01   2.1322382772e+01     1.044718    0.5732466 -15.83  0.003502523    5.596    0.821
        31 -10.5255     66.3804    213.2469   6.9482279096e+01   2.1816206836e+01    0.8129525    0.4995953 -87.02  0.003693604    1.993    0.498
        32  -7.8703    123.9930    206.0104   5.4930003819e+01   1.5263617845e+01    0.1942134    0.1391155  51.92  0.001076608    1.540    0.351
        33  -7.3059     99.6639    205.3102   6.0584570769e+01   1.8936927841e+01    0.1390878   0.08886313  54.74 0.0007043995    1.682    0.405
        34  -9.6319    100.2297    196.3903   5.9320861463e+01   2.0626269096e+01    0.2430561    0.2133123  43.71 0.0002466942    1.070    0.065
        35 -13.3420      8.2346    195.0689   8.2647472721e+01   3.1833070564e+01      1.96931      1.02488  40.76  0.005723015    1.523    0.344
        36  -8.3577     60.1998    187.2092   6.8602535943e+01   2.8130967617e+01    0.2639663    0.1775203  39.67  0.001417913    1.269    0.212
        37  -8.9640     58.4316    183.7274   6.8725675004e+01   2.9142884269e+01    0.2470619    0.1774193 -71.79  0.001355184    1.500    0.333
        38 -14.4862     30.5413    234.8114   7.9154968527e+01   2.1657816536e+01     2.095959     1.499815  28.63   0.01237325    1.318    0.241
        39 -12.9170     10.9679    206.7211   8.2424418636e+01   2.9099140321e+01     0.688229    0.3678609  36.13  0.001565784    1.506    0.336
        40 -12.4448     18.9620    220.9504   8.1127452299e+01   2.5462255629e+01    0.5425153    0.3069521  61.24 0.0007934127    1.490    0.329
        41  -7.6848    110.7230    167.9583   5.2390757537e+01   2.4957760525e+01    0.1916842    0.1868808  79.44 0.0007593988    1.118    0.106
        42 -10.5701     22.9060    159.4711   7.6706042991e+01   3.8875859045e+01    0.6304313    0.2756498  54.74  0.002736937    2.154    0.536
        43 -10.3406     76.3437    155.6776   6.0060075341e+01   3.3314783887e+01     1.155116    0.4425136  46.65  0.004103521    2.633    0.620
        44  -9.4088     60.9163    155.3332   6.4679346337e+01   3.5602634810e+01    0.3669047    0.2346539  85.34 0.0008981882    1.833    0.454
        45 -10.2514     64.3770    150.9232   6.2996270477e+01   3.6226959473e+01    0.5358601    0.3835835 -19.77  0.001578387    1.965    0.491
        46 -10.9917     70.1139    145.3712   6.0354414523e+01   3.6792209372e+01    0.9047315     0.569768  73.24  0.003183903    2.020    0.505
        47  -9.4111     41.3546    155.5263   7.0728318485e+01   3.7977656350e+01    0.5907726    0.2470994  53.37  0.002304195    2.475    0.596
        48 -11.0173     85.7268    147.9440   5.5977337875e+01   3.3725009195e+01    0.5484812    0.5147588  10.87  0.001405452    1.153    0.133
        49  -9.5869    245.0533    147.0500   2.1290259290e+01   6.2011667154e+00    0.1921435    0.1680404  33.26   0.00139236    1.415    0.293
        50  -9.4526     28.8379    141.4094   7.3266161507e+01   4.2901068009e+01    0.5785205    0.2795739  59.28  0.002438278    2.176    0.540
        51 -10.4115     22.5391    137.2756   7.4967870652e+01   4.4557475036e+01    0.4683589     0.321631  85.46  0.001303605    1.385    0.278
        52  -8.9376     16.4890    140.9221   7.7292188810e+01   4.4124315155e+01    0.2043563    0.1231794 -81.64 0.0006145358    1.547    0.353
        53 -10.6832     87.2019    136.6621   5.3447868908e+01   3.6236884155e+01    0.4477237    0.2835782 -55.36  0.001996518    1.629    0.386
        54  -8.0555     38.8152    137.9935   6.9548914315e+01   4.2756896374e+01    0.2858172    0.1701099 -75.49    0.0013299    1.651    0.394
        55  -8.0633    250.3100    150.6518   2.1256967309e+01   5.0040765250e+00     0.108835   0.08268438 -47.82 0.0006928441    1.710    0.415
        56 -14.3302     11.5514    245.8947   8.3565292474e+01   2.1458890538e+01      1.23163    0.8275208 -76.40   0.00422459    1.789    0.441
        57  -9.2090    246.3785    131.2077   1.8025081903e+01   8.1370805943e+00    0.1758999   0.09036488 -38.72 0.0009544305    1.690    0.408
        58  -9.2560     54.9682    129.4411   6.2784343833e+01   4.3024926999e+01    0.3296541    0.2433953 -26.02  0.001498525    1.735    0.424
        59  -7.6880    165.9799    129.5253   3.1120109610e+01   2.2524577589e+01    0.2026764    0.1409263  43.18 0.0003679717    1.456    0.313
        60  -9.0039    110.4779    127.8829   4.4584023047e+01   3.4068894370e+01    0.2854786    0.2416167  27.79 0.0005318114    1.209    0.173
        61  -8.1006     20.3185    125.6503   7.4607769583e+01   4.7797149407e+01    0.1540339   0.08943313  60.18 0.0007048073    1.736    0.424
        62  -7.2042    121.2972    119.3361   3.9506362010e+01   3.3830258852e+01    0.1575309    0.1238362  -6.29 0.0002909675    1.652    0.395
        63  -7.5030    113.8143    110.3893   3.9370133803e+01   3.7404673596e+01    0.2128361     0.147691  32.41 0.0003111153    1.542    0.352
        64  -7.9088     61.5641    100.5378   5.4648417984e+01   4.9624464591e+01    0.1496042    0.1465582 -75.21 -1.984934e-06    1.018    0.018
        65  -9.6752     72.0399     88.3037   4.7376942626e+01   5.0948119800e+01    0.4337214    0.3225077  80.77   0.00157002    1.777    0.437
        66  -7.4143    116.0084     78.2240   2.9448412896e+01   4.3856438504e+01    0.2016969    0.1273839  49.99 0.0003037683    1.551    0.355
        67  -8.0107     31.2361     78.3834   6.2661881741e+01   5.9343174702e+01    0.2084668    0.1248583  35.73 0.0009601061    1.716    0.417
        68  -7.9410    240.1489     72.1617   6.3830739009e+00   1.7127151094e+01    0.1694171    0.1191399 -49.91 0.0003722455    1.273    0.215
        69  -8.4280    249.0160    250.0000   3.7735665264e+01  -6.2253791989e+00     0.151552   0.04410669  29.83 0.0008053445    2.963    0.662
        70  -8.3625    235.3171    249.6852   3.9792600710e+01  -4.8742600894e+00   0.08583944   0.07150564  15.15 0.0004113213    1.648    0.393
        71  -7.8979    159.0150     69.5514   1.6808785097e+01   3.4942324487e+01    0.2203483    0.1879309 -41.90 0.0001243705    1.146    0.127
        72  -8.3060     65.8903    248.4503   7.2310289699e+01   1.5375779080e+01    0.2728398    0.1493319  38.76  0.001446973    1.328    0.247
        73  -8.1854    144.1068     59.6127   1.6662401927e+01   4.0286938475e+01    0.2519579    0.1994583 -54.18 0.0005344572    1.272    0.214
        74  -7.6812     67.7357     32.6846   2.8049802642e+01   6.3549471352e+01    0.1429755    0.1095428  10.43 0.0001948645    1.545    0.353
        75  -7.0129     84.3223     30.2900   2.0726174879e+01   6.0079280364e+01    0.1513111    0.1077815  28.02 0.0006693898    1.607    0.378
        76  -9.3325    248.3109     18.3511   3.5414552523e+02   2.1988117310e+01    0.2160612    0.1851159  17.40  0.001543288    1.728    0.421
        77  -7.8865    105.9824     18.9606   9.7286849842e+00   5.6007175514e+01    0.2209861     0.156536  37.13 0.0003001493    1.541    0.351
        78  -8.1167     89.8564     18.9067   1.3676109365e+01   6.0210486409e+01    0.2116506    0.1791236  40.17            0    1.161    0.139
        79  -8.6175    103.3558    247.1425   6.4238254770e+01   1.1064134404e+01     0.139736    0.1098986  85.08  0.000693711    1.762    0.433
