#   1 NUMBER                 Running object number                                     
#   2 MAG_AUTO               Kron-like elliptical aperture magnitude                    [mag]
#   3 X_IMAGE                Object position along x                                    [pixel]
#   4 Y_IMAGE                Object position along y                                    [pixel]
#   5 X_WORLD                Barycenter position along world x axis                     [deg]
#   6 Y_WORLD                Barycenter position along world y axis                     [deg]
#   7 A_WORLD                Profile RMS along major axis (world units)                 [deg]
#   8 B_WORLD                Profile RMS along minor axis (world units)                 [deg]
#   9 THETA_WORLD            Position angle (CCW/world-x)                               [deg]
#  10 FWHM_WORLD             FWHM assuming a gaussian core                              [deg]
#  11 ELONGATION             A_IMAGE/B_IMAGE                                           
#  12 ELLIPTICITY            1 - B_IMAGE/A_IMAGE                                       
         1 -12.5882    211.0435     23.1010   4.3854013085e+01   2.9515369675e+01     1.076642    0.8149931  31.65  0.005776703    1.730    0.422
         2 -12.4765    199.2954     36.1409   4.8807793383e+01   3.0811050244e+01     1.048693    0.9667083  56.01  0.004118992    1.156    0.135
         3  -9.9535     33.0000     21.4890   8.8274299186e+01   6.8296956947e+01    0.4438516   0.08349364 -41.45  0.001504917    4.357    0.770
         4  -9.8874     21.5101     11.5012   8.9322863352e+01   7.1065471134e+01    0.1760067    0.1646888 -53.99  0.001301825    1.729    0.422
         5  -9.9099     32.6735      3.0441   7.9300200463e+01   7.1002706573e+01    0.4596066   0.09806353 -32.71  0.001520648    4.524    0.779
         6  -9.5100    235.6273      1.5290   3.6348607761e+01   2.6082573691e+01    0.4218713    0.1226935  72.77  0.001402259    3.150    0.683
         7 -11.6706     68.6994    144.2083   1.0876581786e+02   3.7213559927e+01    0.8503488     0.562416  81.02  0.002842494    1.742    0.426
         8 -12.9559     86.7496    227.6771   1.1528268920e+02   1.6481185829e+01      2.30918    0.8902057  53.93 0.0004062353    2.434    0.589
         9 -14.2686     68.4581    247.3837   1.2032736156e+02   1.5463639804e+01     6.570817     1.847264  34.76   0.02504798    4.543    0.780
        10 -13.3750     44.2371    205.5002   1.2149710761e+02   2.6458588144e+01     2.081916     1.120996 -65.36   0.01206088    1.843    0.458
        11 -13.1874     53.5889    195.3466   1.1872043627e+02   2.7456412722e+01     2.086039     1.218547  86.78  0.009054189    1.662    0.398
        12  -9.0442     73.8498    188.5152   1.1367970262e+02   2.6253484664e+01    0.2873718    0.1793829  72.20 0.0009699443    1.651    0.394
        13 -10.0573     27.8609    149.4960   1.1982309551e+02   4.0639316594e+01    0.2453974    0.1583516  76.55  0.001257675    1.474    0.322
        14  -7.6192    134.5085    148.4522   9.2754709686e+01   2.4992624693e+01    0.1506149    0.1443676  76.25  0.000122906    1.031    0.030
        15  -8.9904     84.6041    144.0701   1.0457662957e+02   3.4930319445e+01    0.3399172    0.2110527  69.62  0.001502998    2.070    0.517
        16  -9.3612     32.8394    164.8893   1.2024741232e+02   3.6584338333e+01    0.2271367    0.1151025 -67.14 0.0006981161    1.690    0.408
        17  -8.0117     99.2647    180.6181   1.0694322846e+02   2.4146198147e+01    0.1810454    0.1277672  32.95 0.0007884931    1.569    0.363
        18 -10.6030     89.9081    141.2630   1.0266483555e+02   3.4767483770e+01    0.2780567    0.2546602 -48.42  0.000364104    1.171    0.146
        19  -9.7856     33.2210    140.3132   1.1742552158e+02   4.2293857587e+01     0.399197    0.1689454 -76.97  0.001772608    2.203    0.546
        20  -9.0502     28.8350    138.4918   1.1832772024e+02   4.3142385524e+01    0.2412311    0.1683829  65.85 0.0007250252    1.448    0.309
        21  -9.4638    102.0047    141.7497   9.9581893232e+01   3.2628034068e+01    0.5465356     0.318158 -30.71  0.002090849    2.785    0.641
        22  -9.6939     33.0000    127.4965   1.1580070152e+02   4.5379121827e+01    0.3473321    0.1348644 -68.57  0.001522753    2.121    0.529
        23  -9.1566    111.9652    131.0039   9.4685237962e+01   3.3370609495e+01    0.3599129    0.2156207  24.92  0.001432867    2.323    0.570
        24  -8.4130    106.3435    130.9586   9.6176349229e+01   3.4416567443e+01    0.2655475    0.2060975  56.03  0.001259806    1.358    0.264
        25 -10.1470     68.1656    179.0708   1.1380500648e+02   2.9131467273e+01     0.359593    0.2650254 -38.45   0.00168493    1.919    0.479
        26  -9.3100     98.7813    127.4178   9.7453646537e+01   3.6601112956e+01    0.2972264     0.249514 -14.74 0.0009820275    1.501    0.334
        27  -8.0746    108.1122    119.8446   9.3150614273e+01   3.6712943056e+01    0.1974627    0.1751885 -23.75 0.0003671289    1.257    0.205
        28 -10.2999     73.1482    173.2878   1.1192993401e+02   2.9751839240e+01     0.356438    0.2608087 -40.22  0.001183021    1.822    0.451
        29 -11.2126     58.8973    133.7065   1.0966425050e+02   4.1039510050e+01     1.554148    0.4929653 -73.24  0.004049351    5.912    0.831
        30  -8.2137    205.6892    110.0088   6.7736933504e+01   1.7244376743e+01    0.2168301    0.1938863 -34.85 0.0005846664    1.060    0.057
        31  -9.5371     49.8667    108.0234   1.0766164835e+02   4.8339001051e+01    0.3741995    0.1758084  52.90  0.001527996    2.957    0.662
        32  -7.8629    168.2927    112.6692   7.6103688727e+01   2.5405779583e+01    0.1600604    0.1254726 -75.59 0.0007022342    1.631    0.387
        33  -9.4005     33.0000    101.0381   1.1159177055e+02   5.1714651421e+01    0.4539768   0.06212099 -64.78  0.001162002    5.991    0.833
        34  -8.2418    134.4909    105.5160   8.2353653603e+01   3.4603041997e+01    0.1569564    0.1524051 -23.91 -9.076003e-05    1.037    0.036
        35  -9.0223    243.0000    100.9906   5.9289996457e+01   1.0624623599e+01    0.2471294   0.07311716 -34.87 0.0008106528    3.000    0.667
        36  -8.9418     33.1491     91.7003   1.0976212348e+02   5.3902827102e+01    0.4039728   0.04083794 -59.79  0.001136403    4.889    0.795
        37  -8.1278     41.7671     91.7881   1.0691497042e+02   5.3061939476e+01    0.1713867    0.1450118  87.60 0.0004765886    1.322    0.243
        38  -8.4388    234.4804     85.5367   5.6790847105e+01   1.4969283870e+01    0.1435195    0.1306399 -39.38   7.7555e-05    1.022    0.022
        39  -7.9285     75.1940     85.1279   9.4087816007e+01   5.0372436918e+01    0.1810225     0.165384 -84.94 0.0006236015    1.259    0.206
        40  -9.4025     32.7988     82.5919   1.0796413924e+02   5.6044842640e+01    0.4860091    0.1011853 -63.89  0.001401744    4.933    0.797
        41 -11.0945     82.0848    163.4419   1.0841118906e+02   3.0725717496e+01    0.7695808    0.4377879  57.79 0.0005470805    1.887    0.470
        42  -9.6775    147.4729     51.5767   6.2583238230e+01   4.1820830073e+01    0.4726485    0.3213858 -73.71  0.001990512    2.156    0.536
        43 -10.4081    187.2854     51.4312   5.4953226863e+01   3.1720261265e+01     0.491827    0.1907229 -44.06  0.001740892    2.604    0.616
        44  -8.6876     33.0000     51.9661   9.9790112823e+01   6.2696608863e+01    0.2139787   0.06052079 -54.17 0.0008062851    2.969    0.663
        45 -11.8492     70.0994    159.1508   1.1070048869e+02   3.3457116019e+01    0.6555855    0.4905484 -36.19  0.001876888    1.782    0.439
        46 -11.4929     15.6667    190.8557   1.2599606455e+02   3.2553798346e+01    0.4876336    0.2927142  69.31 0.0004169306    1.369    0.270
        47 -11.4181    190.3314     42.4008   5.1859842485e+01   3.2239422020e+01    0.4484835    0.4176646 -25.82  0.001135576    1.154    0.133
        48  -9.2785     74.1631    231.5049   1.1800754786e+02   1.7536399205e+01    0.3696159    0.1354188  51.14  0.001770387    2.271    0.560
        49  -8.8663    148.6936     44.7443   6.0047138355e+01   4.2546492674e+01     0.268556     0.244427 -78.78 0.0007016332    1.196    0.164
        50 -10.6135    164.5255    224.4274   9.9690858757e+01   4.6166627823e+00    0.2761588    0.2035145  32.57  0.001653429    1.203    0.168
        51 -15.1017      6.6477    206.8170   1.2862297114e+02   3.0122183917e+01     6.481604     1.373988 -74.51  0.008838466    3.662    0.727
        52 -15.4756      8.2251    243.2335   1.3006071822e+02   2.3140030809e+01     16.52122      1.62372 -78.32  0.003306647    9.815    0.898
        53 -10.4540     88.5485    156.7050   1.0575037479e+02   3.1312116813e+01    0.5147436      0.38816 -26.69  0.002588069    1.899    0.473
