#   1 NUMBER                 Running object number                                     
#   2 MAG_AUTO               Kron-like elliptical aperture magnitude                    [mag]
#   3 X_IMAGE                Object position along x                                    [pixel]
#   4 Y_IMAGE                Object position along y                                    [pixel]
#   5 X_WORLD                Barycenter position along world x axis                     [deg]
#   6 Y_WORLD                Barycenter position along world y axis                     [deg]
#   7 A_WORLD                Profile RMS along major axis (world units)                 [deg]
#   8 B_WORLD                Profile RMS along minor axis (world units)                 [deg]
#   9 THETA_WORLD            Position angle (CCW/world-x)                               [deg]
#  10 FWHM_WORLD             FWHM assuming a gaussian core                              [deg]
#  11 ELONGATION             A_IMAGE/B_IMAGE                                           
#  12 ELLIPTICITY            1 - B_IMAGE/A_IMAGE                                       
         1 -12.5672     56.6344    128.8481   1.0518697052e+02   4.2941515900e+01     2.387283    0.7909439 -73.61  0.004687029    9.302    0.892
         2 -14.0145    219.2235     30.5569   4.0913631255e+01   2.7329893655e+01     1.470891    0.9134144  38.01  0.007843137    2.520    0.603
         3 -11.8688      2.0001     11.6209   9.7722713048e+01   7.4785630995e+01     0.585467    0.1444071 -52.10  0.002275901    3.843    0.740
         4 -13.4612    243.2615      8.7712   3.4727988001e+01   2.4958939750e+01     0.669036    0.4296495 -58.67  0.002667505    1.231    0.188
         5 -10.8320     61.7469    235.4600   1.1730070365e+02   1.7059415595e+01    0.2268977    0.1927249  48.74 0.0002659366    1.032    0.031
         6 -13.7555    118.6262    246.3112   1.0568722099e+02   7.8168765619e+00     1.491002    0.5725729  25.67  0.006298341    2.486    0.598
         7 -12.8897     96.4496    249.1169   1.1087058345e+02   1.0220121078e+01     1.711862    0.4118708  26.17  0.004984724    5.450    0.817
         8 -14.5136     69.5412    248.1253   1.1664791102e+02   1.3719255815e+01     5.584932     1.215074  24.80   0.01302245    9.259    0.892
         9 -12.2452     53.7132    230.9504   1.1873927621e+02   1.8885339697e+01    0.4643112    0.3349786 -50.06  0.002833679    1.677    0.404
        10 -12.4710     43.2252    215.3609   1.1991026957e+02   2.3308364249e+01    0.6406063     0.249949  36.97   0.00294775    2.100    0.524
        11  -9.3577     93.5442    220.4794   1.0835341506e+02   1.6054075208e+01     0.133253    0.1166975  32.52 5.933412e-05    1.006    0.006
        12 -13.6123     29.8491    247.5949   1.2500078626e+02   1.8156915329e+01     1.175612    0.9371155  -0.04  0.008084915    1.713    0.416
        13  -9.9500    191.9657    192.4628   8.1162681441e+01   6.6018520296e+00    0.2410259    0.1796819 -79.84  0.001037667    3.540    0.717
        14 -11.5568     53.0302    181.6637   1.1414236366e+02   2.9960100520e+01    0.3960635    0.2748823 -30.52  0.001223206    1.824    0.452
        15 -11.6277     59.4687    175.4928   1.1159338761e+02   3.0698569794e+01    0.3290223    0.2699141 -27.30 0.0009294235    1.412    0.292
        16 -11.0088     70.5941    165.3558   1.0695187652e+02   3.1777193437e+01    0.2665134    0.2563725 -44.00 0.0003159648    1.068    0.064
        17 -12.3595     78.4301    157.9796   1.0342333697e+02   3.2522021479e+01    0.9918929    0.7006683  53.48  0.002267226    1.557    0.358
        18 -12.7913     67.8062    144.1001   1.0428110738e+02   3.7538219360e+01    0.8344906    0.5999283  66.78  0.002414485    1.711    0.416
        19 -12.2090     54.3848    239.9028   1.1929261128e+02   1.7033508355e+01    0.4421462    0.3417917 -18.77  0.002069996    1.808    0.447
        20  -9.9708     94.0135    144.2605   9.6100350264e+01   3.3513681634e+01      0.31346    0.2746321 -23.40 0.0007895521    1.181    0.153
        21  -9.2195     97.2879    141.3015   9.4481172886e+01   3.3689727390e+01    0.2577953    0.2095649 -16.16  0.000553964    1.365    0.267
        22 -11.9346     81.7963    142.5448   9.9540837204e+01   3.5896883873e+01    0.3955491    0.2785636 -53.09 0.0003227904    1.402    0.287
        23 -10.4170    106.5391    131.7581   8.9536751605e+01   3.4358031417e+01    0.3816124    0.3386879 -31.23  0.001003764    1.121    0.108
        24 -10.1918     93.8567    128.4231   9.2683656216e+01   3.7434714041e+01    0.3298042    0.2606181   3.06 0.0009844328    1.437    0.304
        25  -8.9779    160.6373    126.7054   7.3874986058e+01   2.4705788932e+01    0.1590163    0.1167846   4.76 0.0007030674    1.709    0.415
        26  -8.7357    114.3001    126.3335   8.5922702992e+01   3.4170132359e+01    0.1639853    0.1220221 -11.32 0.0004260897    1.652    0.395
        27  -9.5026    104.8533    120.1910   8.7240454913e+01   3.7414030020e+01    0.2150196    0.2099192  41.36 0.0002876762    1.092    0.084
        28 -12.7695     22.5114    209.7435   1.2437590825e+02   2.6601812586e+01    0.3764209     0.328945 -40.06 0.0007964149    1.430    0.301
        29  -8.8423    167.3755    112.6707   6.8875486266e+01   2.6054002786e+01    0.1545243    0.1203237 -81.32 0.0001907901    1.840    0.456
        30  -9.3822    204.7345    110.7900   6.1305697684e+01   1.8751028959e+01    0.3023259    0.1507412  35.34  0.001236469    2.676    0.626
        31 -14.9490     30.9781    201.4516   1.2176803798e+02   2.7650947516e+01      1.97084     1.573353  22.89  0.008359048    1.345    0.256
        32 -13.1840     56.7522    161.9092   1.1054869295e+02   3.4416876359e+01    0.5569112    0.3433596 -40.01  0.001472354    1.843    0.458
        33 -11.7361     33.9420    158.1547   1.1689923646e+02   3.7842467306e+01    0.6328247    0.2934447  59.07  0.002494936    2.719    0.632
        34 -11.5865      2.3810     66.1872   1.1510744033e+02   6.3355775887e+01    0.4783345    0.1898221 -74.01  0.001985997    2.645    0.622
        35 -10.8730     13.2171     60.4588   1.0828966382e+02   6.4115699858e+01    0.2491529    0.1648077 -55.90 0.0007335451    1.343    0.255
        36 -10.4153      2.0000     43.9527   1.1000058937e+02   6.8422968763e+01    0.2056367   0.06234344 -63.30 0.0008040101    2.953    0.661
        37 -15.8213      8.8371    240.0203   1.2890639524e+02   2.1572994796e+01     12.93508     6.590053 -82.19   0.07756151    1.962    0.490
        38 -15.3289      8.8236    207.7178   1.2741432115e+02   2.8237348329e+01     3.810198     1.755269 -63.81   0.01552721    2.200    0.545
        39  -9.8624    189.5155     15.0575   3.9964827576e+01   3.5424315811e+01    0.1766044    0.1160835 -33.86 0.0006367479    1.559    0.359
