#   1 NUMBER                 Running object number                                     
#   2 MAG_AUTO               Kron-like elliptical aperture magnitude                    [mag]
#   3 X_IMAGE                Object position along x                                    [pixel]
#   4 Y_IMAGE                Object position along y                                    [pixel]
#   5 X_WORLD                Barycenter position along world x axis                     [deg]
#   6 Y_WORLD                Barycenter position along world y axis                     [deg]
#   7 A_WORLD                Profile RMS along major axis (world units)                 [deg]
#   8 B_WORLD                Profile RMS along minor axis (world units)                 [deg]
#   9 THETA_WORLD            Position angle (CCW/world-x)                               [deg]
#  10 FWHM_WORLD             FWHM assuming a gaussian core                              [deg]
#  11 ELONGATION             A_IMAGE/B_IMAGE                                           
#  12 ELLIPTICITY            1 - B_IMAGE/A_IMAGE                                       
         1 -14.8723      4.6288    131.3102   1.5100143482e+02   4.6864821486e+01     5.131662    0.7106424 -84.21   0.01421183    6.790    0.853
         2 -13.6257    196.8580     26.0398   6.9994855283e+01   3.2143549725e+01     1.828496     1.399549  20.67  0.007620146    1.569    0.363
         3 -13.4875    212.8182      6.5786   6.2860737512e+01   3.0082053983e+01    0.9046093     0.794172  77.23  0.004083204    1.160    0.138
         4 -12.1845     67.3559    143.4036   1.3374528919e+02   3.8175190528e+01    0.6895615    0.3752394  54.83  0.002752187    1.868    0.465
         5 -12.2826    238.3879    248.2524   1.1162277331e+02  -3.4030505164e+00    0.3859579    0.2578548  28.98  0.003001412    1.426    0.299
         6 -13.9262    133.1502    246.1055   1.2999288471e+02   1.0429888848e+01     1.351943    0.4138497  31.63  0.006076303    2.703    0.630
         7 -10.3895     19.4687    236.6090   1.5117089576e+02   2.4984915017e+01    0.2210315    0.1165174  58.86  0.000633842    1.407    0.289
         8 -10.3933      8.2144    249.8907   1.5347190926e+02   2.3903695324e+01    0.2030356    0.1079499  27.82  0.001052684    1.822    0.451
         9 -10.9269      2.7971    248.7862   1.5438345377e+02   2.4525205239e+01    0.2232614    0.1844487  57.25  0.001998382    1.300    0.231
        10 -11.2421     29.9941    248.8423   1.4961434149e+02   2.2095766236e+01    0.2860892     0.208929  52.35  0.002415165    1.098    0.089
        11 -10.3689     80.9981    248.9943   1.4017810169e+02   1.6614087119e+01     0.178116   0.09122045  53.34  0.001002535    1.668    0.400
        12 -11.4329     36.6682    215.1904   1.4705778333e+02   2.6960627513e+01    0.4969879    0.4078834 -22.83  0.003633226    1.955    0.488
        13 -14.6200     36.1940    231.7870   1.4785697007e+02   2.4184031328e+01    0.8718668     0.754788   3.65  0.007052225    1.710    0.415
        14 -12.5874    174.4709    247.9718   1.2250144573e+02   4.6898245728e+00    0.5618883    0.2861507  25.16   0.00344098    1.573    0.364
        15 -11.7459    185.3589    239.2664   1.1946707541e+02   4.2000701349e+00    0.3098077    0.2311244  60.30  0.001989179    2.527    0.604
        16  -9.7330     95.3348    239.9922   1.3677477868e+02   1.6188928416e+01     0.149762   0.07463526 -37.21 0.0007051673    4.367    0.771
        17 -12.6018     47.5905    217.5699   1.4492407346e+02   2.5417706971e+01     0.664982    0.3912916  47.07  0.002193175    1.245    0.197
        18 -13.1067    115.0866    231.9997   1.3215804709e+02   1.4800065117e+01    0.9555694    0.1649093  37.05  0.003482671    3.713    0.731
        19  -9.5529    248.6703    231.3130   1.0759932962e+02  -3.1559134467e+00   0.09005947   0.07386455  23.67 0.0007043817    1.673    0.402
        20 -11.6919     91.8802    227.8196   1.3649046723e+02   1.8486871298e+01    0.3393916    0.1460832  42.91  0.001862762    1.698    0.411
        21 -11.3345     85.8712    226.2919   1.3759838109e+02   1.9491117237e+01    0.4285303   0.08536969  42.10  0.001724203    3.163    0.684
        22  -9.3876    172.6581    222.6837   1.1967642926e+02   7.9480806621e+00    0.1229329   0.07567918  12.88 0.0007048458    1.710    0.415
        23 -12.1280     20.0442    246.9554   1.5133828072e+02   2.3310148656e+01    0.4282259    0.3532492  54.00  0.003856059    1.262    0.208
        24 -10.2866     57.5117    211.8489   1.4250516910e+02   2.5338372303e+01    0.2465269    0.1435937  58.64 0.0007690791    1.485    0.327
        25 -10.4798     53.7752    205.4102   1.4289938002e+02   2.6920531481e+01     0.518073    0.1391663  55.64  0.001955307    4.074    0.755
        26 -10.1927     20.2680    211.9763   1.5028098201e+02   2.9082417581e+01    0.3025721    0.1333528  29.92   0.00178606    1.987    0.497
        27 -12.1357     10.4819    206.7710   1.5211190808e+02   3.0859934344e+01     0.523306    0.3552309  22.64  0.002929754    1.673    0.402
        28 -11.9609     59.4699    201.5790   1.4138483750e+02   2.6983987563e+01    0.2299308    0.2058355  50.85  0.000545844    1.181    0.154
        29  -9.7885     12.6153    196.1636   1.5136828939e+02   3.2645962087e+01    0.1884391     0.106243  45.06 0.0004578055    1.341    0.254
        30 -12.2257     66.0571    192.8172   1.3921444126e+02   2.7864156699e+01    0.2343813    0.2100959  44.29  0.000416809    1.170    0.145
        31 -13.3231     63.1450    177.7257   1.3860534671e+02   3.1217024936e+01    0.4641529    0.2729378 -45.48  0.001858735    2.343    0.573
        32 -10.9220     76.7287    179.2867   1.3540757989e+02   2.9184037096e+01    0.2229478    0.1875062  51.09 0.0003086406    1.015    0.015
        33  -9.5275     99.6720    176.6030   1.2944395113e+02   2.6494080243e+01    0.3040413     0.159974  60.66  0.001335589    2.458    0.593
        34 -10.4022     19.9390    173.7489   1.4888233173e+02   3.6470035563e+01    0.1667717    0.1275281  55.78 0.0006498845    1.055    0.052
        35 -12.0861     84.2656    169.9566   1.3247565973e+02   3.0067672204e+01    0.6294757    0.5669152  -8.07  0.003972475    1.394    0.282
        36 -13.6258    143.6667    247.6481   1.2815808341e+02   8.8349754773e+00    0.9521202    0.4074423  34.77  0.005428032    1.636    0.389
        37 -10.1849    108.8742    138.2884   1.2106191188e+02   3.2981659992e+01    0.4374222    0.3001907 -16.75  0.001929738    2.262    0.558
        38 -10.6959     96.0405    135.6362   1.2421764498e+02   3.5740835287e+01    0.2358941     0.232083  13.22 0.0003447141    1.109    0.098
        39 -10.8946     30.0622    130.8801   1.4346307313e+02   4.5150282512e+01    0.2813493    0.1763355  47.29  0.000638331    1.469    0.319
        40  -9.6294    116.4385    129.0341   1.1712442403e+02   3.3626697373e+01    0.4191179    0.2435146 -13.85   0.00123762    4.866    0.795
        41 -11.7573     21.4002    126.2769   1.4573263056e+02   4.6935785726e+01    0.4598183    0.1967947  43.74  0.001456711    2.106    0.525
        42  -9.1980    106.1870    124.4921   1.1911731522e+02   3.6507654454e+01      0.20644    0.1399214  36.75 0.0004127952    1.399    0.285
        43 -10.9134     96.8074    153.8638   1.2700014399e+02   3.1607017409e+01    0.3739301    0.3389127 -17.44 0.0008772963    1.321    0.243
        44 -10.3721    157.8291     76.1039   9.2282169202e+01   3.5144221674e+01    0.2366706     0.219344 -75.58 0.0004677347    1.216    0.178
        45  -9.8126     99.9418    149.4942   1.2546774049e+02   3.2049526884e+01    0.2337184    0.2028897 -80.31 0.0003350432    1.264    0.209
        46 -12.0658     85.5066    152.8600   1.2992054708e+02   3.3536006319e+01    0.2768517    0.2531052 -18.36 0.0008165425    1.328    0.247
        47 -11.0914     98.4762    249.2344   1.3687702789e+02   1.4467700736e+01    0.2955994    0.1055528  36.33  0.001512309    1.907    0.476
        48 -11.0644    191.3902    247.2576   1.1939014801e+02   2.5391883804e+00    0.2888574    0.1890979  57.08  0.001629588    3.356    0.702
