#   1 NUMBER                 Running object number                                     
#   2 MAG_AUTO               Kron-like elliptical aperture magnitude                    [mag]
#   3 X_IMAGE                Object position along x                                    [pixel]
#   4 Y_IMAGE                Object position along y                                    [pixel]
#   5 X_WORLD                Barycenter position along world x axis                     [deg]
#   6 Y_WORLD                Barycenter position along world y axis                     [deg]
#   7 A_WORLD                Profile RMS along major axis (world units)                 [deg]
#   8 B_WORLD                Profile RMS along minor axis (world units)                 [deg]
#   9 THETA_WORLD            Position angle (CCW/world-x)                               [deg]
#  10 FWHM_WORLD             FWHM assuming a gaussian core                              [deg]
#  11 ELONGATION             A_IMAGE/B_IMAGE                                           
#  12 ELLIPTICITY            1 - B_IMAGE/A_IMAGE                                       
         1 -13.5293     68.2453    144.2550   9.2369320762e+01   3.7453852634e+01     2.338447     1.222193  73.21  0.002910714    4.540    0.780
         2 -13.7595    229.7639     35.6254   3.0745365503e+01   2.5033079372e+01     1.118762    0.8412468  45.38  0.007181689    1.876    0.467
         3 -13.1477      2.6417      7.6873   8.1548877045e+01   7.5076844924e+01     1.338016    0.6570174 -45.78  0.007552049    2.057    0.514
         4 -11.6664     18.5733      3.3195   6.8163807544e+01   7.3892080800e+01    0.4398044    0.2767626  42.88   0.00263269    1.941    0.485
         5 -14.5600     10.9761    204.6216   1.1521141781e+02   2.8679682431e+01     1.935396    0.9805712 -70.05  0.004854686    1.859    0.462
         6 -15.4483     21.4878    246.4472   1.1529167574e+02   1.8744930907e+01     10.66496     3.264239  20.41   0.03546714    5.943    0.832
         7 -13.0846     50.4159    157.3894   1.0002842796e+02   3.6361284012e+01    0.5647063    0.3649355 -33.06   0.00144636    1.919    0.479
         8 -14.1898     20.3997    195.4646   1.1233293008e+02   2.9966758670e+01     2.228969    0.8340222  49.34   0.00857375    2.481    0.597
         9 -12.5383     43.2432    216.0385   1.0846405980e+02   2.2858121267e+01    0.7193582    0.4404163  52.61  0.001484412    1.477    0.323
        10 -10.5422     90.3429    142.1386   8.5108905530e+01   3.4575369983e+01    0.3465174      0.32117 -17.19 0.0008594263    1.128    0.114
        11  -9.9057     93.6168    139.2185   8.3498217977e+01   3.4753455649e+01     0.460422    0.2728247 -27.21  0.001481115    2.435    0.589
        12 -12.0440     77.6487    139.7357   8.8539277506e+01   3.7225933046e+01    0.4064002    0.3497998  87.35 0.0004458198    1.288    0.223
        13 -10.4887    105.5560    130.9779   7.8067807694e+01   3.4644667602e+01    0.3946562    0.3511412  19.78  0.001057455    1.166    0.142
        14  -9.8594    192.4800    193.6374   7.0119862285e+01   5.7181294719e+00    0.3240848    0.2267291 -72.22  0.001423797    3.163    0.684
        15  -9.3605    134.6144    129.7175   6.9710380786e+01   2.9257364075e+01    0.4251538    0.2600327 -65.53  0.001625615    2.339    0.573
        16  -9.9486     91.3576    126.7754   8.1405666153e+01   3.8238027595e+01    0.3073358    0.2490352  -8.85 0.0006265363    1.451    0.311
        17 -10.8506     66.4169    125.7688   8.9320537107e+01   4.2491872640e+01    0.3203394    0.2168781 -32.99  0.001440019    1.661    0.398
        18 -11.8579     45.2641    176.6678   1.0402316124e+02   3.2022098005e+01    0.4341294    0.3296791 -28.86  0.001035358    1.644    0.392
        19  -9.5455    103.1282    119.0828   7.5902748889e+01   3.7951024443e+01    0.2265061    0.2212762  -5.12 0.0003951176    1.015    0.015
        20 -11.5513     52.5870    170.6115   1.0121037187e+02   3.2698372438e+01    0.3306349    0.2750654 -33.01 0.0007421268    1.383    0.277
        21 -10.8022     64.9890    161.3133   9.6261154224e+01   3.3495488006e+01    0.2649368    0.2553594  -0.47 0.0003558523    1.122    0.109
        22  -9.0751     84.6028    112.2144   8.0044373466e+01   4.2983364388e+01    0.2249603    0.1384619 -42.74 0.0009506244    1.620    0.383
        23  -9.1350    204.5190    110.8495   5.0498738603e+01   1.8753816145e+01    0.2765987    0.1795633  32.20  0.001333972    2.029    0.507
        24  -9.2642    113.4482    124.5375   7.4216278584e+01   3.4671639573e+01    0.2906174    0.1516816  27.42  0.001030425    2.460    0.594
        25  -8.5642    110.5662    167.5141   8.4357187818e+01   2.4908518290e+01    0.1482525    0.1461402  41.92 9.111806e-05    1.034    0.033
        26 -13.0025     51.7902    113.0294   9.1724038285e+01   4.7740413098e+01     1.882352    0.7454625 -73.10  0.005260456    4.686    0.787
        27 -11.0216     52.9198     91.4039   8.6103647839e+01   5.2938931147e+01    0.3895596    0.3374003  -3.27  0.002144374    1.175    0.149
        28  -9.8743     41.6102     92.1211   9.0823410078e+01   5.4185765147e+01    0.2229228    0.1916288  30.79 0.0004330791    1.259    0.206
        29  -8.9955     73.8255     83.8086   7.5907497332e+01   5.1443268431e+01    0.1923985    0.1771365  70.85 0.0003582507    1.300    0.231
        30  -9.5866     60.4726     70.5141   7.6839160716e+01   5.6515342895e+01    0.2392797    0.1351897  21.62 0.0006196015    2.055    0.513
        31 -10.6314     13.3068     60.0881   9.5299375010e+01   6.4295016761e+01    0.2407557    0.2182547 -42.66 0.0007024801    1.140    0.123
        32 -15.7038     16.6285    163.9354   1.1070938154e+02   3.8065996658e+01     9.102366     3.494089  84.23   0.03142662    3.638    0.725
        33 -12.6733    214.4640     47.5918   3.4742220621e+01   2.6580041481e+01    0.6329046    0.4737696 -43.06  0.003940601    1.238    0.192
        34 -10.1931     11.6160     53.2068   9.4213936551e+01   6.5913294301e+01    0.1884094   0.09447127 -47.51 0.0004664612    1.635    0.388
        35 -10.7251      1.7407     51.1463   9.8936399752e+01   6.6970577300e+01    0.4065917   0.09623847 -63.72  0.001440042    3.770    0.735
        36  -8.6357     94.7195     46.3654   5.5930926373e+01   5.4271449851e+01    0.1383876     0.111036 -72.10 0.0007013837    1.682    0.405
        37 -10.7230      2.7435     38.8715   9.4734048413e+01   6.9478707847e+01    0.2103072     0.171812 -73.20  0.001239654    1.571    0.363
        38 -12.6950     73.5552    154.8780   9.2637034427e+01   3.3950139180e+01     1.000929    0.7139556  70.32  0.001576828    1.709    0.415
        39  -9.7036    118.4216     26.4945   4.2844069315e+01   5.1378418181e+01    0.4583464    0.2321178 -64.92  0.001553184    3.800    0.737
        40 -11.6353    208.1343     51.5512   3.6321681459e+01   2.7365721236e+01    0.5573763    0.2693618 -53.81  0.002652709    2.006    0.501
        41  -8.8593    189.5143     15.5114   2.9787737481e+01   3.5777907758e+01    0.1231806    0.1030036 -78.56 0.0008103895    1.010    0.010
