#   1 NUMBER                 Running object number                                     
#   2 MAG_AUTO               Kron-like elliptical aperture magnitude                    [mag]
#   3 X_IMAGE                Object position along x                                    [pixel]
#   4 Y_IMAGE                Object position along y                                    [pixel]
#   5 X_WORLD                Barycenter position along world x axis                     [deg]
#   6 Y_WORLD                Barycenter position along world y axis                     [deg]
#   7 A_WORLD                Profile RMS along major axis (world units)                 [deg]
#   8 B_WORLD                Profile RMS along minor axis (world units)                 [deg]
#   9 THETA_WORLD            Position angle (CCW/world-x)                               [deg]
#  10 FWHM_WORLD             FWHM assuming a gaussian core                              [deg]
#  11 ELONGATION             A_IMAGE/B_IMAGE                                           
#  12 ELLIPTICITY            1 - B_IMAGE/A_IMAGE                                       
         1 -16.4901     31.0428    132.0240   1.2737522353e+02   4.5390072073e+01     4.985632     3.850163  26.90    0.0294312    1.515    0.340
         2 -12.0302    177.6519     42.2740   6.5783904770e+01   3.5568953585e+01    0.9380475    0.7259914  57.87  0.005532527    1.273    0.215
         3 -12.5420     11.0608      6.8903   9.9896166473e+01   7.0788134428e+01     1.396936    0.8459606  10.72  0.009920497    1.382    0.277
         4  -8.3464    211.9400      7.6625   5.4195463623e+01   3.2003158855e+01    0.1714446    0.1193786  88.17 0.0005182061    1.148    0.129
         5 -10.0296    201.9963      2.8566   5.4119846800e+01   3.4625338257e+01    0.4281752    0.1791829  76.11  0.002183472    2.029    0.507
         6  -9.9990     39.0965      3.7491   8.6367563864e+01   6.7692366374e+01    0.2298275    0.1743467  59.06  0.001525254    2.268    0.559
         7 -10.8649     43.8424      2.3823   8.4004075213e+01   6.7118219518e+01    0.5073569    0.1354692  44.49  0.002284427    3.124    0.680
         8 -12.0227     69.7569    208.5731   1.2858931270e+02   2.1707375151e+01    0.2189223    0.1863911 -83.39  0.000420531    1.083    0.076
         9 -14.0893    242.6442    226.5273   9.4349498958e+01  -1.0267700772e+01      4.27256     1.286362 -39.35   0.01722485    3.024    0.669
        10  99.0000     21.8718    215.7715   1.3979405900e+02   2.6060148944e+01     1.286525    0.7907341 -69.09  0.007525588    1.469    0.319
        11  99.0000     30.8887    209.3774   1.3732930918e+02   2.6536114964e+01    0.9139391    0.4414334 -58.18  0.004506143    2.044    0.511
        12 -10.9801     51.6516    216.1026   1.3353153088e+02   2.2430966618e+01     1.113349    0.4293616  59.98  0.004044996    3.466    0.711
        13 -14.7428     79.8561    235.3836   1.2963289745e+02   1.4113739477e+01    0.6894245    0.4743278  23.73  0.003617353    1.898    0.473
        14 -17.3391     61.9937    239.7123   1.3381844192e+02   1.5747719772e+01     3.472943     1.827554  44.04   0.01694441    1.700    0.412
        15 -13.9590     41.0456    226.3920   1.3681124459e+02   2.1432742145e+01      1.64369    0.7486563 -87.68  0.007267576    2.506    0.601
        16 -11.0018     62.8154    212.7561   1.3068319245e+02   2.1704935756e+01    0.1791477    0.1525018 -89.76 0.0004820496    1.052    0.049
        17 -11.4934     58.3704    199.3320   1.3004866088e+02   2.5519075694e+01    0.2717246    0.1899731  22.67  0.001399235    1.855    0.461
        18 -10.0823     44.6664    206.8039   1.3405718730e+02   2.5503872130e+01    0.1183599    0.1081255  71.82 0.0002675886    1.164    0.141
        19 -11.4728     53.9776    197.6291   1.3086240156e+02   2.6516801062e+01    0.2122428    0.1803978  76.11 0.0004209691    1.069    0.064
        20 -10.5832     49.7340    197.5953   1.3184757910e+02   2.7073519450e+01    0.3710043    0.3092852  48.80  0.001450257    1.254    0.203
        21  -9.4759     44.7781    197.6300   1.3299842612e+02   2.7685697000e+01    0.1911457    0.1402893  37.89 0.0005040657    1.490    0.329
        22 -11.4232     59.3839    210.5092   1.3118611466e+02   2.2707023460e+01    0.3663675    0.1946849 -45.94    0.0016275    2.453    0.592
        23 -12.7612     62.2188    204.5564   1.2981371133e+02   2.3733233072e+01    0.5464768    0.2690761 -75.88  0.002359475    2.150    0.535
        24 -10.9887     40.8551    205.1014   1.3472043370e+02   2.6374697817e+01    0.3441685    0.1778454 -81.35  0.001631016    1.891    0.471
        25  99.0000     40.4258    198.8773   1.3413671775e+02   2.7912799300e+01    0.4477343    0.2590665  77.03  0.002186973    1.864    0.464
        26 -11.1279     17.2765    209.8462   1.4023671620e+02   2.7899781981e+01    0.1087162   0.07082823  58.82 0.0006286376    1.414    0.293
        27 -10.5164     54.0387    208.2276   1.3212074240e+02   2.3964828025e+01    0.1344069    0.1082909 -80.13 0.0003176646    1.119    0.106
        28  -8.6634     87.8834    206.6357   1.2411519594e+02   1.9422337209e+01    0.1329677   0.08284661 -54.18 0.0002510548    1.645    0.392
        29 -12.5346     76.7561    205.1126   1.2650802946e+02   2.1500631344e+01      0.34167    0.2773643 -57.26  0.001514926    1.293    0.227
        30 -10.8160     81.9446    202.5141   1.2492272824e+02   2.1333932577e+01    0.2144607     0.191175  85.27 0.0002560886    1.018    0.018
        31  99.0000     16.5939    206.4599   1.4008983850e+02   2.8750095809e+01    0.1232651    0.0990403 -81.07 0.0005784645    1.130    0.115
        32 -11.5182     48.8173    204.5972   1.3287987385e+02   2.5506225260e+01    0.1683141     0.140098  49.32 0.0008348338    1.250    0.200
        33  99.0000     13.9219    201.8351   1.4025293727e+02   3.0089527727e+01    0.2819425    0.1687794  37.10  0.001624109    1.823    0.452
        34 -13.7554     90.0544    247.5479   1.2890223795e+02   1.0006060571e+01    0.7266607    0.2889692  54.02  0.002933409    2.695    0.629
        35  -9.9698     70.3535    199.0388   1.2718506995e+02   2.3910437582e+01    0.1247089    0.1053175  42.97 0.0002116892    1.252    0.201
        36  -9.4844     90.0843    196.6815   1.2210378822e+02   2.1458911087e+01    0.2198862    0.1899654 -68.98 0.0004237581    1.126    0.112
        37  99.0000     20.2523    197.2074   1.3847100796e+02   3.0542620300e+01    0.1039524   0.08774884 -57.04 0.0004421902    1.369    0.270
        38 -11.2786     62.6494    194.4994   1.2840534564e+02   2.6110931592e+01    0.1900526    0.1637399  89.86 0.0004555747    1.025    0.024
        39 -10.3960     27.0964    194.3431   1.3666800304e+02   3.0510080808e+01    0.2462122    0.1435123 -56.46  0.001298276    1.710    0.415
        40 -11.2460     57.7671    193.7150   1.2946787197e+02   2.6968721865e+01    0.1858996    0.1517045  77.03 0.0005211394    1.137    0.121
        41 -10.4745     20.4213    193.8518   1.3811149248e+02   3.1321432887e+01     0.135629    0.1031636 -73.71 0.0003363429    1.157    0.136
        42  -9.2670     76.8606    192.4700   1.2468129712e+02   2.4552036074e+01    0.1406967    0.1124626 -64.85 0.0001681448    1.198    0.165
        43 -10.5294     40.2275    191.6420   1.3335675912e+02   2.9686772338e+01      0.13607    0.1117951 -82.67 0.0003099699    1.043    0.041
        44  -9.9580     43.5123    192.3689   1.3267325305e+02   2.9117083468e+01    0.1904063    0.1704422  56.30  0.000137424    1.202    0.168
        45 -11.9770     46.5839    190.8126   1.3175983134e+02   2.9121443934e+01    0.2949427    0.1851024 -79.97  0.001505542    1.485    0.327
        46 -10.9493     49.4220    189.4837   1.3091685555e+02   2.9093096359e+01    0.2959248     0.198236  87.65   0.00152864    1.493    0.330
        47  -9.3801      1.6519    192.7749   1.4209124938e+02   3.3322981333e+01    0.1767405   0.07709298  41.88 0.0009035959    2.295    0.564
        48  99.0000     34.9778    189.5110   1.3433757239e+02   3.0811033443e+01    0.2149593    0.1309169  32.05 0.0006677238    1.874    0.466
        49  -7.6959     93.4098    188.1055   1.1991520519e+02   2.3011730397e+01    0.2060955    0.1344751 -78.92 0.0009119165    1.755    0.430
        50 -10.7774     32.6812    183.6210   1.3420120888e+02   3.2502973636e+01    0.4041747    0.1965887  41.81  0.001941958    2.101    0.524
        51 -11.3013     43.2910    183.1780   1.3159517507e+02   3.1399373425e+01    0.1807972    0.1551467 -74.45 0.0004114677    1.082    0.076
        52 -10.8762     16.3437    182.4997   1.3790598817e+02   3.4436129820e+01    0.1285308   0.09890359 -79.21  0.000150571    1.062    0.059
        53 -11.0723     50.5797    180.2060   1.2941170499e+02   3.1242905568e+01    0.1835575    0.1624583 -83.37 0.0003236719    1.033    0.032
        54 -10.3284     19.2594    179.8218   1.3695007339e+02   3.4805120885e+01    0.1331842    0.1151104 -79.43  0.000269937    1.105    0.095
        55 -10.3826    236.8808    176.5509   8.5910955180e+01  -7.7852283092e-01    0.3745484    0.2712263  67.81  0.001547911    2.155    0.536
        56  -8.1548     85.9688    177.6277   1.2003534949e+02   2.6822167549e+01    0.3010878    0.1947147 -66.38 0.0008924245    1.514    0.340
        57  -9.5568     88.9249    171.7780   1.1824790995e+02   2.7810324446e+01    0.4186555    0.2648571 -39.25  0.001293444    1.879    0.468
        58  -9.3977     43.0806    174.2793   1.3048273799e+02   3.3632171136e+01    0.1236315    0.1023242 -65.18 0.0002465741    1.129    0.114
        59  -9.7554     39.7769    172.1236   1.3102604354e+02   3.4550843390e+01    0.1662948    0.1413984 -76.92 0.0002060019    1.023    0.023
        60  -9.3724    175.3933    172.3177   9.7159857867e+01   1.1326984287e+01    0.2966346    0.2754651  17.67 0.0007399333    1.125    0.111
        61 -13.1063     91.7014    225.1355   1.2579352517e+02   1.4555496102e+01     1.449498    0.6755329 -60.47   0.00635909    2.183    0.542
        62  -9.5813    237.1796    167.1791   8.3987347748e+01   9.1639641017e-01    0.2129114    0.1804284  17.10 0.0004587492    1.342    0.255
        63  -7.8621    196.5166    170.5458   9.2308020699e+01   7.5893871955e+00    0.1466285    0.1385821 -36.46 7.468665e-05    1.019    0.019
        64 -16.2482    119.1645    234.9315   1.2109331589e+02   7.9760193115e+00     5.206426      4.56035 -45.10   0.03099013    1.302    0.232
        65  -8.5781    157.3462    167.9895   1.0033093179e+02   1.5905399844e+01    0.3871771    0.2189673  30.41 0.0008895753    2.165    0.538
        66  -8.7753    205.2844    164.9534   8.9377479395e+01   7.0716529791e+00      0.21686    0.2077134  52.56 0.0003583278    1.146    0.127
        67 -10.4013     96.4298    163.4335   1.1471420487e+02   2.8646499459e+01    0.5828916    0.3597614 -71.17  0.001471514    1.856    0.461
        68 -10.9833     81.7962    223.2826   1.2774882237e+02   1.6504974148e+01    0.1798428    0.1557156  70.33 0.0002968935    1.017    0.016
        69  -8.4398    161.0248    128.0710   9.0388665434e+01   2.4139769908e+01    0.4555184    0.2880133 -72.55  0.001728676    2.403    0.584
        70  -8.9296    181.1467    121.8388   8.4563792172e+01   2.1031207462e+01    0.2030148    0.1838397   5.76 0.0004536572    1.331    0.249
        71  -7.8459    105.0881    154.4556   1.1058920232e+02   2.9356669603e+01    0.2284595    0.1522304  40.58  0.001013217    1.548    0.354
        72  -7.9159    161.9509    111.9397   8.6223771466e+01   2.7359270383e+01     0.228494    0.1783288 -80.06  0.001068443    1.523    0.344
        73  -7.2514    216.2920    109.2687   7.5276375919e+01   1.5935428029e+01    0.1276795    0.1130748   0.87 0.0002291328    1.509    0.338
        74  -9.7231    182.6614    138.0262   8.8023675820e+01   1.7298506377e+01    0.2772968    0.2176187  84.27 0.0008648568    1.585    0.369
        75  -9.2278    196.7652    107.0387   7.8098342234e+01   2.0542225033e+01    0.2863968    0.2131108  56.92  0.000520499    1.400    0.286
        76  -7.8877    181.2180    104.9597   8.0511047431e+01   2.4408689445e+01    0.2014276     0.184375 -57.53 0.0002389372    1.053    0.050
        77  -8.5366    122.8372     96.0309   9.1476089156e+01   3.9246165018e+01    0.2284679     0.203208  89.80 0.0008104783    1.281    0.219
        78  -8.0951    112.8712     88.4760   9.2043668358e+01   4.2813666254e+01    0.2168263    0.1897431 -36.63 0.0004228973    1.151    0.132
        79  -8.1249    223.4935     92.0206   7.0427105800e+01   1.7557489560e+01    0.1976297    0.1232426 -44.75 0.0003553128    1.464    0.317
        80  -7.7990    104.1776    133.1214   1.0611369572e+02   3.4735881732e+01    0.1950449    0.1736479  87.21 0.0003028231    1.235    0.190
        81  -7.2640    153.2971    145.2906   9.6251402867e+01   2.1953704513e+01    0.1535809    0.1259582  -6.09 0.0002108701    1.557    0.358
        82  -8.9636    168.7678     72.3362   7.4776585580e+01   3.3178228508e+01    0.2509622    0.1762762  50.65 0.0006245976    1.430    0.301
        83  -8.0443    125.9159     66.8548   8.2400175249e+01   4.3877086383e+01    0.2118366    0.1823827  21.80 0.0004793662    1.255    0.203
        84  -8.1231    119.6070     66.1725   8.3759908730e+01   4.5359999373e+01    0.1837337    0.1699264 -21.35 0.0004543111    1.136    0.120
        85  -8.5430    163.6648     64.6900   7.3758014535e+01   3.5596881364e+01    0.1404828    0.1082722  28.80  0.000704355    1.679    0.404
        86  -9.6713    124.2331     57.8614   8.0157219072e+01   4.5646885923e+01    0.2346747    0.2143667  51.90 0.0002656675    1.033    0.032
        87  -9.7216    109.6825     57.3446   8.3636948032e+01   4.8841450266e+01    0.2370175    0.2263822  43.76 0.0002960271    1.075    0.070
        88  -9.6100    155.9256     54.6762   7.2565323127e+01   3.8906475823e+01    0.3417324    0.1976631  38.57  0.001069379    2.143    0.533
        89 -10.9805    169.2037     49.3899   6.8865034499e+01   3.6564762367e+01    0.4356302    0.3410003 -75.72  0.001190949    1.311    0.237
        90 -10.1104    172.4808     48.4854   6.8106920139e+01   3.5928376869e+01    0.3433473    0.2285234 -58.51 0.0009369301    1.591    0.371
        91 -11.8429     72.7668    220.7768   1.2943498647e+02   1.8422348200e+01    0.3351415    0.1681436  45.02 0.0008887876    1.841    0.457
        92 -10.8692    183.8864     34.2495   6.2994581416e+01   3.5164087415e+01    0.6740575    0.3667142  73.51  0.002580864    1.714    0.417
        93 -10.8804    187.2252     28.6859   6.1276254931e+01   3.5081992800e+01    0.5771563    0.3662418  67.03  0.001651964    1.388    0.279
        94 -11.9823     76.0000    218.9814   1.2849611995e+02   1.8357826800e+01    0.2863829    0.1758775 -64.27  0.001293562    1.600    0.375
        95 -10.1191      7.7857    220.7548   1.4298525825e+02   2.6395621080e+01    0.1524547   0.08057843  47.59 0.0008669198    1.761    0.432
        96 -10.8078     83.7343    211.6523   1.2578375287e+02   1.8888132488e+01    0.4095074    0.2465486  39.26   0.00136274    1.636    0.389
        97 -11.0372     68.2729    213.5468   1.2955287188e+02   2.0748291422e+01    0.1953786    0.1484358 -70.48 0.0002300452    1.259    0.206
