#   1 NUMBER                 Running object number                                     
#   2 MAG_AUTO               Kron-like elliptical aperture magnitude                    [mag]
#   3 X_IMAGE                Object position along x                                    [pixel]
#   4 Y_IMAGE                Object position along y                                    [pixel]
#   5 X_WORLD                Barycenter position along world x axis                     [deg]
#   6 Y_WORLD                Barycenter position along world y axis                     [deg]
#   7 A_WORLD                Profile RMS along major axis (world units)                 [deg]
#   8 B_WORLD                Profile RMS along minor axis (world units)                 [deg]
#   9 THETA_WORLD            Position angle (CCW/world-x)                               [deg]
#  10 FWHM_WORLD             FWHM assuming a gaussian core                              [deg]
#  11 ELONGATION             A_IMAGE/B_IMAGE                                           
#  12 ELLIPTICITY            1 - B_IMAGE/A_IMAGE                                       
         1  -9.2699     74.8695     16.2963   2.9105976630e+02   7.1388408689e+00   0.01326613   0.01197471 -72.64  0.001003119    1.137    0.121
         2  -8.4027    146.1684     14.3114   2.9022205178e+02   6.7335477492e+00   0.01051036  0.008474794 -47.27 0.0003270404    1.232    0.188
         3  -9.8224     80.1089     12.3468   2.9097462132e+02   7.1528242961e+00   0.02227486   0.01336199  78.06  0.001896022    2.693    0.629
         4  -8.1688     93.3859     10.1540   2.9080725631e+02   7.0983987356e+00  0.009439089  0.006382807 -78.51 0.0006018664    1.732    0.423
         5  -8.2026     40.6879      7.6727   2.9140250131e+02   7.4425771695e+00   0.01300221  0.008318503  63.99  0.000889877    2.064    0.515
         6  -7.8699    155.6090      7.2456   2.9006903060e+02   6.7579000670e+00  0.009565026  0.005828605 -50.42 0.0005301143    1.608    0.378
         7  -8.0958    109.6865      7.7193   2.9060341369e+02   7.0285351061e+00  0.006764246  0.004985936 -24.08 0.0002187952    1.571    0.363
         8  -9.8364     14.1342      3.6575   2.9168553682e+02   7.6473878280e+00   0.02692592   0.01343303 -49.33  0.002441823    1.969    0.492
         9  -7.7089     18.4514      2.5296   2.9162849843e+02   7.6345691917e+00    0.0107951  0.006540153  25.58 0.0005736407    1.679    0.404
        10 -10.2466     50.3446     11.6200   2.9131499547e+02   7.3394459488e+00   0.01657936   0.01320818  71.63 0.0007357009    1.458    0.314
        11  -7.4760    179.2746      5.3176   2.8978341199e+02   6.6375272628e+00  0.006814888  0.004898229 -30.48 0.0003400026    1.567    0.362
        12  -7.1590    250.3248      3.6944   2.8895277495e+02   6.2274542700e+00  0.006918642  0.004985608  62.07 0.0004123554    1.645    0.392
        13  -8.7352    105.8680      3.1381   2.9061923783e+02   7.1040877232e+00   0.01058436  0.009260939  64.04  0.001247446    1.234    0.190
        14 -10.5493     59.9554      2.9689   2.9115006989e+02   7.3813235951e+00   0.01477045   0.01262813 -23.45  0.000344566    1.245    0.197
        15  -7.6536      3.3004      3.3018   2.9180898026e+02   7.7161317591e+00  0.006835605  0.004940948 -27.25 0.0002986334    1.586    0.369
        16  -7.9473    116.1660      1.3346   2.9048882345e+02   7.0629596708e+00  0.009843069  0.005634406  37.68 0.0009397471    1.728    0.421
        17  -7.7502     67.5001      1.5522   2.9105386567e+02   7.3524126267e+00  0.006536426  0.006419868  57.03 3.151367e-05    1.040    0.039
        18  -8.5866     39.6436      1.6478   2.9137732885e+02   7.5180522850e+00   0.01269988   0.00644226  21.83 0.0006042107    2.148    0.534
        19  -9.6655    168.9546    241.4849   2.9136241684e+02   3.9831222579e+00   0.01242441   0.01127432 -37.86  0.001231144    1.108    0.098
        20  -9.1535    248.5610    250.0618   2.9049780524e+02   3.4065005011e+00    0.0156573   0.01046479  20.68  0.001613604    1.575    0.365
        21  -9.3018    237.7042    247.2929   2.9060577470e+02   3.5035662756e+00  0.009062165  0.006381971  13.78 0.0003636582    1.567    0.362
        22  -8.7919    226.4554    250.2760   2.9075374589e+02   3.5368177117e+00   0.01159292  0.008080416  10.59 0.0006006691    1.634    0.388
        23 -10.2021    217.5332    249.7973   2.9085359614e+02   3.5959022665e+00   0.02550701   0.01501842  10.69  0.002345133    2.133    0.531
        24  -9.8897    174.2126    249.8908   2.9135352609e+02   3.8548273157e+00   0.03102533  0.008286945  30.26  0.002125572    3.448    0.710
        25  -8.9734    184.0363    249.0350   2.9123498980e+02   3.8057397611e+00   0.01175438   0.00945113  11.53 0.0005707963    1.327    0.246
        26  -9.2787    186.8593    245.3976   2.9118004530e+02   3.8306601788e+00   0.01803014  0.008174985 -55.19  0.001568464    2.087    0.521
        27  -8.4668    160.3349    249.8137   2.9151309008e+02   3.9389480374e+00   0.01319525  0.008463084 -13.62  0.001224608    2.157    0.536
        28  -8.6251    153.0391    250.5228   2.9160159852e+02   3.9745292238e+00   0.01010877  0.006567981  24.88 0.0005019706    1.570    0.363
        29 -10.0644    156.6732    245.8392   2.9153086599e+02   4.0066570854e+00   0.02664953   0.01418599 -43.60  0.001730122    1.987    0.497
        30  -7.7916    201.5139    239.5592   2.9097513639e+02   3.8098824504e+00  0.006605275  0.006355616 -23.68 8.372679e-05    1.044    0.042
        31  -9.5477    183.9723    235.2787   2.9115101039e+02   3.9644434389e+00   0.02299818   0.01386063 -38.25  0.002214356    1.847    0.459
        32  -9.3267    189.2760    235.0069   2.9108817874e+02   3.9357372613e+00   0.01707785   0.01231471  51.08  0.001789559    1.504    0.335
        33  -9.1643    188.5284    230.4779   2.9106889519e+02   3.9923482432e+00   0.01453291   0.01106767 -29.82 0.0009574081    1.444    0.308
        34  -8.2421    146.7460    242.1976   2.9162297374e+02   4.1080992356e+00  0.009122642  0.007567741 -25.14 0.0005535384    1.299    0.230
        35  -8.0488    248.3749    237.1681   2.9042043313e+02   3.5559034817e+00  0.009483152  0.006385065 -76.10  0.000949148    1.696    0.410
        36  -8.0933    194.8910    236.8474   2.9103477873e+02   3.8808495604e+00   0.01036857  0.008646408 -30.72 0.0006217436    1.263    0.208
        37  -7.5178    113.9958    242.4839   2.9200262407e+02   4.3010348686e+00  0.009094401  0.005672859 -10.00 0.0006098923    2.310    0.567
        38  -7.7564    123.3212    237.3209   2.9186326299e+02   4.3046327470e+00  0.007041315   0.00493673 -27.13 0.0006125123    1.672    0.402
        39  -7.2444    209.3048    236.3121   2.9086532187e+02   3.8004648082e+00   0.00692198  0.004945175 -27.61 0.0002637398    1.616    0.381
        40  -8.8794    159.8471    235.4627   2.9143039084e+02   4.1070742395e+00    0.0153661   0.01032126  -9.64  0.001495751    1.960    0.490
        41  -7.4598    232.4786    235.0078   2.9059022650e+02   3.6762701737e+00  0.009885769   0.00475623 -40.12 0.0008086903    2.433    0.589
        42  -8.5237    178.7446    234.9886   2.9120950862e+02   3.9991561286e+00   0.01207552  0.009028549 -14.71  0.000788975    1.589    0.371
        43  -7.7947    204.5440    234.4964   2.9090900800e+02   3.8499457282e+00  0.006660695  0.006322127 -30.00 0.0001179493    1.059    0.055
        44  -7.6678    130.5758    234.4827   2.9176208627e+02   4.2938465217e+00  0.006508241  0.006422999 -62.76 0.0001326222    1.018    0.018
        45  -8.2812    248.8610    233.1881   2.9039028342e+02   3.5987548783e+00   0.00927504  0.007581381 -26.25  0.000454499    1.323    0.244
        46  -7.6827    170.5234    233.4410   2.9129479326e+02   4.0663005468e+00  0.006652187  0.006303675 -25.02 6.627099e-05    1.067    0.062
        47  -7.4288    108.2767    233.3265   2.9201234069e+02   4.4407401598e+00  0.006883514  0.004885258 -31.02 0.0002432514    1.589    0.371
        48  -7.8030    153.5071    232.4827   2.9148518536e+02   4.1794047330e+00  0.006527883  0.006478582 -32.97  -2.0493e-05    1.005    0.005
        49  -7.7069    241.5300    229.9826   2.9045495350e+02   3.6796833611e+00  0.009606618   0.00483354 -39.42 0.0008058118    2.322    0.569
        50  -7.3554     37.4760    229.4730   2.9280618103e+02   4.9084930067e+00  0.006527966  0.006457643 -33.20   3.7316e-05    1.000    0.000
        51  -7.8146    152.1994    227.5701   2.9147003014e+02   4.2438031196e+00  0.009047386  0.006431365   7.40 0.0005236237    1.626    0.385
        52  -8.2417    246.0478    226.2455   2.9037985430e+02   3.6955126000e+00  0.008741651  0.005649964  25.52 0.0008773932    1.573    0.364
        53  -8.1164    184.7158    226.0370   2.9108549804e+02   4.0663449453e+00  0.009545901  0.008470776 -51.40  0.000711205    1.113    0.101
        54  -7.7350    167.7263    225.0063   2.9127510893e+02   4.1801751345e+00  0.009160033  0.008471116 -56.38  0.000458084    1.072    0.067
        55  -8.2099    127.6113    224.5626   2.9173526830e+02   4.4258394976e+00   0.01146498  0.009075521 -16.32 0.0006420967    1.434    0.303
        56  -7.2505    240.2995    224.3665   2.9043448170e+02   3.7516764439e+00   0.00718597  0.004833901 -30.64  0.000703302    1.730    0.422
        57  -8.5952      5.4961    224.4921   2.9314503212e+02   5.1566753324e+00  0.006654055  0.006341015 -28.73 -8.191687e-05    1.055    0.052
        58  -7.3178    218.7093    223.6485   2.9067884837e+02   3.8896792083e+00  0.007075619  0.004859792 -30.80 0.0007027776    1.673    0.402
        59  -7.7110    206.9896    222.0280   2.9080395196e+02   3.9787299118e+00  0.007957683  0.007820883 -46.37 0.0005586561    1.009    0.009
        60  -7.9889    174.7779    221.7922   2.9117396453e+02   4.1748536991e+00   0.01141954  0.006220342 -27.95 0.0009331875    2.670    0.625
        61  -7.6737    147.5239    221.5160   2.9148670618e+02   4.3415439965e+00  0.006588409  0.006412155 -29.77 0.0008098787    1.023    0.023
        62  -7.8149    242.5872    220.2060   2.9038245401e+02   3.7857793619e+00  0.009342403   0.00585551 -49.10 0.0006984016    1.575    0.365
        63  -7.6995    194.6777    218.6708   2.9092521367e+02   4.0913083335e+00  0.007092172  0.004923882 -27.47 0.0007049134    1.694    0.410
        64  -7.6603    170.7377    217.6245   2.9119489096e+02   4.2470757319e+00  0.007068076  0.004765019 -34.02 0.0006981429    1.666    0.400
        65  -7.7945    211.4184    215.8029   2.9071450498e+02   4.0237529535e+00  0.009739601  0.005727013 -48.49 0.0009374359    1.686    0.407
        66  -7.4991    150.8515    216.3868   2.9141671968e+02   4.3806395824e+00  0.008999896  0.006366137   9.46  0.000449191    1.613    0.380
        67  -8.1492    248.9444    215.0366   2.9027731211e+02   3.8070169736e+00   0.01058306  0.007668075 -25.35 0.0005540037    1.605    0.377
        68  -8.5816    244.2002    215.0766   2.9033221473e+02   3.8350818381e+00   0.01158796   0.00774725  75.40  0.001106005    2.047    0.512
        69  -7.9316    204.7528    215.4287   2.9078904618e+02   4.0681034264e+00  0.008856435  0.006468626   9.69 0.0005430645    1.536    0.349
        70  -8.3658    187.3902    210.2668   2.9095744672e+02   4.2317908773e+00      0.01545  0.008098375 -28.72  0.001227995    2.871    0.652
        71  -8.3199    170.4610    210.8456   2.9115630893e+02   4.3267678009e+00   0.01294401  0.008802155  -2.94  0.001120822    1.879    0.468
        72  -8.1461    100.0459    210.7669   2.9196864073e+02   4.7498424818e+00   0.01143824  0.007434816 -18.66  0.001079671    2.046    0.511
        73  -7.6269    124.6745    210.6635   2.9168362840e+02   4.6034918435e+00  0.007146065  0.004907376 -27.75 0.0007051447    1.720    0.419
        74  -7.9548    108.0181    209.1898   2.9186687616e+02   4.7202620591e+00    0.0111104   0.00733708 -13.87 0.0007211504    2.022    0.505
        75  -7.7543     77.9050    209.3356   2.9221555279e+02   4.8988464708e+00  0.009165297   0.00621235  11.53 0.0005508286    1.686    0.407
        76  -7.5923    203.7544    208.0357   2.9075496036e+02   4.1591731870e+00  0.008489191  0.005614683 -62.83 0.0005660293    1.517    0.341
        77  -8.1710    147.0865    208.1705   2.9140956305e+02   4.4978188180e+00   0.01005497  0.008623566 -25.91 0.0004499501    1.233    0.189
        78  -7.6902    163.4569    207.4741   2.9121634711e+02   4.4076155580e+00  0.006668579  0.006308178 -29.16 0.0003246103    1.065    0.061
        79  -8.1904    247.8310    205.9003   2.9023373742e+02   3.9187922219e+00   0.01061317  0.008803481 -29.67  0.001089019    1.278    0.218
        80  -9.2000    124.0219    206.0071   2.9166249720e+02   4.6610232224e+00  0.009180995  0.009133051  30.78            0    1.017    0.017
        81  -8.5606     11.4812    205.4718   2.9295926474e+02   5.3401408502e+00   0.01228959  0.006641407 -77.93  0.001036709    2.477    0.596
        82  -8.1251    139.9105    204.6693   2.9147082783e+02   4.5811691704e+00   0.01044517  0.008132025   1.72 0.0006454501    1.452    0.311
        83  -7.9051     87.8308    204.3866   2.9207047245e+02   4.8964555606e+00  0.009366048  0.006368214   9.38  0.000771639    1.713    0.416
        84  -7.6434    175.5052    202.4769   2.9104652313e+02   4.3928166299e+00  0.006679404  0.006323173 -27.49 -9.042529e-06    1.065    0.061
        85  -7.8318     97.2413    202.3722   2.9194938637e+02   4.8633202799e+00  0.009490781  0.005876648  37.66 0.0004595484    1.603    0.376
        86  -8.7842    250.4839    198.2401   2.9015587030e+02   3.9909369290e+00   0.01785011  0.006307745 -54.20  0.001387014    2.601    0.616
        87  -7.6077    135.3114    200.3033   2.9149702756e+02   4.6590188588e+00  0.006900198  0.004962571 -26.51 0.0003714872    1.611    0.379
        88  -8.3665    243.4292    197.4247   2.9023212114e+02   4.0427491772e+00   0.01639139  0.005385739 -55.47  0.001232543    2.761    0.638
        89  -8.5769    230.2815    198.0921   2.9038776783e+02   4.1141403243e+00   0.01507731   0.01014857  -8.74 0.0009186774    1.953    0.488
        90  -8.0539    150.9760    198.2663   2.9130364441e+02   4.5885125953e+00  0.009222605   0.00847429  21.15 0.0003977186    1.097    0.089
        91  -8.1339    202.9965    194.9905   2.9068321572e+02   4.3138410998e+00   0.01079772  0.007609411 -28.52 0.0005355944    1.640    0.390
        92  -7.8718    145.0446    194.4474   2.9134857980e+02   4.6680653789e+00  0.009365197  0.005699249  -7.95 0.0008071649    2.451    0.592
        93  -7.8356    237.4398    192.4451   2.9027039343e+02   4.1360503254e+00  0.006630531  0.006291059 -28.68 0.0001453795    1.061    0.057
        94  -7.5879    232.6024    190.1664   2.9031207664e+02   4.1913556926e+00  0.009647137  0.005769278 -49.52 0.0009380016    1.646    0.392
        95  -7.6588    191.7920    189.1769   2.9077658227e+02   4.4480686301e+00  0.009354022  0.007498926 -25.63 0.0004447573    1.366    0.268
        96  -7.8400    173.0379    187.7554   2.9098420515e+02   4.5770805743e+00  0.008977142  0.008659135  24.19 0.0005503161    1.041    0.040
        97  -7.9141    243.4970    187.4542   2.9016975890e+02   4.1570203715e+00  0.006636666  0.006344591 -25.73 0.0001099927    1.052    0.050
        98  -8.2413    238.0761    185.1620   2.9021807665e+02   4.2159964641e+00   0.01490657  0.006743249 -40.16  0.001183887    2.663    0.625
        99  -8.6480    230.3267    184.8890   2.9030571711e+02   4.2657515662e+00    0.0115426  0.009572991  12.95 0.0003777716    1.267    0.210
       100  -8.5646    250.0712    182.3856   2.9006268656e+02   4.1757600813e+00   0.01194844  0.008619055 -41.34 0.0003603358    1.431    0.301
       101  -7.5275    190.2647    183.3471   2.9075822626e+02   4.5243364534e+00  0.006942458  0.004828871 -32.98 0.0001970886    1.609    0.379
       102  -7.2909    199.0000    180.9818   2.9064284959e+02   4.4990610093e+00   0.01083443  0.003745712 -61.79 0.0006890231    2.876    0.652
       103  -7.9853    182.7059    180.0546   2.9082512380e+02   4.6076441455e+00  0.009542642  0.008347978 -52.69 0.0005153081    1.128    0.113
       104  -7.5672    189.6962    176.3077   2.9072133529e+02   4.6087633953e+00  0.006818619  0.005024314  63.66 0.0003201778    1.604    0.377
       105  -7.7080    176.6700    176.6911   2.9087402389e+02   4.6826157927e+00  0.007009717  0.004961735 -25.64 0.0007040603    1.664    0.399
       106  -7.8913    242.0000    177.0544   2.9012276048e+02   4.2856421108e+00   0.01095504  0.003744882 -61.75 0.0007975103    2.908    0.656
       107  -7.5105     95.7612    170.0211   2.9176732203e+02   5.2447685963e+00  0.008445504  0.005548852 -62.34 0.0003787507    1.521    0.343
       108  -9.5358    246.1682    167.1698   2.9001363034e+02   4.3742400143e+00    0.0135354   0.01074593  12.17 0.0004695544    1.347    0.258
       109  -7.9627    237.3037    167.0602   2.9011513267e+02   4.4288521318e+00  0.009255084  0.008332648 -51.86 0.0004102685    1.097    0.089
       110  -7.5132     85.5442    147.4892   2.9174658648e+02   5.5654302122e+00  0.006603998  0.006377752 -31.70 3.009713e-05    1.032    0.031
       111  -7.5401    234.3235    145.6806   2.9001731776e+02   4.6926808907e+00   0.00697711  0.004999754  63.11 0.0007045064    1.673    0.402
       112  -8.6152     65.9465    141.9838   2.9193927299e+02   5.7461364685e+00   0.01133649  0.007907074  64.33  0.001145186    1.766    0.434
       113  -7.6366    230.6728    140.7062   2.9002865227e+02   4.7718677171e+00  0.006905382  0.004984449 -24.48 0.0004486778    1.625    0.385
       114  -7.9884    131.6428    138.7676   2.9115995416e+02   5.3894894079e+00  0.009338813  0.006337069 -74.03 0.0009440817    1.638    0.390
       115  -7.7805    248.3454    133.8703   2.8978259043e+02   4.7440455679e+00    0.0100582  0.005535877 -50.51 0.0009155412    1.774    0.436
       116  -8.0711    241.5442    132.7098   2.8985382348e+02   4.7983571467e+00   0.01296096  0.005871254 -55.04  0.001118695    2.089    0.521
       117  -8.3673    232.0387    128.9538   2.8994020066e+02   4.8987954095e+00   0.01110954  0.007749688 -26.12 0.0009196459    1.701    0.412
       118  -7.8154    221.6655    126.6696   2.9004572290e+02   4.9875244458e+00  0.007145952  0.004923721 -26.75 0.0007052124    1.727    0.421
       119  -8.5103    240.3993    122.4410   2.8980347917e+02   4.9233231418e+00   0.01778477  0.009339926 -36.03  0.001512327    2.362    0.577
       120  -7.7929    212.3208    121.2943   2.9012028745e+02   5.1056014560e+00  0.006882532  0.004982085 -24.94 0.0004220121    1.612    0.380
       121  -7.7357    224.7926    119.4001   2.8996466885e+02   5.0522922692e+00  0.009452267  0.006409498   9.69 0.0009452216    1.720    0.419
       122  -8.2994    248.3431    116.1383   2.8967286856e+02   4.9479170012e+00   0.01120751  0.007848177 -38.55 0.0007662389    1.517    0.341
       123  -8.2734    219.7600    113.3521   2.8998530322e+02   5.1521455066e+00   0.01648935   0.00877862  14.89    0.0014283    2.335    0.572
       124  -7.9897    209.9793    110.5298   2.9008070505e+02   5.2434931357e+00  0.009541068  0.005732195  -7.14 0.0008096123    2.537    0.606
       125  -7.8937    194.9889    110.3397   2.9025256839e+02   5.3359099865e+00   0.01098283  0.005530787  -1.04 0.0007051682    4.412    0.773
       126  -7.4802    134.4832    110.4423   2.9095219353e+02   5.6984418362e+00  0.006494532  0.006468717   8.27 0.0008075666    1.012    0.012
       127  -8.5735    241.4130    106.6651   2.8969412792e+02   5.0985809323e+00   0.01720009  0.009176499 -36.61  0.001501651    2.272    0.560
       128  -7.5574    249.3675    107.3181   2.8960644474e+02   5.0431314332e+00  0.007203892  0.004930022 -24.37 0.0006861347    1.783    0.439
       129  -9.4409      4.7148    106.8384   2.9243135036e+02   6.5166443740e+00   0.01154137  0.009225837   2.04 0.0008132548    1.388    0.280
       130  -8.2583    190.4657    106.0272   2.9027811225e+02   5.4127284044e+00   0.01031171  0.004616559 -41.08 0.0008096425    2.628    0.619
       131  -9.5493      6.1032     94.5447   2.9233955939e+02   6.6498978289e+00   0.01580935   0.01008326  17.86  0.001284806    1.712    0.416
       132  -8.4324     23.0264     91.8725   2.9212712501e+02   6.5796575858e+00   0.01039947  0.008572462  59.35 0.0005923808    1.325    0.245
       133  -7.6298    242.4708     91.5251   2.8958816053e+02   5.2662250286e+00  0.006703596  0.006279985 -27.92 0.0002582532    1.081    0.075
       134  -9.6190      2.4937     89.0061   2.9234723943e+02   6.7351827499e+00   0.02207394  0.009591328 -76.23  0.001515256    3.816    0.738
       135  -9.0814      2.8612     80.9031   2.9229305045e+02   6.8262589316e+00   0.01045702  0.008749721 -28.51 0.0004975359    1.266    0.210
       136  -7.6406    214.3219     79.3366   2.8983745133e+02   5.5759718132e+00  0.007125297  0.004911446 -27.81 0.0007050438    1.711    0.416
       137  -8.1146    184.2583     77.7571   2.9017482743e+02   5.7751778489e+00   0.00929247  0.007500413 -28.70 0.0005159932    1.335    0.251
       138  -7.6767    102.4946     70.4210   2.9107477545e+02   6.3508802803e+00  0.006584898  0.006334488  55.64 0.0001547545    1.067    0.063
       139  -7.8282     36.3521     67.8021   2.9182432504e+02   6.7770639473e+00  0.009502888  0.005706618 -51.05  0.000367333    1.625    0.385
       140  -7.3134     25.0000     60.9821   2.9191372629e+02   6.9233591085e+00    0.0104617  0.003740697 -61.88 0.0003449898    2.780    0.640
       141  -8.0113    194.5092     59.4695   2.8994314248e+02   5.9236760782e+00   0.01241482  0.005292458 -50.06  0.000783219    2.278    0.561
       142  -7.2603     73.2949     60.2922   2.9135013533e+02   6.6424188603e+00  0.006759432  0.004957568 -26.86 0.0002937018    1.556    0.357
       143  -8.7204      1.3653     58.4570   2.9217198701e+02   7.0934738458e+00   0.01639693  0.006703504 -68.02   0.00124868    2.878    0.653
       144  -9.1066     33.0273     57.5576   2.9179959299e+02   6.9147978461e+00   0.01166435  0.009501811 -58.78 0.0003107467    1.214    0.176
       145  -8.7579     94.9843     52.7616   2.9105248453e+02   6.5990365357e+00   0.01088932   0.00943836 -68.43 0.0004916517    1.175    0.149
       146  -8.1942     44.0494     51.7086   2.9163578794e+02   6.9161888695e+00  0.009128382  0.008368756  20.43 0.0003496336    1.100    0.091
       147  -9.1244     95.6619     45.2943   2.9099844614e+02   6.6808398524e+00   0.01450592   0.01351148  -4.91  0.001782545    1.104    0.094
       148  -7.1291    136.7310     44.3192   2.9051716260e+02   6.4454672644e+00  0.006653623  0.005060773  68.43 0.0001783627    1.561    0.359
       149  -7.8054     54.3607     43.8706   2.9146790970e+02   6.9446516772e+00  0.009629498   0.00562773 -49.74 0.0004105121    1.680    0.405
       150  -7.3991     29.2845     44.3012   2.9176109229e+02   7.0896459872e+00  0.006767144  0.004927864 -28.63 0.0002279092    1.554    0.356
       151  -9.3800      4.0820     44.2295   2.9205271762e+02   7.2409348283e+00   0.01538953   0.01003794  21.34  0.001568723    1.608    0.378
       152  -8.2582      9.5584     42.5181   2.9197868090e+02   7.2279440152e+00  0.006500183  0.006443145 -58.55 6.787655e-05    1.016    0.015
       153  -8.0123     77.1496     40.1144   2.9118074159e+02   6.8513817917e+00   0.01004364  0.008526118 -24.56  0.000331166    1.255    0.203
       154  -8.6260     21.1070     40.1116   2.9182997750e+02   7.1866783408e+00  0.009623223  0.009464046  53.44 0.0003768874    1.037    0.036
       155  -9.5532     52.0176     38.4571   2.9146159013e+02   7.0209249326e+00   0.01152682  0.009341515 -59.21  0.000441582    1.222    0.181
       156  -7.4012     15.3138     39.2612   2.9189186692e+02   7.2310491066e+00  0.006644828  0.004989875 -21.88 0.0002381085    1.537    0.349
       157  -7.9091     92.2861     36.6897   2.9098428423e+02   6.8000172443e+00  0.009438656  0.007544167 -31.09 0.0003905279    1.337    0.252
       158  -8.3735     94.9372     33.6308   2.9093465728e+02   6.8192817667e+00   0.01085802  0.008578658 -44.32 0.0003692179    1.271    0.213
       159  -7.7131     73.5416     37.5051   2.9120638541e+02   6.9029994994e+00  0.006588982  0.006387369 -31.49 0.0001001511    1.027    0.026
       160  -7.4601    124.7276     34.6954   2.9059643362e+02   6.6282147565e+00  0.006735105  0.004910749 -29.94 0.0002690316    1.539    0.350
       161  -8.6832     14.3831     34.2551   2.9187173723e+02   7.2941752963e+00   0.01214674  0.007304562  47.04  0.001167653    1.799    0.444
       162  -9.8322      3.9231     33.2017   2.9198648165e+02   7.3687088966e+00   0.02037961   0.01627251 -72.76  0.002314081    1.319    0.242
       163  -9.5694      8.8701     32.4335   2.9192439150e+02   7.3480258619e+00   0.01862147   0.01223544 -83.17  0.001394715    1.908    0.476
       164  -9.1416      8.7749     27.5343   2.9189523548e+02   7.4049267785e+00   0.02374225  0.008331927  23.59  0.001330845    3.237    0.691
       165  -7.9046     41.5581     39.5394   2.9158945948e+02   7.0710436536e+00  0.006504606  0.006426448  76.04 7.435845e-06    1.035    0.034
       166  -9.1376     21.4890     31.4152   2.9177183024e+02   7.2844004632e+00   0.01776225   0.01080482  89.40   0.00108919    2.435    0.589
       167  -9.0146    144.0893     24.8227   2.9031125989e+02   6.6252943857e+00   0.01267208  0.009126687 -56.44 0.0002999751    1.361    0.265
       168  -8.9013     91.5246     25.0295   2.9092092887e+02   6.9386193640e+00    0.0118667  0.009522217  29.73 0.0003835449    1.245    0.197
       169  -8.7324      2.9096     23.4782   2.9193818315e+02   7.4865552824e+00   0.01514092   0.01096093  71.73  0.001232435    1.726    0.421
       170  -7.8425    172.3766     24.7351   2.8998359700e+02   6.4560759803e+00   0.00700692  0.004829322  56.17  0.000698626    1.674    0.402
       171  -7.8032    137.3158     22.0099   2.9037218898e+02   6.6983410477e+00  0.009120208  0.008419381 -64.09 0.0003749134    1.087    0.080
       172  -8.8105     84.6898     21.5642   2.9097862804e+02   7.0194330067e+00   0.01173447   0.01066479  87.20 0.0004597873    1.175    0.149
       173  -7.9211     59.5176     22.5810   2.9127651657e+02   7.1585613608e+00  0.006498033   0.00640802  -2.99 0.0002130206    1.013    0.013
       174  -8.8931     19.5727     19.2945   2.9171914554e+02   7.4351947758e+00   0.01430976  0.008437796 -56.65  0.001405527    1.642    0.391
       175  -8.6210     15.8734     19.1017   2.9176084068e+02   7.4594996175e+00   0.01401453  0.009193853  24.52 0.0006808196    1.557    0.358
       176  -7.5076    233.3438     19.3149   2.8924570781e+02   6.1507386471e+00  0.007087368  0.004950951 -25.12 0.0007047804    1.712    0.416
       177  -8.0513    161.7806     18.9059   2.9006996481e+02   6.5868281952e+00   0.01042178  0.008466574 -30.64 0.0006976324    1.311    0.237
       178  -7.4015    151.6789     18.2493   2.9018272178e+02   6.6551614043e+00  0.006662153  0.004892646  56.38 0.0003263157    1.532    0.347
       179  -9.3025    202.5432    248.8567   2.9102055151e+02   3.6967202004e+00   0.01629823   0.01162589 -21.34  0.001519815    1.687    0.407
       180  -7.6458    174.4475     16.4735   2.8990842201e+02   6.5384986313e+00   0.00654881  0.006407176 -34.03 -9.867988e-06    1.014    0.014
       181  -9.6085    206.4837    245.0209   2.9095150404e+02   3.7172006968e+00   0.01373812  0.007477697 -47.03 0.0008852136    1.850    0.459
       182  -9.5811    211.9653    246.6615   2.9089843635e+02   3.6654111417e+00   0.01341116  0.008531035 -61.11 0.0009455397    1.559    0.359
       183  -8.1292    151.1721     12.8110   2.9015486640e+02   6.7206799000e+00  0.009603581   0.00874951  66.94 0.0004732606    1.167    0.143
       184  -8.1474     27.9808     12.9702   2.9158257331e+02   7.4576594029e+00  0.008088386  0.007443132 -58.18 0.0003571519    1.079    0.074
       185  -7.7635     42.9942     11.4920   2.9139939600e+02   7.3848922639e+00   0.01064367  0.004536015  47.78 0.0001487582    2.855    0.650
       186  -8.7280    249.8032    244.6260   2.9044998115e+02   3.4615498637e+00   0.02429748  0.008572764 -40.48  0.001574532    4.062    0.754
       187  -9.8384    192.7195    248.6550   2.9113254580e+02   3.7580054807e+00   0.01570249   0.01237668 -35.46 0.0009864845    1.333    0.250
       188  -8.1530     66.0108    245.9998   2.9257808857e+02   4.5476367786e+00  0.007992946  0.007419603  24.20  0.000387788    1.083    0.077
       189  -7.5194    136.5211    245.5433   2.9176151668e+02   4.1308657395e+00  0.006646384  0.006331088 -26.57 0.0001232924    1.057    0.054
       190  -7.7052    219.5209    244.4844   2.9079795171e+02   3.6450888771e+00  0.006531177  0.006469184 -34.03  8.05699e-05    1.003    0.003
       191  -9.5024    171.3095    246.1487   2.9136396921e+02   3.9153137546e+00   0.01693729   0.01023059 -39.90  0.001294484    1.800    0.444
       192  -9.0787    177.0937    243.7094   2.9128225089e+02   3.9086885947e+00   0.01222235   0.01131626 -19.80  0.001492477    1.110    0.099
       193  -8.6882    150.5202    244.5150   2.9159369321e+02   4.0587933923e+00  0.006628565  0.006372345 -28.66 0.0002568657    1.042    0.040
       194  -9.7976      2.8737    243.4065   2.9329117453e+02   4.9543744010e+00   0.01155324   0.01075908 -79.86  0.001204839    1.108    0.098
       195  -9.1620    246.6553    242.6478   2.9047403493e+02   3.5032152966e+00   0.01073706  0.007503056 -25.55 0.0008210693    1.701    0.412
       196  -7.6079    242.3392    243.3356   2.9052798757e+02   3.5212371652e+00  0.007194516   0.00490766 -26.82 0.0007051325    1.754    0.430
       197  -9.5229    164.7792    246.2490   2.9143989732e+02   3.9533283444e+00   0.01333025   0.01139865  21.83 0.0002480147    1.186    0.157
       198  -8.5284    144.5188    248.4496   2.9168712732e+02   4.0494720381e+00   0.01916734  0.007026797 -38.56  0.001205367    4.335    0.769
       199  -8.7100    186.8157    239.6281   2.9114501457e+02   3.8973207768e+00   0.01166737  0.008517593 -48.91 0.0006401689    1.354    0.262
