#   1 NUMBER                 Running object number                                     
#   2 MAG_AUTO               Kron-like elliptical aperture magnitude                    [mag]
#   3 X_IMAGE                Object position along x                                    [pixel]
#   4 Y_IMAGE                Object position along y                                    [pixel]
#   5 X_WORLD                Barycenter position along world x axis                     [deg]
#   6 Y_WORLD                Barycenter position along world y axis                     [deg]
#   7 A_WORLD                Profile RMS along major axis (world units)                 [deg]
#   8 B_WORLD                Profile RMS along minor axis (world units)                 [deg]
#   9 THETA_WORLD            Position angle (CCW/world-x)                               [deg]
#  10 FWHM_WORLD             FWHM assuming a gaussian core                              [deg]
#  11 ELONGATION             A_IMAGE/B_IMAGE                                           
#  12 ELLIPTICITY            1 - B_IMAGE/A_IMAGE                                       
         1 -15.7181      7.1035     69.9931   1.3607947617e+02   6.1120780084e+01     1.454209    0.7012206 -66.52  0.004318886    1.592    0.372
         2 -15.6235     85.1184     66.1636   1.0746612393e+02   5.3133745358e+01     4.220204      2.29372 -12.55  0.009086616    6.991    0.857
         3 -15.4574    119.4329     54.6567   9.3350051440e+01   4.8415266200e+01     1.659465     1.074787  30.39  0.001870107    1.830    0.453
         4 -15.3453     57.8398     72.8833   1.1869482605e+02   5.5851013087e+01     1.658158     1.083348 -46.52  0.003716422    1.329    0.248
         5 -15.3032    122.5944     36.7095   8.6005650786e+01   5.0495430063e+01     1.589322      0.69002  44.06  0.004296578    2.341    0.573
         6 -13.5262    187.1059     13.2465   6.6625104888e+01   3.6969718373e+01    0.6930836    0.6089379 -10.54   0.00313159    1.313    0.238
         7 -14.3258    189.5258     26.4568   7.0225814018e+01   3.4852368197e+01     2.069016    0.7053783 -52.58  0.006193588    4.217    0.763
         8 -12.6642    195.0732     23.4795   6.8636266576e+01   3.3769945900e+01    0.8148764    0.3160886 -32.19  0.002729745    2.443    0.591
         9 -15.2425     42.0919      7.2339   9.9336445083e+01   6.9609544255e+01     1.753889     1.006369 -17.41  0.008079279    1.682    0.406
        10 -13.4269      8.1020      3.2306   1.1449418778e+02   7.3884071713e+01    0.5893641    0.4369431  21.22  0.004446977    1.586    0.370
        11 -14.1220     25.4351     31.9524   1.1820212448e+02   6.7580291444e+01    0.8139068    0.6212654 -79.62  0.005019806    2.105    0.525
        12 -15.2792      8.3804     29.3406   1.2523811661e+02   6.9380302441e+01    0.8719668    0.7838238  20.34  0.006871344    1.437    0.304
        13 -15.4377     14.4077     19.4117   1.1853581737e+02   7.0745254995e+01     1.261676    0.5922569 -33.00  0.006290334    1.877    0.467
        14 -14.0535     24.7147     14.2394   1.1106292416e+02   7.0673688524e+01    0.5009037    0.3520459  18.46  0.002405216    1.514    0.339
        15 -15.0824    166.3704     30.2712   7.4865302887e+01   4.0417825792e+01     1.493801     0.845346  69.14  0.003190565    1.770    0.435
        16 -14.9582    145.4561     30.8040   7.8825251876e+01   4.5718555418e+01     1.234646     0.685109  57.49  0.005477473    1.690    0.408
        17 -13.4404    232.3671      2.2126   5.9315488058e+01   2.6807709182e+01     1.626381    0.3769955  64.70   0.00573347    3.621    0.724
        18 -13.7598    214.7436      9.6243   6.2671674966e+01   3.0318960053e+01     1.058546    0.4698693  60.71  0.004653946    2.153    0.536
        19 -12.4149    222.6276     21.3680   6.4969167588e+01   2.7058027470e+01    0.4029563    0.3429357 -71.83 0.0009964793    1.056    0.053
        20 -14.3762    215.3775     20.7901   6.5561008259e+01   2.8920930858e+01     1.299256    0.4923965 -27.51  0.005073371    2.679    0.627
        21 -15.8327     99.6201     12.7469   8.2173847014e+01   5.8650659186e+01     1.476703    0.7703469  52.99  0.003282933    1.793    0.442
        22 -11.8119    202.1487     11.1570   6.4334718485e+01   3.3325895191e+01    0.2064459    0.1826087  49.05 0.0006742668    1.259    0.206
        23 -11.8677    162.2923      8.9051   6.8514962925e+01   4.3839622383e+01    0.3271795    0.1969015 -71.67  0.001471246    2.059    0.514
        24 -11.7677    126.0359      8.9887   7.4610055141e+01   5.2953590637e+01    0.2192305    0.1921761  37.32  0.001300553    1.066    0.062
        25 -11.4323    153.5387      8.0376   6.9506801655e+01   4.6173294123e+01    0.2201665    0.1723814  66.09 0.0004833539    1.171    0.146
        26 -12.3775    121.3075      4.2794   7.3694764357e+01   5.4518452101e+01    0.3563034    0.2069361  80.89  0.001619575    2.173    0.540
        27 -11.2547     67.8770      3.4464   8.7277609633e+01   6.5935658273e+01    0.2599985    0.1467953  -2.61  0.001327433    1.990    0.498
        28 -11.9327     26.5443      3.9589   1.0494487989e+02   7.1997609756e+01    0.2138088    0.1364852   6.62 0.0009582754    1.594    0.372
        29 -13.9708    218.9465     15.2326   6.3737878335e+01   2.8667454718e+01    0.8238803    0.5178696  50.52  0.003789833    1.793    0.442
        30 -12.2438     81.0739      1.8069   8.2297647550e+01   6.3593433695e+01     0.513293    0.1376306  51.47  0.001990626    3.105    0.678
        31 -10.7266     62.4846      1.5070   8.8156091504e+01   6.7091136382e+01    0.1226262    0.1014107   8.22 0.0008104176    1.013    0.013
        32 -11.2851     59.4745      1.5327   8.9259229297e+01   6.7605316659e+01    0.2450075    0.1678625  28.99   0.00142014    1.329    0.248
        33 -10.9987     33.0083      1.4410   1.0038327937e+02   7.1554348843e+01    0.1542383    0.1019193  28.45 0.0003658364    1.531    0.347
        34 -12.1645    194.6376    177.5378   1.0826073478e+02   8.1302204918e+00    0.2496438    0.2220312 -12.57  0.001001051    1.162    0.139
        35 -13.5681     55.0194    246.9722   1.4369822153e+02   1.8842515826e+01    0.8202721    0.4549474  30.10  0.004751341    2.743    0.635
        36 -14.2161     27.2397    245.0367   1.4804407253e+02   2.2421230237e+01    0.8420085     0.406002 -86.09  0.005633167    1.857    0.461
        37 -13.4910     10.7359    210.6846   1.4902961582e+02   3.0331856019e+01    0.6903107    0.4467432  48.32   0.00510885    1.475    0.322
        38 -12.4823     24.5671    217.4499   1.4700941751e+02   2.7648126547e+01    0.4570504    0.2649552  76.70  0.002756637    1.335    0.251
        39 -13.8590     25.7378    227.5592   1.4737866847e+02   2.5654860408e+01    0.5867946    0.2960375 -62.62  0.003692346    2.360    0.576
        40 -13.7113     20.3997    224.4103   1.4810100670e+02   2.6795531988e+01     0.385678    0.3083912  63.46  0.001679161    1.287    0.223
        41 -11.9202      2.7715    249.9767   1.5196833242e+02   2.4121958903e+01    0.2783213    0.1356265  50.82  0.002062752    1.529    0.346
        42 -14.3582      9.0874    245.7224   1.5086982955e+02   2.4208342556e+01    0.7176639     0.326984  59.13  0.003188744    1.513    0.339
        43 -11.6360    177.0368    168.2088   1.0992009746e+02   1.3240200424e+01    0.2883149    0.1808052 -15.93  0.001186767    2.615    0.618
        44 -10.8548    192.3294    164.3284   1.0606951212e+02   1.0855440108e+01    0.1471399     0.108273   8.88 0.0007051229    1.709    0.415
        45 -11.6611     27.2711    158.2694   1.4209049082e+02   3.9576265410e+01    0.2872538    0.1911713  60.85  0.001824292    1.392    0.282
        46 -12.3906     25.0460    155.8443   1.4236132332e+02   4.0331003644e+01    0.3872919    0.2812041 -31.71  0.002371632    2.221    0.550
        47 -12.5172     77.6263    157.2055   1.3027339134e+02   3.3690235403e+01    0.4149707    0.2784264  42.45  0.001322443    1.537    0.349
        48 -13.1148     74.2013    153.4796   1.3053859120e+02   3.5035398107e+01     0.598196    0.4578361  32.84  0.003185224    1.563    0.360
        49 -11.6118    154.9953    157.5040   1.1242304530e+02   1.9768311382e+01    0.2160975    0.1219971  65.36 0.0008106172    2.628    0.619
        50 -12.9043    122.2910    155.2425   1.1937594727e+02   2.6657633511e+01    0.5123137     0.339616 -43.35  0.002462152    1.698    0.411
        51 -11.5299    113.0042    157.0000   1.2186874533e+02   2.7969742895e+01    0.3117688    0.2031489  40.01  0.001521713    1.580    0.367
        52 -11.6640    110.2405    154.2470   1.2202510516e+02   2.9070920175e+01     0.354476    0.2315261 -76.17  0.001670337    1.767    0.434
        53 -11.6188     55.4802    156.1989   1.3537396428e+02   3.6915168517e+01    0.2742728    0.2165212   9.82  0.001423918    1.969    0.492
        54 -12.5694    211.0688    155.7603   1.0067176798e+02   8.5426697055e+00    0.5706903    0.1568049  47.97  0.001816788    3.663    0.727
        55 -12.0861     85.7420    152.9428   1.2767161548e+02   3.3439778285e+01    0.4807759    0.2543816 -46.26  0.002141081    2.254    0.556
        56 -12.1248    103.5782    149.8709   1.2282962498e+02   3.1217573176e+01    0.3471053    0.2925906 -34.44   0.00167923    1.482    0.325
        57 -12.1295      6.2715    147.8199   1.4589462794e+02   4.3727290471e+01    0.3982683    0.2267278  89.00  0.002461261    1.403    0.287
        58 -11.7510    244.7070    148.0237   9.3120540763e+01   3.1990100862e+00    0.2015399    0.1676663 -18.80  0.001185628    1.090    0.083
        59 -10.9688     38.2562    145.7850   1.3820599663e+02   4.1278681325e+01    0.1649051    0.1293016 -59.12 0.0007197281    1.351    0.260
        60 -11.2515     44.5453    145.1309   1.3659534860e+02   4.0744377117e+01    0.1774946    0.1542523  76.26 0.0004940064    1.132    0.117
        61 -11.7884    149.0413    140.7128   1.1019548457e+02   2.4457630226e+01    0.3165942    0.2529275 -74.73  0.001465435    1.438    0.305
        62 -11.5765     89.1903    140.7966   1.2474520337e+02   3.5691198761e+01    0.2881536    0.1985242 -24.12  0.001288277    2.492    0.599
        63 -13.3051     42.8699    139.5899   1.3629645661e+02   4.2210706399e+01    0.6500478    0.2240368 -58.63  0.002469474    2.472    0.596
        64 -10.9201     56.7398    137.4147   1.3246946513e+02   4.1098078214e+01     0.158887    0.1311064  20.41 0.0009458445    1.614    0.380
        65 -12.0119    246.2136    135.3272   9.0078712745e+01   4.8497924037e+00      0.33751    0.2225448  88.03  0.001345499    3.571    0.720
        66 -12.0031     62.4560    134.3102   1.3050597279e+02   4.1097557542e+01     0.426055    0.2450269  48.30  0.001553535    1.811    0.448
        67 -12.3265    230.5969    135.2024   9.2612680884e+01   7.9769942092e+00    0.2083007    0.1282497 -23.14 0.0009585393    1.712    0.416
        68 -11.7852    137.0307    133.1707   1.1131147337e+02   2.8575145769e+01    0.3437359    0.2165604  33.23  0.001087431    1.879    0.468
        69 -12.9892    132.9924    128.9626   1.1132279355e+02   3.0326472692e+01    0.9526264    0.3733186 -43.90  0.003315862    2.658    0.624
        70 -12.2987    110.9500    131.6608   1.1741382500e+02   3.4038740275e+01     0.476751    0.3610964   2.86  0.002200422    2.113    0.527
        71 -13.3066    109.8242     95.9836   1.0904023016e+02   4.2286383695e+01    0.5348736    0.3924506 -83.58 0.0003429666    1.852    0.460
        72 -13.3664     84.5700    115.5940   1.2097271270e+02   4.2308458929e+01     1.009403    0.5671854  23.59  0.004166109    2.721    0.632
        73 -14.1440     89.9482    109.4037   1.1806304450e+02   4.2870258524e+01     1.266315    0.8311297  23.04  0.005808854    2.098    0.523
        74 -14.6550    104.8491    122.9890   1.1710124638e+02   3.7140458357e+01     1.815145    0.9598733  38.14  0.007663581    2.072    0.517
        75 -15.3291    106.2241    108.7762   1.1338342120e+02   4.0129802498e+01     1.934685     1.406728 -61.88  0.009467007    1.384    0.278
        76 -14.9485     18.1637    110.8049   1.3903764417e+02   5.1191158958e+01    0.9578605    0.8315957 -46.91  0.004902975    1.329    0.248
        77 -15.9101     25.4457     94.7467   1.3442582227e+02   5.4305171251e+01     2.026198     1.373076 -19.65    0.0118047    2.045    0.511
        78 -11.3476    185.0327    124.0599   9.8450475511e+01   1.9873858433e+01    0.2326543    0.2075233 -86.51 0.0004482516    1.275    0.215
        79 -11.5813    180.6607    121.1053   9.8617674717e+01   2.1440068957e+01      0.37881    0.2253475  49.46   0.00109659    1.691    0.408
        80 -12.7113      4.0634    119.8661   1.4391395385e+02   5.0128878994e+01    0.4302151    0.1898742  24.46  0.002338575    2.874    0.652
        81 -11.5304     51.6459    116.7906   1.3049236566e+02   4.6561119745e+01    0.3533866    0.1194591 -73.00  0.001098466    4.292    0.767
        82 -12.3647    176.6070    111.3509   9.6979925627e+01   2.4270839325e+01     0.415878    0.3276434 -33.00  0.002007044    1.294    0.227
        83 -12.4098     45.6565    109.9022   1.3099369330e+02   4.8855991069e+01    0.5193476    0.3013864 -45.63  0.002675402    1.794    0.443
        84 -14.9662     30.0935    118.8564   1.3682930535e+02   4.8321341108e+01     2.739445    0.3806361 -58.72  0.009070706    4.155    0.759
        85 -11.7621     62.4747    110.5020   1.2620554878e+02   4.6701468113e+01    0.6300034    0.3046593 -77.61  0.002384793    3.023    0.669
        86 -13.1419     62.5646     99.7581   1.2390561494e+02   4.9197335768e+01    0.8075335    0.4753478 -73.83  0.003466193    1.924    0.480
        87 -13.0499    137.2965     96.3819   1.0190957685e+02   3.6405259351e+01    0.5497084    0.3697376 -51.29  0.001493599    1.509    0.337
        88 -13.0178    134.9557    103.2158   1.0438276943e+02   3.5490760329e+01     1.016583    0.3734116  50.61  0.002678257    2.906    0.656
        89 -13.5871    122.8524    102.1381   1.0719746138e+02   3.8310425650e+01    0.5015395    0.4734247  24.74  0.002715056    1.152    0.132
        90 -13.8171     49.7169     98.8880   1.2766306022e+02   5.0974414677e+01    0.7909449    0.6058809   1.76  0.003427647    1.790    0.441
        91 -13.2968     43.0123     90.8754   1.2810041239e+02   5.3555012915e+01    0.7949296    0.2224012 -60.19  0.002978381    2.873    0.652
        92 -12.3566    128.2390     95.9279   1.0408148985e+02   3.8495781488e+01    0.3495795    0.2240593  64.24  0.001458157    1.959    0.490
        93 -11.3737     76.0710     95.6909   1.1882517482e+02   4.8226826189e+01    0.2153425    0.1763358 -65.08 0.0001843213    1.157    0.136
        94 -14.9673    160.8944     80.5129   9.1760979770e+01   3.3948897045e+01     1.899183     1.276652  18.64  0.001390711    2.270    0.559
        95 -14.7403    170.8394     76.9977   8.8625451927e+01   3.2115737164e+01      1.36565     1.115899  85.70  0.006626861    1.393    0.282
        96 -12.0004     89.6072     87.5668   1.1256187087e+02   4.7859204495e+01    0.4019608    0.2621519  52.44  0.001909686    1.766    0.434
        97 -13.2899    134.9184     79.6319   9.7570562461e+01   4.0317894016e+01    0.8976724    0.4400288  52.69  0.002527122    2.126    0.530
        98 -12.5598    126.2170     85.9991   1.0173363612e+02   4.0997613583e+01    0.6013741    0.4398149  26.09  0.002755293    1.683    0.406
        99 -12.9434    132.6972     86.1081   1.0009175164e+02   3.9539235771e+01    0.4112967    0.3205208  51.29  0.001180044    1.316    0.240
       100 -13.4374    188.5377     84.4634   8.7315354731e+01   2.6377694808e+01    0.7676287     0.377343  46.89  0.001620375    2.141    0.533
       101 -13.0258    238.6830     81.2589   7.8364898360e+01   1.4916234504e+01    0.7665258    0.4533659 -77.07  0.003050603    2.827    0.646
       102 -14.4853      2.5340     96.7895   1.4171833327e+02   5.5425638004e+01     1.276547    0.4741194 -76.96  0.006107969    2.238    0.553
       103 -14.6015     94.9010    236.5197   1.3605294328e+02   1.5222294622e+01     0.999675    0.5411311  69.94  0.004734125    2.003    0.501
       104 -12.1125      5.6538     50.8536   1.3258104731e+02   6.5275813914e+01    0.2780996     0.169829 -45.92  0.001281343    1.312    0.238
       105 -12.2103    113.8867     80.5911   1.0343248402e+02   4.4727240495e+01    0.4089246    0.3557972 -55.08  0.001488588    1.156    0.135
       106 -12.7866    171.1240    241.1281   1.2295441315e+02   2.5470948257e+00    0.1886988      0.14463  27.13  0.001264618    1.272    0.214
       107 -13.8951    133.1678     67.4766   9.4158574043e+01   4.3014519054e+01      1.26056    0.8922223  41.35   0.00427519    1.469    0.319
       108 -14.4849    101.1774     50.1375   9.6846255301e+01   5.3089483280e+01    0.9101575    0.6952521  65.50  0.002499055    1.644    0.392
       109 -12.1074    146.9313    238.6246   1.2694593822e+02   6.8211213569e+00    0.2015267    0.1715493 -85.35  0.000994396    1.415    0.293
       110 -13.8460    124.0594    166.6395   1.2103769538e+02   2.3883445252e+01    0.7220228    0.4576191 -68.64  0.003436971    1.803    0.445
       111 -13.3413    111.2808     42.0202   9.0930651598e+01   5.2273435501e+01    0.5292039    0.3184337  42.88  0.001403171    1.662    0.398
       112 -12.2182    145.0171    231.4783   1.2640720969e+02   8.2257927779e+00    0.2461886    0.1551639 -44.93  0.001449275    2.018    0.504
       113 -12.1843    219.2333     75.0861   7.9587353532e+01   2.0411949116e+01    0.4077058    0.2358954 -30.08  0.001555678    1.714    0.417
       114 -13.0125    210.7943     77.3315   8.1494628532e+01   2.2095065516e+01    0.7779505     0.477446 -74.41  0.002697491    2.481    0.597
       115 -11.2989     90.4853     80.9859   1.1040141788e+02   4.9130586610e+01    0.2665141    0.2294254 -78.25  0.001452392    1.328    0.247
       116 -11.1461     92.4853     78.5107   1.0904912879e+02   4.9300239093e+01    0.2395535      0.22041 -37.82 0.0009123237    1.026    0.026
       117 -12.6473     41.8437     77.2109   1.2537902373e+02   5.6760518547e+01    0.3202149     0.232816 -54.35 0.0004985247    1.140    0.123
       118 -11.7133    100.4239     64.9312   1.0229297048e+02   5.0549348793e+01    0.3152566    0.2488961 -10.94 0.0009685212    1.456    0.313
       119 -12.0180    158.1346     63.9575   8.7280485986e+01   3.7567345722e+01    0.3985011    0.1989479 -44.55  0.001531349    2.053    0.513
       120 -13.6427    198.9497     70.4594   8.1543806937e+01   2.6144736797e+01    0.9892122    0.5046249  45.18  0.003244056    2.198    0.545
       121 -13.7380     79.1918     60.4020   1.0748174999e+02   5.5278100783e+01    0.6870519     0.495483 -13.65  0.003512515    1.675    0.403
       122 -14.0203    177.8328     57.3788   8.1391323206e+01   3.3614779757e+01    0.8897451    0.6188482 -54.60  0.002443752    1.539    0.350
       123 -12.3735     38.8944     60.4730   1.2200223827e+02   6.0677788634e+01    0.2964681    0.2317711  87.80   0.00176923    1.754    0.430
       124 -12.4406     24.5624     60.2691   1.2742884990e+02   6.2028691193e+01    0.2711425    0.1853686 -54.92 0.0006503434    1.165    0.142
       125 -13.4192     39.3972     67.9297   1.2388284740e+02   5.9042099791e+01    0.8380274    0.4190064  23.48  0.004162429    2.496    0.599
       126 -11.9385    248.0213     55.0146   7.0722865335e+01   1.6676182627e+01    0.4750116    0.2363642 -56.96  0.002017824    2.252    0.556
       127 -12.7352    250.1724     48.7037   6.8961098020e+01   1.7062198837e+01    0.4289077    0.3172875   8.57 0.0005392145    1.992    0.498
       128 -12.0180    230.2963     55.0506   7.2829064296e+01   2.0782230492e+01    0.3444759    0.1947536 -89.79  0.001422186    2.437    0.590
       129 -12.7898     64.4928     50.6776   1.0920341579e+02   5.9451082818e+01    0.4476626    0.3688585  48.46  0.002680297    1.481    0.325
       130 -12.9777     68.9160     48.3259   1.0674513936e+02   5.9219113856e+01    0.6573597    0.4563477 -81.02  0.002884898    3.130    0.680
       131 -10.6295     36.6549     53.2841   1.2071901913e+02   6.2387154131e+01    0.1133333    0.0952542  81.95 0.0002984917    1.643    0.392
       132 -11.7857     86.3100     49.4929   1.0123135462e+02   5.6068790041e+01    0.2431629    0.2045722 -25.47 0.0005593189    1.104    0.095
       133 -13.2629     57.4386    202.4427   1.3988054416e+02   2.6730828230e+01    0.8555204    0.2886222 -73.51  0.003778258    3.033    0.670
       134 -13.2081     53.0795    214.3300   1.4170396655e+02   2.4952151483e+01    0.4842299    0.2248335  62.52  0.002644414    1.928    0.481
       135 -13.7574     68.2286    222.4895   1.3960022980e+02   2.1454748047e+01    0.5966827    0.4713658 -57.47  0.004168973    1.705    0.413
       136 -14.3435    217.5885     41.9843   7.0978618413e+01   2.5701581321e+01     1.289213    0.5813577  63.67  0.005033874    2.188    0.543
       137 -13.4714    205.2194     40.2537   7.2096751856e+01   2.9047641168e+01    0.8024266    0.4229858 -87.77  0.003033486    2.727    0.633
       138 -13.1896    154.1591     46.5769   8.2474550875e+01   4.1335565973e+01     0.899424    0.2438497  55.12  0.002770239    3.296    0.697
       139 -13.2774    169.0043     43.2388   7.8578107622e+01   3.8005219925e+01    0.7696425    0.2881138  56.08  0.002754841    2.466    0.594
       140 -13.4798    159.2066     43.5865   8.0495288620e+01   4.0483532888e+01    0.7093619     0.369985  57.07  0.002565378    1.829    0.453
       141 -13.6396      9.0075     42.8884   1.2911481813e+02   6.6707956731e+01    0.6981992    0.5138668  52.49  0.004629378    1.945    0.486
       142 -13.1149     34.3109     33.0281   1.1464784291e+02   6.6514110887e+01    0.3850684     0.274345  40.36  0.001753138    1.818    0.450
       143 -14.6320     62.8894    214.9083   1.3993642371e+02   2.3586844786e+01    0.9691795    0.6648792  71.59  0.006464663    1.183    0.154
       144 -13.8316     98.7877    216.9050   1.3335115800e+02   1.8107423296e+01    0.4802929    0.3675682 -83.41   0.00315271    1.330    0.248
       145 -13.7051     94.5016    218.7654   1.3436488034e+02   1.8413446394e+01    0.3991075    0.2442044  56.04  0.002068787    1.359    0.264
       146 -11.6771     85.2803    215.9686   1.3582435454e+02   2.0291825691e+01    0.2802631     0.133192  49.79  0.001484192    1.740    0.425
       147 -10.5451    157.6378    213.3132   1.2156166590e+02   8.9981413667e+00    0.1316482   0.09144936  67.69 0.0007041287    1.755    0.430
       148 -11.0871    136.7294    211.0334   1.2527858109e+02   1.3004694965e+01     0.174284    0.1577339  68.69 0.0008066465    1.102    0.092
       149 -11.6708     25.6905     43.0023   1.2195682517e+02   6.5462902549e+01    0.1752024    0.1253764 -45.55  0.000401166    1.113    0.101
       150 -12.9639     75.7956     37.5578   1.0012220884e+02   5.9960129661e+01    0.3361693    0.2455697  35.85 0.0008104181    1.419    0.295
       151 -12.5421     70.5458     36.3786   1.0149561651e+02   6.1036234169e+01     0.313411    0.2238832  13.64 0.0009751503    1.562    0.360
       152 -12.7031    243.0511     36.3193   6.6686277003e+01   2.0328140994e+01    0.7679673    0.3081395  79.35  0.002882081    3.232    0.691
       153 -12.7002    105.2715     35.2176   8.9958606842e+01   5.4595036698e+01    0.5458985    0.2697199 -20.89  0.002197028    2.452    0.592
       154 -12.0593     45.4554     36.5035   1.1126104390e+02   6.4621078096e+01    0.2063371    0.1725328 -13.99 0.0007034794    1.108    0.098
       155 -12.8477     47.3813     32.1643   1.0871596350e+02   6.5137033244e+01    0.4107227    0.2468715 -11.97  0.001822815    2.125    0.529
       156 -11.8892     80.0517    208.5553   1.3607589241e+02   2.2459144725e+01    0.2604581    0.1156278  55.05  0.001281297    2.025    0.506
       157 -13.4219    139.6655     21.7414   7.6725163672e+01   4.8267607086e+01    0.7135527    0.4537435  65.83  0.001802922    1.550    0.355
       158 -13.1189    152.1589     31.3593   7.7731177812e+01   4.3946486437e+01      0.41629    0.3328758 -16.52  0.001234475    1.355    0.262
       159 -11.8422     71.8707    206.6062   1.3746947236e+02   2.3988005162e+01    0.2504634    0.2154466  66.64  0.001762655    1.177    0.150
       160 -11.5229     51.4731     36.4281   1.0877948002e+02   6.3865685858e+01    0.3128181    0.1216045  35.35  0.001378806    2.852    0.649
       161 -11.8822    211.4789     33.3121   6.9379594803e+01   2.8371740997e+01    0.2503629    0.2118183 -81.44 0.0004062941    1.130    0.115
       162 -10.5566    149.5083    206.5474   1.2213442224e+02   1.1565550248e+01    0.1304437    0.1122736  47.15 0.0001280525    1.027    0.027
       163 -12.8843     41.8444    201.1257   1.4276802894e+02   2.8899051872e+01    0.2379209    0.1665707  75.62  0.001393449    1.109    0.098
       164 -12.9613     39.3536    195.0135   1.4276403050e+02   3.0423256335e+01    0.4274454    0.2920303  76.08  0.002303552    1.158    0.136
       165 -12.4757     16.1201    197.5274   1.4733875491e+02   3.2372551333e+01    0.4690935    0.1582317 -61.98  0.002330872    3.079    0.675
       166 -12.5610     97.1499     28.1162   8.9394324023e+01   5.7307184597e+01    0.5729385    0.2478388 -29.85  0.002399948    2.286    0.562
       167 -13.1289     56.2450     27.6889   1.0321055063e+02   6.4655297639e+01    0.4441701    0.3029561  37.50  0.001841837    1.604    0.376
       168 -11.8374    249.1011    197.9988   1.0243020628e+02  -4.5234290712e+00    0.3419062    0.1661469 -45.46   0.00158065    3.046    0.672
       169 -11.5520     70.7805     16.9866   9.2883885753e+01   6.3843250752e+01     0.201845    0.1683338  25.62 0.0004224288    1.152    0.132
       170 -10.5929     60.3024     15.3353   9.5930754553e+01   6.5827086498e+01    0.1300571   0.08525831   3.54 0.0003064469    1.662    0.398
       171 -12.7357    164.2931    194.5235   1.1730942489e+02   1.0982098253e+01    0.6319293    0.3310249 -58.98  0.002780751    2.654    0.623
       172 -13.3913     29.9895    169.8851   1.4255901546e+02   3.6748819641e+01    0.7086338    0.5999829 -79.84  0.005116103    1.243    0.196
       173 -13.6367     22.4009    181.1057   1.4503485347e+02   3.5115970808e+01    0.5524042    0.4710734  82.48  0.003138188    1.223    0.182
       174 -14.8975      8.1831    183.5524   1.4798343957e+02   3.5943106755e+01     1.037757    0.7747583  73.28  0.007851037    1.102    0.093
       175 -15.1619     15.3837    175.3164   1.4602449183e+02   3.7007001025e+01     2.255361      1.00696  75.52   0.01160717    2.124    0.529
       176 -12.3017    201.3043    191.7039   1.0966251379e+02   4.5896115297e+00     0.317818    0.2707653  25.88  0.001953826    1.050    0.048
       177 -10.5051    107.5090    193.4684   1.2876441101e+02   2.1224669294e+01    0.1305414    0.1129681  66.07 0.0001896233    1.033    0.032
       178 -11.6607    122.3704    181.6987   1.2390528285e+02   2.1065426906e+01     0.438805    0.2469328  77.98  0.001688465    3.206    0.688
       179 -11.1237    109.4791    183.5050   1.2695082440e+02   2.2918306352e+01    0.1339424    0.1179467  69.44 0.0002699892    1.023    0.023
       180 -12.2813     48.7838    181.1952   1.3964068902e+02   3.2208561521e+01     0.438837    0.2612022 -62.00  0.002556422    1.707    0.414
       181 -12.5633     85.2501    180.0741   1.3171667191e+02   2.7507661684e+01    0.4374726    0.2663907  74.38  0.002226729    1.802    0.445
