#   1 NUMBER                 Running object number                                     
#   2 MAG_AUTO               Kron-like elliptical aperture magnitude                    [mag]
#   3 X_IMAGE                Object position along x                                    [pixel]
#   4 Y_IMAGE                Object position along y                                    [pixel]
#   5 X_WORLD                Barycenter position along world x axis                     [deg]
#   6 Y_WORLD                Barycenter position along world y axis                     [deg]
#   7 A_WORLD                Profile RMS along major axis (world units)                 [deg]
#   8 B_WORLD                Profile RMS along minor axis (world units)                 [deg]
#   9 THETA_WORLD            Position angle (CCW/world-x)                               [deg]
#  10 FWHM_WORLD             FWHM assuming a gaussian core                              [deg]
#  11 ELONGATION             A_IMAGE/B_IMAGE                                           
#  12 ELLIPTICITY            1 - B_IMAGE/A_IMAGE                                       
         1 -12.1474      3.9136     48.7277   8.5943323916e+01   6.9249830300e+01     1.256328     0.189501 -54.04  0.004203355    3.604    0.723
         2 -10.9549     71.1787     25.6234   3.9567836730e+01   6.3438847632e+01    0.2933648     0.237316 -27.34  0.001651326    1.314    0.239
         3 -12.5207      3.1831     14.5676   7.3229462788e+01   7.6654062298e+01    0.5057155    0.3005027 -52.66  0.001340292    1.656    0.396
         4 -10.5194    130.3909     13.5835   2.1234459752e+01   5.0239033506e+01    0.2595854    0.2027442 -37.62 0.0008089273    1.331    0.249
         5 -12.4989    132.9696     18.9365   2.2727355802e+01   4.9047512963e+01    0.3830042    0.2540597  64.96 0.0003919592    1.399    0.285
         6 -10.6784     30.9010     13.6887   5.1498724460e+01   7.3163949360e+01    0.5650291    0.4005716  47.86  0.003240481    1.539    0.350
         7 -10.8952     19.8146     16.8432   6.0972012092e+01   7.4372771280e+01    0.3810834    0.3270084  49.44  0.002413322    1.522    0.343
         8 -10.9115     11.4402     14.5936   6.6103254674e+01   7.5815393857e+01    0.4209208    0.2131509 -19.45  0.001848381    2.776    0.640
         9 -10.1686     15.0371     13.4962   6.2512258419e+01   7.5569037765e+01    0.1980974    0.1586645 -24.26 0.0003955935    1.150    0.130
        10 -11.7246    248.9410     20.5061   1.3241164196e+01   2.3551532370e+01    0.2951006    0.1199251 -36.86  0.000376563    1.833    0.454
        11 -11.4987    248.9502     14.7845   1.2099568742e+01   2.4155709631e+01    0.2621561    0.1249097 -58.05  0.001587871    1.676    0.403
        12 -11.2168     76.6627     15.3060   3.2734088841e+01   6.3418499129e+01    0.6986537    0.2166599  51.61  0.002217667    2.697    0.629
        13 -11.0371     77.3303      9.8899   2.9855618972e+01   6.3813631814e+01    0.7141922     0.309211  42.80  0.002104461    2.352    0.575
        14 -10.6506     73.1826     10.6034   3.1375993924e+01   6.4728796082e+01    0.5209611    0.2726035  25.02  0.002186393    2.718    0.632
        15 -13.0787    237.9489     17.5691   1.3209341343e+01   2.5840469209e+01      0.37296     0.232022 -60.26 0.0005507972    1.290    0.225
        16 -12.1680    234.4604     10.1477   1.1836809995e+01   2.7260980936e+01    0.2998483    0.2687001  62.34  0.001321449    1.524    0.344
        17 -10.9134     53.8085     14.1668   4.0103639700e+01   6.8694516609e+01    0.4373535    0.1937587  36.70  0.001804564    2.508    0.601
        18 -11.1298     60.2593     13.6272   3.7254400207e+01   6.7362478074e+01    0.3647435    0.2675825 -39.27  0.001474723    1.528    0.346
        19 -10.0561    100.4762     11.3593   2.5242659468e+01   5.7989694427e+01    0.5619446    0.3439835  22.35  0.001925236    2.223    0.550
        20  -9.7934    159.8549      8.8303   1.6424084369e+01   4.3432434056e+01    0.1823585    0.1633008  82.12 0.0004303141    1.147    0.128
        21 -10.6194    154.7386      8.3890   1.6767390470e+01   4.4707800927e+01     0.370836     0.209206  86.52  0.001256798    1.667    0.400
        22 -12.0841    119.5178     11.7409   2.2130762064e+01   5.3156703687e+01    0.2621767      0.23792  64.35 0.0002133791    1.105    0.095
        23  -9.2817    116.5815      7.5317   2.0984251068e+01   5.4280987148e+01    0.1779334    0.1650239  78.82 0.0006024975    1.063    0.059
        24 -10.4775    176.7703     11.0598   1.5615970218e+01   3.9237280286e+01    0.3139965    0.2285532 -71.00  0.001908879    1.192    0.161
        25 -11.0307    145.8716      6.4179   1.7025821999e+01   4.7053946139e+01    0.3878006    0.2310476 -32.19  0.001712639    1.702    0.413
        26 -12.2022     28.3616     19.6949   5.6825287498e+01   7.2650000755e+01    0.4126845    0.2667606  34.02  0.002270481    1.479    0.324
        27 -10.9149      9.3742      8.3698   6.3836410210e+01   7.7123397431e+01    0.3821325    0.2958694   1.89  0.002479744    1.151    0.131
        28 -10.8217     11.4721      2.1117   5.7397484650e+01   7.7832928618e+01     0.242122    0.1721565  -3.87 0.0006428958    1.371    0.271
        29  -9.6607     64.9806      8.5015   3.2774008421e+01   6.6844407772e+01    0.1990925    0.1197936  60.60 0.0004779697    1.528    0.346
        30 -10.9163     36.3682      7.6828   4.4352771941e+01   7.2982206624e+01    0.4018508    0.2207069  49.71  0.001000884    1.748    0.428
        31  -9.4000     24.4521      8.3951   5.2117047687e+01   7.4989867492e+01    0.1249546    0.1057017  12.81 4.495043e-06    1.019    0.018
        32 -10.6818    214.9955      6.9925   1.2128987681e+01   3.1365548831e+01    0.2084932   0.09887773 -57.70  0.001142788    1.732    0.422
        33  -9.7783     91.5897      7.1596   2.5187636730e+01   6.0585144507e+01    0.1653286    0.1257612   9.85 0.0004059864    1.572    0.364
        34 -10.4899     16.8993      2.7948   5.3479622448e+01   7.6952998069e+01    0.2437834    0.1592974 -30.89  0.001177702    1.531    0.347
        35  -8.7449     20.4067      6.3709   5.3524152134e+01   7.5916595637e+01    0.4783068    0.2497353 -25.19  0.002394611    2.127    0.530
        36 -10.1473     34.5207      1.3965   4.0956855837e+01   7.4054116909e+01    0.5689033     0.126312  55.47  0.001694933    5.401    0.815
        37 -11.0044     26.8099      2.3261   4.6140626694e+01   7.5380323239e+01     0.263044     0.198702  41.69 0.0005723962    1.269    0.212
        38 -10.4040     22.6383      1.6796   4.8404341806e+01   7.6179858699e+01    0.2226917     0.145887  22.94  0.001282648    1.475    0.322
        39 -10.7666    223.0251      5.5238   1.1399175319e+01   2.9913480185e+01    0.2054547     0.140638 -40.72 0.0003800399    1.266    0.210
        40 -11.3413    229.6833      4.6910   1.0911036200e+01   2.8709240711e+01    0.2610934    0.1588477 -84.50  0.001688724    1.552    0.356
        41 -11.0524    229.9722      1.4774   1.0220772978e+01   2.8966757445e+01    0.3099421    0.1633229 -50.57 0.0005403829    1.403    0.287
        42 -10.7029    164.6806      4.9053   1.4873948097e+01   4.2646967478e+01    0.2314067    0.1733204 -64.39 0.0004245912    1.159    0.137
        43 -11.3667    168.1752      1.9784   1.3778965859e+01   4.2087287826e+01    0.2118216    0.1577585 -85.26  0.000284477    1.171    0.146
        44 -11.0544    126.2390      3.1427   1.8085869515e+01   5.2220464697e+01    0.3948638     0.299589  20.52  0.001894234    1.690    0.408
        45  -9.4058     68.1922      5.3614   3.0067268986e+01   6.6396902005e+01     0.193922    0.1175049  73.67 0.0009589585    1.763    0.433
        46  -9.4239      1.0000      5.0349   6.9424520360e+01   7.8583975866e+01    0.1728405   0.06218372 -50.74 0.0003275295    2.712    0.631
        47 -12.2769    241.8806      3.0066   1.0048846209e+01   2.6607369800e+01    0.5758905    0.2181149  85.25  0.002802018    2.771    0.639
        48 -11.0978     90.9644      2.1175   2.3025084229e+01   6.1156694314e+01    0.1998881    0.1814249  66.81 0.0002845643    1.030    0.030
        49  -9.3044     87.2889      1.6744   2.3542560607e+01   6.2100242715e+01    0.1357936    0.1179282  59.28 0.0003772416    1.041    0.039
        50 -11.0106     73.8713      1.8827   2.6669765067e+01   6.5348215698e+01    0.3368009    0.2172397  84.73  0.001452669    1.746    0.427
        51 -10.5269    178.9969      3.8080   1.3510506676e+01   3.9421824315e+01     0.197319    0.1542811 -49.75 0.0002461535    1.161    0.139
        52  -9.5191     97.8124      3.5747   2.2408427193e+01   5.9335666022e+01     0.172002    0.1170386  83.89 0.0003770789    1.426    0.299
        53  -9.5985    141.0256      1.5494   1.5944762981e+01   4.8667601375e+01    0.1892892    0.1134014  80.20 3.052834e-06    1.488    0.328
        54 -10.1684      2.2816    180.3068   1.0155884039e+02   3.5358281724e+01    0.2472781     0.151573  28.40  0.001244544    1.603    0.376
        55 -10.7805    247.3177    250.0664   5.5854907521e+01  -6.0581746084e+00    0.1750094    0.1036258   6.44  0.001310624    1.336    0.252
        56 -10.9181     90.2902    249.4411   8.5268493612e+01   1.1409028355e+01    0.2557416    0.1909908  22.04 0.0008119918    1.198    0.165
        57 -11.9224     21.7022    248.5800   9.9967955883e+01   1.8942988026e+01     0.544495    0.1513819  39.51  0.002605446    2.295    0.564
        58 -11.3085     14.2959    244.6505   1.0137238599e+02   2.0367688784e+01    0.2508034    0.1391869  58.25 0.0008754671    1.485    0.327
        59 -10.3066     12.8247    250.2603   1.0188019748e+02   1.9444063161e+01    0.1855364    0.1447169   9.36  0.001303363    1.612    0.380
        60 -10.4528    244.1365    178.7611   4.5015790439e+01   3.0423408118e+00    0.2296215    0.1167599 -18.29 0.0008441653    2.101    0.524
        61 -11.5933      5.3250    168.4463   1.0010777569e+02   3.8053303367e+01    0.3037155    0.1939143  82.55  0.001462405    1.417    0.294
        62 -11.3751     17.9019    172.4226   9.6758429618e+01   3.6044278228e+01    0.4459103    0.1736721  47.30  0.001874861    2.291    0.564
        63  -9.6142     33.2289    166.3523   9.1760829095e+01   3.6132133654e+01    0.1965847    0.1819145 -67.78 0.0001987174    1.154    0.134
        64  -9.7023     36.5048    165.5502   9.0700039071e+01   3.5996597789e+01    0.2472965    0.1950637  46.03 0.0009796857    1.190    0.159
        65  -9.8102     67.5171    165.4940   8.1436543606e+01   3.2242040567e+01    0.1444935    0.1359124  60.77 7.237583e-05    1.002    0.002
        66 -11.2546     51.4288    161.8291   8.5759206016e+01   3.5253377816e+01    0.4977987    0.2594967 -67.87 0.0008657895    1.891    0.471
        67 -10.6462      9.0407    163.0111   9.8698501154e+01   3.9147055349e+01    0.3136564    0.1837716  -6.09  0.001469699    2.434    0.589
        68  -9.4737    132.5503    161.2683   6.2929114863e+01   2.2898924593e+01    0.1988675    0.1338885 -36.85 0.0006598878    1.550    0.355
        69 -10.6265     67.0376    157.7937   8.0447059403e+01   3.4251358291e+01    0.2258893    0.2026795 -78.02 0.0002806971    1.114    0.102
        70 -11.1728     20.1152    156.9083   9.4884066300e+01   3.9814045137e+01     0.404156    0.3066072 -86.94  0.001356326    1.219    0.179
        71 -11.0495    247.2809    157.0071   4.0653882906e+01   5.6791548141e+00    0.1763763    0.1203271 -29.95  0.001165653    1.138    0.121
        72  -9.8811      1.5199    157.5369   1.0060864131e+02   4.1083234325e+01    0.1319423    0.1146375  78.90 0.0001288429    1.024    0.023
        73 -10.0080    235.5230    154.4693   4.1816141561e+01   7.5974843197e+00    0.1216991   0.09501599 -22.44 0.0003533291    1.028    0.027
        74  -9.8050    216.4948    154.4898   4.4694769750e+01   1.0299931234e+01    0.1267248      0.10469 -23.15 2.850805e-05    1.011    0.011
        75 -10.6646     10.8411    153.0686   9.7462195776e+01   4.1570907120e+01    0.3338301    0.2133751  29.10 0.0009351464    1.584    0.369
        76  -9.6773     40.8660    153.1534   8.7963242661e+01   3.8739561371e+01    0.1935385    0.1513386 -57.70 0.0006218487    1.304    0.233
        77  -9.3466    222.5394    151.5126   4.3168707903e+01   9.8771265732e+00    0.1248174     0.102354 -26.91 0.0001113671    1.046    0.044
        78  -9.1568    176.6670    150.2733   5.0905749568e+01   1.7414605684e+01    0.1274155    0.1108303 -88.50 0.0004001647    1.596    0.373
        79 -11.0542     13.9550    148.0222   9.6076648616e+01   4.2651860245e+01    0.2534251    0.2043258  63.63 0.0003297767    1.151    0.131
        80 -11.0269      8.1305    145.3912   9.7749522093e+01   4.3780149776e+01     0.396323    0.2740527   9.33  0.002010313    1.706    0.414
        81 -10.2563    216.9567    145.0821   4.2754787953e+01   1.1722326371e+01    0.2004226    0.1381555  -8.19 0.0007237006    1.667    0.400
        82  -9.9077    187.6618    144.1321   4.7518641159e+01   1.6641491085e+01    0.2032362    0.1844579  43.95 0.0005205685    1.271    0.213
        83  -9.9557     13.9977    140.0239   9.5365611317e+01   4.4767484892e+01    0.1658578    0.1502792  79.66 0.0003181807    1.025    0.025
        84 -10.7818     24.9574    142.9128   9.1974354351e+01   4.3072138067e+01    0.2095925    0.1899911  87.21 0.0003848843    1.013    0.013
        85  -9.0672     77.5238    139.5129   7.4064365272e+01   3.7379967151e+01    0.1545144    0.1420188  70.61  0.000210928    1.097    0.088
        86  -9.8049     65.3377    139.0052   7.7901953815e+01   3.9346539257e+01    0.2126827    0.1824726 -68.01 0.0004312613    1.148    0.129
        87 -10.8201    236.3262    138.0771   3.8538581085e+01   9.9123637254e+00    0.1863173    0.1544694   8.57 0.0006591514    1.337    0.252
        88  -9.4286    144.1568    136.8846   5.4986106565e+01   2.5988796891e+01     0.202547    0.1701445 -11.51  0.000412887    1.314    0.239
        89  -9.1900      9.4823    136.4808   9.6582618806e+01   4.6044882070e+01    0.1372153    0.1224908 -86.59 -1.980975e-05    1.035    0.033
        90 -10.6310      2.9595    134.6744   9.8662929842e+01   4.6956064221e+01    0.3130734    0.1695388  86.57  0.001088675    1.734    0.423
        91 -11.2266    241.2467    134.2964   3.7140833856e+01   9.7614255516e+00    0.2209576    0.1610028 -35.07 0.0005643026    1.109    0.098
        92 -11.3357     53.6811    131.8943   8.0588291879e+01   4.2831484045e+01    0.5888644    0.3190296  53.53  0.002059155    2.105    0.525
        93 -10.6557     58.9974    131.3137   7.8650807843e+01   4.2267095808e+01    0.2920625    0.2090511 -54.99 0.0006108204    1.370    0.270
        94 -10.1043     20.5593    134.5180   9.2565244012e+01   4.5710508464e+01     0.255078    0.1235522  88.34  0.001022818    2.256    0.557
        95 -11.5015     36.9483    130.5509   8.6264893269e+01   4.5199882543e+01    0.5163202    0.3243424 -46.99  0.001800974    1.669    0.401
        96 -10.7130     73.6394    129.0260   7.3252464055e+01   4.0690308531e+01    0.3469946    0.2818309  53.25  0.001131304    1.264    0.209
        97 -10.8234      4.3333    130.1586   9.7835797574e+01   4.8072528625e+01    0.2103094    0.1874229 -16.48 0.0005433722    1.316    0.240
        98 -10.7522     56.6256    126.3273   7.8558109523e+01   4.3916764790e+01    0.4062183    0.2125793 -41.59  0.001126259    2.234    0.552
        99 -10.3203    230.0000    124.4905   3.6671978543e+01   1.2908821843e+01    0.2857812   0.05874651 -37.22 0.0009362819    3.947    0.747
       100 -11.0315     15.6482    125.2175   9.3298447427e+01   4.8615646801e+01    0.3877787    0.2196872  29.61  0.001836937    1.805    0.446
       101 -12.2367     10.0706    120.9360   9.4905548934e+01   5.0174686398e+01    0.6426107    0.3478252  76.17  0.002864228    1.977    0.494
       102  -9.5280     82.5901    124.4859   6.9333377091e+01   4.0380040542e+01    0.1522347    0.1478143 -66.30 9.980244e-05    1.019    0.019
       103 -10.0236     30.2091    124.6016   8.7852089664e+01   4.7505916338e+01    0.1863892    0.1412545   2.68 0.0005527582    1.566    0.362
       104  -9.8749     56.6740    121.3078   7.7578222979e+01   4.5242099237e+01    0.2167645    0.1553567 -86.04 0.0005707933    1.573    0.364
       105 -11.3083    243.7509    121.7549   3.4350043264e+01   1.1223416395e+01    0.2200046    0.1418233 -35.64  0.001034394    1.212    0.175
       106 -10.8870     19.9812    121.3833   9.1235571501e+01   4.9306730770e+01    0.3171315    0.1916603 -67.26  0.001073903    1.490    0.329
       107  -9.7967     71.4864    121.0314   7.2293927033e+01   4.3098667770e+01    0.2276126    0.1489315 -59.75  0.000386229    1.504    0.335
       108 -10.5155      1.3930    118.5037   9.7925211944e+01   5.1359812384e+01    0.2533202    0.1168865 -78.39 -0.0001628443    1.900    0.474
       109 -10.8897    249.8144    117.5803   3.2801450479e+01   1.0931582777e+01    0.2033982    0.1111532 -38.79 0.0004771884    1.416    0.294
       110  -9.7267     42.3579    117.1905   8.2102407211e+01   4.8190798071e+01    0.2204222    0.1351841 -81.52 0.0009485414    1.790    0.441
       111  -9.6801     85.8910    116.1031   6.6309419924e+01   4.1905272646e+01    0.2065231    0.1822908 -22.91            0    1.254    0.203
       112  -9.8344     52.6045    116.2488   7.8065895739e+01   4.7142972114e+01    0.2464127    0.1848267 -10.06 0.0006504048    1.692    0.409
       113 -10.4384      9.9693    111.1889   9.3872254448e+01   5.2809444860e+01    0.2941968    0.1543838 -33.00  0.001271083    2.288    0.563
       114 -11.7492     25.0822    106.4626   8.7084517054e+01   5.2900405790e+01    0.7537458    0.4725128 -24.61  0.003440171    1.979    0.495
       115 -11.4919     16.0515    115.1970   9.1963013610e+01   5.1294257006e+01     0.322131    0.2539758  35.99 0.0004572303    1.334    0.250
       116 -12.3021     15.4873    110.5565   9.1589043847e+01   5.2591300995e+01    0.7232924     0.426181  84.64  0.003321109    1.811    0.448
       117  -9.6671     25.0553     99.4495   8.5898517367e+01   5.4785266396e+01    0.3322135    0.2344372 -21.38 0.0009337048    1.658    0.397
       118 -10.7457     21.1753     98.6147   8.7426125477e+01   5.5351320585e+01    0.6125118    0.1952148 -71.81  0.002071104    3.010    0.668
       119 -11.1819    182.3864    114.4711   4.1851949224e+01   2.2923530088e+01    0.3225659    0.2633356  30.93 0.0005748954    1.396    0.284
       120 -10.4552    105.5392    114.5737   5.9795430724e+01   3.8561115482e+01      0.28844    0.2667869 -52.34   0.00104571    1.069    0.065
       121 -10.9000     24.7639    119.0917   8.9119075036e+01   4.9513590925e+01    0.3811173    0.2303587 -80.64  0.001765214    1.613    0.380
       122 -10.9564    249.2708    111.9675   3.1755178364e+01   1.1806208367e+01    0.1802294     0.167318 -30.83 0.0007723637    1.206    0.171
       123 -10.6996     92.9201    111.4392   6.2873941874e+01   4.1752100642e+01    0.4178579    0.2625878  55.96 0.0009644268    1.866    0.464
       124 -11.0150     55.1799    109.7259   7.5727978324e+01   4.8510773300e+01      0.30186    0.2477176 -58.71 0.0006377011    1.170    0.146
       125 -12.2652     36.4462    109.0882   8.2929059128e+01   5.1046323196e+01    0.8607001    0.4025882  30.42   0.00279409    2.144    0.533
       126 -10.4975      2.6954    106.0609   9.6233109777e+01   5.4621529411e+01    0.3549706    0.2475925 -86.18  0.001569194    1.311    0.237
       127 -10.1680    111.5323    105.9035   5.5774473245e+01   3.9340160442e+01     0.311116    0.1937605  40.40  0.001324114    1.653    0.395
       128 -10.4194     52.7834    105.1070   7.5626049272e+01   5.0058915058e+01    0.3630916    0.1938191  45.55   0.00147332    2.017    0.504
       129 -11.3808     37.2702    102.3410   8.1291791916e+01   5.2757426344e+01    0.5003905    0.3005349  55.94  0.002172072    1.982    0.495
       130 -10.5381     32.9491     97.0849   8.2049342454e+01   5.4629320045e+01    0.3835726    0.2451855  59.70  0.001734538    1.882    0.469
       131 -10.2362    119.0135    102.4916   5.2758091568e+01   3.8520031180e+01    0.3460893    0.1975832 -27.74  0.001269601    2.502    0.600
       132 -11.9112     61.8108     99.0051   7.0636793343e+01   5.0291929775e+01    0.5329785     0.340312 -43.97  0.001560008    1.597    0.374
       133 -10.2101     66.9476     97.7387   6.8338598998e+01   4.9779492938e+01    0.2292786      0.20312 -18.18 0.0003020516    1.238    0.192
       134  -9.0585     48.0000    100.9219   7.6583189597e+01   5.1806966335e+01    0.2463859   0.08198757 -61.88 0.0007925681    2.874    0.652
       135 -10.6883     75.3329     98.9653   6.5563421381e+01   4.8033586188e+01    0.4270655    0.2914272 -27.03  0.001825209    1.881    0.468
       136  -9.8384      9.7149     99.0537   9.2450169123e+01   5.6086249175e+01    0.1904569    0.1564213 -73.72 0.0002930537    1.093    0.085
       137  -9.4688    106.6961     98.3589   5.5089945796e+01   4.2041159011e+01    0.1612649    0.1234265 -86.96 0.0007038972    1.722    0.419
       138 -10.0724     57.3499     96.2406   7.1682876382e+01   5.1683458920e+01    0.2502508    0.1874052 -68.74 0.0002487231    1.392    0.281
       139 -10.6652     15.7881     96.8073   8.9477804337e+01   5.6264772497e+01    0.3068572    0.2566962  28.74  0.001381357    1.294    0.227
       140  -9.5239    240.7074     96.3600   2.9551017690e+01   1.5354808595e+01    0.1263723   0.07624602 -54.36 0.0007029449    1.697    0.411
       141 -10.8254     56.5049     90.5756   7.0531853728e+01   5.3241495361e+01    0.3559175    0.1943902 -43.72  0.001006674    1.882    0.469
       142  -9.9294      1.5209     93.0613   9.5271120801e+01   5.8144305517e+01    0.2090124    0.1203503 -76.30 0.0005406672    1.537    0.349
       143  -9.8402    231.6230     91.7580   2.9602331486e+01   1.7529884734e+01    0.1848836   0.09088903 -42.91 0.0007629218    1.644    0.392
       144 -10.3990    249.8276     91.1661   2.7527715723e+01   1.4625949647e+01    0.1562179    0.1208393 -23.91 0.0005196444    1.298    0.230
       145 -10.5581    157.4722     85.4820   3.9115642922e+01   3.3367706225e+01    0.5217978    0.3386797 -62.16  0.002353905    1.816    0.449
       146  -9.7212     73.6244     90.4791   6.3807968368e+01   5.0398030949e+01     0.357984    0.1393761 -49.75  0.001232531    2.487    0.598
       147 -11.0371     10.4823     90.7813   9.0909902521e+01   5.8238957517e+01    0.2584291    0.2242075 -25.31 0.0008431157    1.223    0.182
       148  -9.9080      9.8670     86.2769   9.0480348561e+01   5.9466944392e+01      0.30824    0.1506948  49.79  0.001299437    2.434    0.589
       149 -10.8893     21.4952     86.4995   8.5045011340e+01   5.8531077258e+01    0.6472903    0.3010609 -83.43  0.002419059    2.779    0.640
       150 -10.9922     21.6799     83.3521   8.4310626401e+01   5.9335229453e+01    0.3213229    0.2340436 -44.46  0.001145571    1.305    0.234
       151 -10.1717     94.4497     88.5156   5.5980690627e+01   4.6795261285e+01    0.2610008    0.1449712  53.86 0.0006337853    2.032    0.508
       152 -10.3992     84.4226     88.8022   5.9426246531e+01   4.8754511712e+01    0.4198375    0.2456779  44.43  0.001468373    1.728    0.421
       153  -9.3363     79.3347     88.3020   6.1074032503e+01   4.9853346897e+01    0.1564083    0.1220562  -8.68 0.0007036107    1.659    0.397
       154 -11.6486     66.9264     85.5577   6.4915729555e+01   5.2763596147e+01    0.6774457    0.4685763   7.26  0.002914626    2.021    0.505
       155 -11.3341    158.0590     90.3947   4.0336268858e+01   3.2351093036e+01    0.3916532    0.3491904  20.39   0.00108898    1.315    0.240
       156  -9.4466     54.2292     85.8225   7.0164589116e+01   5.4771567275e+01    0.1913411    0.1632361 -19.64            0    1.273    0.214
       157  -9.8056     39.0003     85.9625   7.6854194007e+01   5.6832172928e+01    0.2326213    0.1611231 -30.73 0.0005094982    1.605    0.377
       158 -11.2969     30.5544     81.8851   7.9750366440e+01   5.8846567459e+01     0.495899    0.2817263 -57.75  0.001465552    1.595    0.373
       159 -10.7905     42.9332     82.4324   7.4158072106e+01   5.7223926383e+01    0.4778307    0.2218679 -72.64  0.001639955    3.103    0.678
       160  -9.7873     34.4864     85.0089   7.8673019690e+01   5.7611019744e+01    0.2302487    0.1956465  62.77  0.001110288    1.313    0.239
       161 -10.1906    167.5133     83.2250   3.6653661308e+01   3.1528958995e+01    0.4053774    0.2285542  76.11  0.001623219    2.648    0.622
       162  -9.6941    116.9963     83.7157   4.7846834349e+01   4.2909046101e+01    0.2141954    0.1976339  56.73 0.0005252793    1.090    0.082
       163 -12.0252    107.2830     84.6854   5.0862939751e+01   4.4876894537e+01    0.3365428    0.2807711  74.68 0.0002769791    1.348    0.258
       164 -11.2865     76.7365     82.3771   6.0199263041e+01   5.1716756244e+01    0.3373011    0.2629395  51.93   0.00102006    1.352    0.260
       165 -10.3327      7.0860     81.7882   9.1080796892e+01   6.0812106844e+01    0.3570978     0.213689 -41.70  0.001770277    1.616    0.381
       166  -9.5417     86.5028     82.5581   5.6776896963e+01   4.9750787678e+01    0.1512316    0.1488777  -0.86 2.089401e-05    1.037    0.035
       167 -11.2927     99.5363     76.8511   5.0688162926e+01   4.8208600420e+01     0.402484    0.3093078 -12.17  0.001277727    1.715    0.417
       168 -11.7418     20.6845     76.1455   8.3214063060e+01   6.1277017675e+01    0.6673734    0.3190635 -31.02  0.002434937    2.599    0.615
       169 -11.3267     88.1608     77.2850   5.4505135844e+01   5.0558792888e+01      0.29983    0.2537987 -52.17 0.0002546242    1.195    0.163
       170  -9.4778     36.8044     76.5933   7.5402229715e+01   5.9462671987e+01    0.1904857     0.131994  38.33 0.0004019651    1.523    0.344
       171 -12.3025    167.7536     73.3710   3.3951285915e+01   3.3124917638e+01     0.296002    0.2332098 -44.64 0.0003527309    1.172    0.147
       172 -11.3998     56.2085     74.9417   6.6045796625e+01   5.7083031692e+01    0.4142922    0.2601807  38.27  0.001565645    1.617    0.382
       173 -12.0216      2.7321     63.0135   8.9971392913e+01   6.5841656232e+01    0.8100337    0.5037554 -80.01  0.004178393    1.624    0.384
       174 -12.6887     38.4082     50.1474   6.5743125345e+01   6.5382002754e+01    0.7305915    0.5618687 -33.96  0.003019096    1.265    0.209
       175 -11.3236     30.6438     61.7389   7.4081474701e+01   6.3799940325e+01     1.047839    0.7509646  66.17  0.004285092    1.937    0.484
       176 -12.9752     12.4170     47.3353   8.0060367903e+01   6.8980015144e+01    0.4916112    0.4332484 -69.82 0.0007846277    1.234    0.190
       177 -12.2309     11.5119     56.7899   8.3409767064e+01   6.6822994493e+01    0.8240672    0.6271837  77.87  0.002917413    1.641    0.391
       178 -11.8544    225.6840    246.1162   5.8659475630e+01  -3.6076947678e+00    0.4813606    0.2112429 -14.45  0.002483073    2.852    0.649
       179 -10.4858      2.4730     73.4146   9.2015768127e+01   6.3225036995e+01     0.399518    0.2368531   6.94  0.002016059    1.884    0.469
       180  -9.6929      7.5482     73.5391   8.9399461886e+01   6.2915972196e+01    0.2110285    0.1757995 -50.74 0.0009474002    1.077    0.072
       181 -10.6742     44.6100     74.5858   7.1140695657e+01   5.8927328935e+01    0.2473573    0.2303227  46.50 0.0005574697    1.150    0.130
       182  -9.1737     84.2942     79.2995   5.6495894662e+01   5.0917960010e+01    0.1508646    0.1213894  -5.37  0.000302046    1.569    0.363
       183 -10.3061     26.0685     71.8266   7.9416331825e+01   6.1854833445e+01    0.2528505    0.1967168 -54.19  0.001367275    1.181    0.153
       184 -11.6895     50.2155     68.3046   6.6539305227e+01   5.9579241292e+01    0.3660712    0.2858192 -32.14  0.001245754    1.315    0.240
       185 -11.7720    122.7497     67.4901   4.1243852454e+01   4.4666625210e+01    0.3380457    0.2608739 -56.52 0.0003440002    1.343    0.255
       186 -10.4203     93.8318     66.3798   4.8909260675e+01   5.1567407590e+01    0.2805494    0.2135831 -33.23 0.0006000656    1.392    0.282
       187  -9.7503     69.0042     66.7271   5.7909594385e+01   5.6657949870e+01     0.198254    0.1903389  11.40 0.0003996491    1.036    0.035
       188 -11.3082    147.1339     65.6192   3.5408381521e+01   3.9176176590e+01    0.2783994    0.2240741 -61.19 0.0003833733    1.237    0.191
       189  -9.7160    139.8006     66.3870   3.7092249108e+01   4.0792882070e+01    0.2011712    0.1341268  49.27 0.0009351946    1.565    0.361
       190 -10.5729     79.6311     64.3558   5.3003748552e+01   5.5028180328e+01    0.5410433    0.2738332  59.03  0.001948066    2.754    0.637
       191 -10.6418    155.6987     62.5347   3.2939016292e+01   3.7647326159e+01    0.3677028    0.2604494 -30.22  0.001839219    1.487    0.327
       192 -10.4424    106.1044     63.9876   4.4402276142e+01   4.9223108231e+01    0.2184548    0.2151634  14.10 -0.001320134    1.069    0.065
       193 -11.1319    201.9970     62.5671   2.6368172722e+01   2.7352118384e+01    0.2326943    0.1663128 -39.25 0.0001429862    1.233    0.189
       194 -11.6443     46.4132     60.5053   6.5609230496e+01   6.1931869102e+01    0.5103647    0.3553859  -2.23   0.00112701    1.869    0.465
       195 -10.6287     51.5287     62.2738   6.3824830714e+01   6.0728623234e+01    0.3404441    0.2575245  -6.18  0.001679876    1.598    0.374
       196 -11.3015     57.5456     58.9921   5.9869094711e+01   6.0410542779e+01    0.4110915    0.3193193  -0.64  0.001441445    1.542    0.352
       197  -9.9711     69.3922     60.9447   5.5625415862e+01   5.7790295793e+01    0.4029371    0.1710533 -37.31   0.00143222    2.712    0.631
       198 -10.7626    120.2755     59.9569   3.9343801114e+01   4.6571476770e+01    0.4008993    0.3180204 -50.32   0.00138142    1.268    0.211
       199  -9.7521    113.9464     60.9708   4.1256135657e+01   4.7913784000e+01    0.2390858    0.1788248 -77.29  0.001116814    1.653    0.395
       200 -10.7791     90.4574     61.0535   4.8072572170e+01   5.3339410564e+01    0.3618105    0.1995061  46.69  0.001107652    1.781    0.438
       201 -11.5309     80.2845     56.5260   4.9820620754e+01   5.6418036772e+01    0.4452153      0.31363  -6.44  0.001413232    2.081    0.519
       202  -9.7736    169.0468     59.7018   2.9978620075e+01   3.4973231350e+01    0.1888279    0.1735919 -89.94 0.0003599684    1.091    0.083
       203  -9.2173    131.0260     64.7327   3.8441084343e+01   4.3172788085e+01    0.1800057    0.1277354  60.15 0.0003232002    1.411    0.291
       204  -9.1696    138.2978     60.2440   3.5486400572e+01   4.2169610251e+01    0.1855733    0.1218919 -38.24 0.0001610901    1.503    0.335
       205 -10.0414    134.8920     58.1690   3.5517575947e+01   4.3328497949e+01    0.2830826    0.1998206 -76.74 0.0004251539    1.709    0.415
       206  -9.0864    109.2851     60.2790   4.2236284349e+01   4.9142431786e+01    0.1435559    0.1168532  19.04  0.000170976    1.515    0.340
       207 -10.6627     98.1896     59.9868   4.5272560242e+01   5.1786612276e+01    0.2550173    0.2074644  56.39 0.0006354953    1.217    0.178
       208  -9.6557    127.0896     58.7051   3.7355493538e+01   4.5133983796e+01      0.19986    0.1812072  64.12 0.0002610268    1.090    0.082
       209  -9.6930    143.8812     58.4664   3.3847579799e+01   4.1106743201e+01    0.2210695    0.1405543  64.93 0.0007024081    1.596    0.373
       210 -14.3087     16.7119     67.3331   8.3185255252e+01   6.3834555305e+01    0.6014557     0.454577 -34.49  0.001306473    1.278    0.218
       211  -9.0625    163.7378     57.3431   3.0124171315e+01   3.6557365977e+01    0.1472904    0.0963095 -60.88 0.0002571363    1.596    0.374
       212  -9.9363    140.0800     54.3332   3.3271959723e+01   4.2670743701e+01    0.2283653    0.1958183 -22.77  0.000544564    1.311    0.237
       213 -11.1414     89.2574     52.2037   4.5107416438e+01   5.5218458304e+01    0.5273678     0.257505 -34.93  0.002104312    2.200    0.545
       214 -10.2146     28.0320     53.5159   7.2746158928e+01   6.6007364206e+01    0.3920036    0.2698989  -6.49  0.001780777    1.679    0.404
       215 -10.0503    151.0373     54.0702   3.1223171256e+01   4.0059161829e+01    0.2052946     0.194696 -74.98 0.0003556146    1.048    0.046
       216 -12.5332    104.9659     52.5616   4.0625081458e+01   5.1490039687e+01    0.2970603    0.2901893  29.69 0.0003735647    1.076    0.070
       217 -10.2954    134.4328     51.3857   3.3412817681e+01   4.4500618871e+01    0.3252097    0.2622879 -47.26  0.001730339    1.218    0.179
       218 -10.1099    186.3197     50.5350   2.5186255860e+01   3.2384565411e+01    0.2673587    0.1543223 -55.06 0.0009871919    1.650    0.394
       219 -11.0405    128.3913     50.0143   3.4175580017e+01   4.6192790115e+01    0.4246462    0.3244948   7.55  0.001979061    1.834    0.455
       220 -11.4596     51.6723     47.6756   5.8002322673e+01   6.3750083663e+01    0.6488292    0.2854286 -48.07  0.001775639    2.358    0.576
       221 -10.6241     55.5302     43.6178   5.4429349524e+01   6.3821520028e+01    0.3571631    0.2040558  42.96  0.001641927    1.721    0.419
       222 -12.1762     57.3492     34.6570   4.9442788885e+01   6.5036636348e+01    0.5308093    0.4297251   6.17  0.002931689    1.346    0.257
       223 -11.6100     77.7613     47.8425   4.7243600011e+01   5.8540053773e+01    0.5959949    0.4783413 -15.15  0.001874233    1.423    0.297
       224 -10.3067     82.4799     47.0480   4.5273966129e+01   5.7635139898e+01    0.2522498    0.1845925 -43.70  0.001256787    1.426    0.299
       225 -11.4768     44.4519     43.5106   5.9763386602e+01   6.5797091585e+01    0.6143448    0.3420886 -57.73  0.002492984    2.327    0.570
       226 -11.8894     45.0508     38.2959   5.7067992841e+01   6.6685581538e+01     0.331709    0.2724635  62.46            0    1.562    0.360
       227  -9.3762     27.8010     49.1131   7.1268695904e+01   6.7018711414e+01    0.1927153    0.1473213 -21.38 0.0006474375    1.322    0.244
       228 -10.0369     62.2722     47.3688   5.3096619528e+01   6.1835394821e+01    0.1896648    0.1319954  49.99 0.0004356835    1.490    0.329
       229 -11.1727    112.3862     45.4271   3.6115187921e+01   5.0824148546e+01    0.2559651    0.2425818  50.23  0.000336644    1.083    0.076
       230  -9.8696    104.2127     46.2265   3.8457626959e+01   5.2691237615e+01    0.1992473    0.1668338 -82.77 0.0004671013    1.322    0.244
       231  -9.5455     91.7815     45.7777   4.1784343128e+01   5.5717690823e+01    0.1955746    0.1691306 -78.32 0.0004241145    1.308    0.235
       232  -9.7230    153.0070     45.0038   2.8154075407e+01   4.0890300968e+01    0.1997084    0.1588372  40.24            0    1.503    0.335
       233 -10.9682     97.0708     41.8577   3.8686680127e+01   5.5080792309e+01    0.4534619    0.2964465  18.79 0.0007455521    2.331    0.571
       234 -10.9291     23.9628     41.5963   7.0616782988e+01   6.9101540093e+01    0.4538162    0.2411211 -52.92  0.001224778    1.811    0.448
       235 -13.0576     27.2651     37.4600   6.6774733584e+01   6.9548113928e+01    0.4283781    0.3474683  63.80  0.001513911    1.727    0.421
       236 -10.9484     67.5368     42.3517   4.8744436529e+01   6.1669301485e+01    0.3764161     0.178803 -37.45  0.001551248    2.192    0.544
       237  -9.6336    142.9769     45.5024   2.9943408144e+01   4.3265630021e+01    0.2058992    0.1354355  68.41 0.0004428393    1.498    0.332
       238  -9.3164    130.7388     41.9643   3.0987313361e+01   4.6785853863e+01    0.1815579     0.123245 -32.89 0.0007251658    1.529    0.346
       239 -10.5837     89.1440     40.7887   4.0551143967e+01   5.7121409212e+01    0.3495937    0.2694184  86.16  0.001751722    1.595    0.373
       240 -10.3055     83.4747    248.0277   8.6616135343e+01   1.2456591470e+01    0.2501188    0.1251696  41.77 0.0009359414    1.657    0.396
       241 -11.8928     75.0215     35.4953   4.2865912665e+01   6.1163927809e+01    0.4377925    0.3830092  48.37 0.0006021122    1.087    0.080
       242 -10.2347     73.4771     31.4851   4.1563820245e+01   6.2105113572e+01    0.3656176    0.2445655 -62.62  0.001691518    2.132    0.531
       243  -9.9329     60.6475     40.7333   5.0860365147e+01   6.3351385715e+01    0.2721349    0.1613508  35.18  0.001130696    1.740    0.425
       244  -9.9283    235.8116     40.1421   1.8105835858e+01   2.3677604120e+01    0.1425066    0.1289103 -33.89 0.0004255024    1.303    0.233
       245 -10.9032    225.5112     39.3257   1.8695710371e+01   2.5710417592e+01    0.3298992    0.1435438 -58.34  0.001598364    2.259    0.557
       246 -10.4020    202.4569     37.9021   2.0300384654e+01   3.0533998187e+01    0.3840145    0.1371845 -46.27  0.001188388    2.303    0.566
       247 -11.0289     72.8436     43.2119   4.7078989567e+01   6.0400058433e+01    0.2641635    0.2405208 -42.64  0.001498734    1.157    0.135
       248  -9.2825    168.2246     39.6277   2.4441771351e+01   3.7974674627e+01    0.1425611   0.08586458 -55.25 0.0003417461    1.594    0.373
       249  -9.7080    115.4565     39.0387   3.3064206133e+01   5.0993917902e+01    0.2072566    0.1395338 -35.44 0.0003246304    1.533    0.347
       250 -10.2736    109.5145     38.4060   3.4170736931e+01   5.2553899316e+01     0.244405    0.2072356 -42.91 7.316475e-05    1.218    0.179
       251 -11.2938    111.1323     34.8782   3.2460574829e+01   5.2636605390e+01    0.3434565    0.2356228  57.38 0.0008365833    1.370    0.270
       252 -10.6653     83.7557     36.1270   4.0238643485e+01   5.9080552476e+01    0.4001361    0.2652549   4.30  0.001548193    2.306    0.566
       253  -9.9335      1.4017     37.2874   8.4321346851e+01   7.2035811269e+01    0.2233316    0.1026569 -58.91 0.0008377631    1.855    0.461
       254 -11.3379    248.2365     36.3010   1.6468860521e+01   2.1909982922e+01    0.2040437    0.1553956 -47.91 0.0002887487    1.058    0.055
       255 -11.1877     65.6962     36.7263   4.6924753924e+01   6.2992460922e+01    0.3346216    0.2303803  44.81 0.0004408472    1.382    0.276
       256  -9.3061    128.9799     36.2046   2.9341952329e+01   4.8004714805e+01    0.1850837    0.1073104  66.44 0.0003247776    1.650    0.394
       257 -10.6214     97.0918     36.0853   3.6354576611e+01   5.5920837477e+01    0.2695831    0.1999645 -46.92 0.0007246777    1.432    0.302
       258 -11.2814    100.0934     29.0840   3.2727788635e+01   5.6125604257e+01    0.6019546     0.351879  37.43  0.001097729    2.008    0.502
       259  -9.9163    193.2127     34.0843   2.0210361777e+01   3.2988067410e+01    0.2687076    0.1405387 -49.66   0.00136339    1.653    0.395
       260 -10.7544      9.8845     24.5655   7.2805730154e+01   7.4101992345e+01    0.4531544     0.254424   2.18  0.001550914    2.045    0.511
       261 -10.9135      2.2109     24.9645   7.9144016239e+01   7.4658973059e+01    0.3881072     0.221051 -41.53  0.001604712    1.513    0.339
       262 -11.3589      6.0950    244.8657   1.0309700426e+02   2.1050613455e+01    0.3689766    0.1714401  56.68  0.001783836    1.707    0.414
       263 -11.3374      7.2058     30.0343   7.7342207390e+01   7.3218240694e+01    0.3341348    0.2821089  89.49  0.001022461    1.584    0.369
       264 -10.9978     10.3668     34.7451   7.6930322905e+01   7.1952337013e+01    0.3328254    0.1969639  18.86  0.001411064    1.717    0.418
       265 -10.9698     17.1305     31.5153   7.0740699140e+01   7.1965751629e+01    0.5373596    0.2975137   7.11  0.002543095    2.173    0.540
       266 -10.5662    241.0765     34.1856   1.6489244758e+01   2.3422711663e+01        0.174    0.1323399 -53.08 0.0003498556    1.017    0.017
       267 -11.6612    245.4844     32.7292   1.5910645720e+01   2.2804039198e+01    0.2722295    0.1984639  40.97  0.001789661    2.160    0.537
       268  -9.5667    146.3261     33.8197   2.5693551087e+01   4.3999076713e+01    0.1761401    0.1294969 -19.30 0.0003871069    1.610    0.379
       269  -9.1713    134.5056     34.5064   2.7789493958e+01   4.6845121715e+01    0.1428984    0.1261701 -77.73 0.0008096878    1.069    0.064
       270 -11.1581    122.5000     33.5544   2.9622378458e+01   4.9971026304e+01    0.2950129    0.2439659  68.60 0.0006828321    1.138    0.122
       271 -10.2726     32.9334     33.2322   6.1325897196e+01   6.9576340904e+01    0.3817164    0.1974181  43.91  0.001741229    2.155    0.536
       272 -10.2915    221.6744     31.9806   1.7342033012e+01   2.7329729491e+01     0.174188    0.1234593 -47.99 0.0004236264    1.124    0.110
       273 -10.2773    207.7929     31.7965   1.8367894272e+01   3.0153764623e+01    0.1882787    0.1241418  27.07 0.0009457117    2.778    0.640
       274  -9.7641    129.1660     31.8930   2.7813885494e+01   4.8510894209e+01    0.2089453    0.1719297 -73.85 0.0003503702    1.204    0.169
       275 -10.0042      1.5638     31.2280   8.2132721175e+01   7.3367937816e+01     0.214184    0.1254621 -49.86 0.0005999101    1.454    0.312
       276  -9.9466    178.4719     30.4841   2.0725375494e+01   3.6726342500e+01    0.2200687    0.1289885 -14.98  0.001029981    2.368    0.578
       277 -10.9617    234.6211     29.1073   1.5832146238e+01   2.5187029648e+01    0.2670533   0.08861241 -41.85   0.00101388    2.116    0.527
       278 -11.6373    156.3670     28.0314   2.2534694997e+01   4.2243526120e+01    0.3854733    0.2390042 -73.29 0.0005508361    1.701    0.412
       279 -10.5423    146.2101     27.3540   2.3654544708e+01   4.4810665440e+01     0.311033    0.2575974  45.15  0.001787894    1.385    0.278
       280  -9.7001     81.7287     29.6516   3.8000080389e+01   6.0472214956e+01    0.1864118    0.1773918 -38.78 0.0003039159    1.124    0.110
       281  -9.7288     79.4597     27.5224   3.7733011448e+01   6.1287753165e+01    0.2515709    0.2139036  29.22 0.0008976983    1.203    0.169
       282 -10.3188     49.9679     28.0129   4.9485359589e+01   6.7547632954e+01    0.3781293    0.2331991   2.56   0.00160947    2.640    0.621
       283 -11.9721    239.4106     27.0239   1.5098009692e+01   2.4540292015e+01    0.2468492    0.2253075   0.83  0.001857113    1.577    0.366
       284 -10.6475    197.7527     27.9155   1.8256005873e+01   3.2732015435e+01    0.2635174    0.1636109  86.21 0.0008317065    1.622    0.384
       285 -11.2626    112.4558     26.6297   2.9024184975e+01   5.3350104573e+01    0.3960319     0.265119 -10.62   0.00192124    1.926    0.481
       286 -10.2017     61.9533     28.3343   4.4376065780e+01   6.5076249412e+01     0.245296    0.1907687  66.43 0.0008951336    1.495    0.331
       287  -9.7877    118.9676     27.5406   2.8101393710e+01   5.1605199427e+01    0.2148213    0.1276939  64.96  0.001015762    1.556    0.358
       288  -9.6776     16.0597     26.6722   6.9182788375e+01   7.3046042149e+01    0.1759187    0.1462997  -1.35 0.0003779777    1.109    0.098
       289 -11.4141    216.5919     25.4454   1.6223304216e+01   2.9089054920e+01    0.3150449    0.1968912  75.06 0.0005055442    1.692    0.409
       290 -10.0151    123.1968     25.7247   2.6670563656e+01   5.0755040862e+01    0.2969223    0.1824482 -55.18   0.00141966    1.746    0.427
       291 -10.7730    225.3238     22.6844   1.5028086770e+01   2.7672854532e+01     0.357529    0.1201055 -52.57  0.001651451    2.461    0.594
       292 -10.0895    109.8906    250.1746   8.1151148146e+01   8.9467817294e+00    0.1842618    0.1365613  39.61 0.0006609045    1.228    0.186
       293 -10.7214    140.2027     18.2176   2.1498860638e+01   4.7313867252e+01    0.4222197    0.2006047  58.68  0.001910159    1.991    0.498
       294 -10.3146    137.0326     14.9893   2.0835903890e+01   4.8435220537e+01    0.2141943    0.1794375 -45.35 0.0003348814    1.210    0.173
       295 -11.3922    128.5309     23.9359   2.5138225519e+01   4.9617223019e+01    0.2439611     0.224955  76.92 0.0004744692    1.061    0.057
       296  -9.3897    160.3190    249.3357   7.0769763470e+01   3.0416483611e+00    0.1202236   0.07538234  -3.33 0.0007049188    1.702    0.412
       297 -11.0372     22.5163     24.0397   6.3216127761e+01   7.2747075497e+01    0.3173055    0.2274511 -20.69  0.000339851    1.389    0.280
       298 -10.7236     28.2362    245.1934   9.8429292154e+01   1.8957529879e+01    0.2718907    0.1434196 -70.26  0.001585474    2.156    0.536
       299 -10.0379    124.5455    245.5235   7.7551556105e+01   7.9262001317e+00     0.120868   0.09772626  23.36 0.0001114886    1.019    0.018
       300 -10.8101     73.0031    244.7045   8.8623109534e+01   1.4269134541e+01    0.2887001    0.2046817  29.64  0.001197352    1.187    0.157
       301 -12.6343     75.6300    239.7103   8.7617662657e+01   1.4883731462e+01    0.5643233    0.5437804 -64.17  0.003920921    1.256    0.204
       302 -10.1715    196.5425     24.3103   1.7460109055e+01   3.3404811118e+01    0.2070795     0.106146  75.53  0.001062584    1.966    0.491
       303 -10.0600    189.8421     24.2228   1.7997985647e+01   3.4883714962e+01    0.1879241    0.1400106 -64.12 0.0003559164    1.152    0.132
       304  -9.8457    159.9014     24.2260   2.0972621349e+01   4.1826019252e+01    0.2187742    0.1630639 -66.20 0.0008375528    1.239    0.193
       305 -10.0852     54.2346     23.1583   4.4941057370e+01   6.7426904182e+01    0.2422433    0.2132137  86.02  0.001080142    1.466    0.318
       306 -11.5708     59.1683     21.4283   4.1930239922e+01   6.6634704065e+01    0.2649772    0.2421004  12.49 0.0009575433    1.073    0.068
       307  -9.3024    186.4949     22.5243   1.7847979765e+01   3.5819883189e+01    0.1306819    0.1048799 -63.90 9.324558e-05    1.046    0.044
       308 -10.6954     82.8277     21.9325   3.4132402448e+01   6.1199135409e+01    0.3220446    0.2796755  87.13  0.001149212    1.246    0.198
       309 -10.4967     87.0675     20.0702   3.2116416121e+01   6.0397218092e+01    0.2371195    0.1840782  64.27  0.001307139    1.203    0.168
       310  -9.1314     34.6390     22.0559   5.4340880631e+01   7.1254211737e+01    0.2615066    0.2143573  26.96  0.001582029    1.139    0.122
       311 -10.0049     45.4573    244.3665   9.4652240110e+01   1.7372835205e+01    0.2287523    0.1150336  33.60  0.000593681    1.559    0.358
       312 -10.0115    102.1992    243.4038   8.2101581387e+01   1.1023873473e+01    0.1801253   0.09029644  37.24  0.000946316    1.630    0.387
       313  -9.1791    155.7158     21.6832   2.0691698334e+01   4.3121526973e+01    0.1261841   0.09992149  37.76 0.0003287749    1.584    0.369
       314  -9.7262     74.6424     21.0953   3.6198564480e+01   6.3225666245e+01    0.3101876    0.1886467 -48.56 0.0007575394    1.973    0.493
       315 -10.0946     88.6460    240.8028   8.4818798740e+01   1.3132074528e+01    0.1498503    0.1152873 -88.46 0.0009430744    1.654    0.396
       316  -9.7613    115.7463    240.0164   7.8797267246e+01   9.9318629859e+00    0.1367204    0.1072283 -53.25 0.0008803617    1.545    0.353
       317 -10.1315    195.3872    238.4193   6.2711941406e+01   5.3034288318e-01    0.2037782    0.1473102 -15.92 0.0009429162    1.217    0.178
       318 -10.5758     78.9796     41.2494   4.4030321856e+01   5.9377903544e+01    0.4157418    0.2568839  55.26  0.001936824    1.605    0.377
       319 -10.5214     17.7819    236.3787   1.0029637084e+02   2.1656503180e+01    0.3598436    0.1460777  49.33  0.001877182    1.897    0.473
       320 -11.1919    160.4261    235.3263   6.8891786506e+01   5.0987521194e+00    0.2476603    0.1517072   6.39 0.0008887996    1.703    0.413
       321 -10.2288    161.8237     19.7286   1.9433993260e+01   4.1858573239e+01    0.2637866    0.1595747  -3.67   0.00121366    2.633    0.620
       322 -10.6889     41.8654     19.1589   4.8633502754e+01   7.0417550435e+01    0.4260229    0.1928295  44.48 0.0009260809    2.072    0.517
       323 -10.2896    108.1090     18.0174   2.6504916284e+01   5.5409871622e+01    0.2542884     0.199747 -11.33  0.001406793    1.503    0.335
       324 -10.1229    169.3883     16.7684   1.7830009876e+01   4.0374575681e+01    0.2496766    0.1075662 -33.19    0.0011446    2.141    0.533
       325  -9.5272    215.3643     16.4005   1.4240423813e+01   3.0325737842e+01    0.2106652   0.07615915  59.90  0.000957039    3.195    0.687
       326  -9.5311    193.0337     16.3990   1.5754402723e+01   3.5032670207e+01    0.1701333     0.109356  80.67 0.0003818363    1.515    0.340
       327 -10.1018     67.6724    236.0574   8.9099082561e+01   1.6502308934e+01    0.2502463    0.1637684  23.84  0.001459814    1.424    0.298
       328 -11.0121    183.1303    234.1976   6.4347038356e+01   2.5209672810e+00    0.3188155    0.1954121  24.97  0.001316001    1.414    0.293
       329  -9.6935     64.6658     12.6660   3.5153142591e+01   6.6484068481e+01    0.2151468    0.1381386  28.18 0.0006615305    1.729    0.421
       330 -11.5607     30.5311    233.9880   9.7358995310e+01   2.0914516145e+01    0.3895822    0.2218355  45.33  0.002293548    1.382    0.277
       331 -10.2780    164.9069     13.0271   1.7182056108e+01   4.1817248410e+01    0.1980095    0.1774973 -74.80  0.001283477    1.077    0.071
       332  -9.4369     88.2743    233.6771   8.4204581824e+01   1.4488931854e+01    0.1244995   0.08332516  55.10 0.0003729489    1.577    0.366
       333 -10.7281     39.5318    229.3412   9.5043525995e+01   2.0937123503e+01    0.2909387    0.1783642  56.40  0.001306753    1.451    0.311
       334  -9.1550     59.2989    229.3227   9.0470163499e+01   1.8783562874e+01    0.1160263   0.09350729 -18.74 0.0004145823    1.626    0.385
       335 -11.5991    184.9547    228.2795   6.3138868356e+01   3.1521334887e+00    0.4586951    0.2325416 -17.69  0.002270677    2.514    0.602
       336  -9.7266    151.7697    228.5660   6.9710189885e+01   7.2512827740e+00     0.169283   0.09995077  36.59 0.0005327367    1.599    0.375
       337 -10.2086      3.8380    225.8606   1.0297262024e+02   2.5008218450e+01    0.1616807    0.1532006  71.97  0.001031029    1.262    0.207
       338  -9.3685     13.3277    221.3115   1.0065224991e+02   2.5138944687e+01    0.1092475   0.09007689 -34.31 0.0003594835    1.665    0.399
       339  -9.2939     77.2615    220.3475   8.5425941606e+01   1.8455465509e+01    0.1215742    0.0956249 -23.15 0.0002934162    1.604    0.377
       340 -10.9133     46.0388    218.9970   9.2802874603e+01   2.2390859306e+01    0.3478479    0.1118325  39.38  0.001479356    2.342    0.573
       341  -9.8145    211.9323    218.9588   5.6872945215e+01   1.2877072736e+00    0.1472597    0.1414304 -19.25 0.0007692557    1.633    0.388
       342  -9.2288    121.2692    219.3245   7.5037171697e+01   1.2892080539e+01     0.125961   0.09275572 -11.10 0.0003423475    1.571    0.364
       343  -9.4027    176.3331    218.7105   6.3336010271e+01   5.6555890831e+00    0.1094301   0.09334923  47.03 0.0002536787    1.629    0.386
       344  -9.5840    135.5574    216.4792   7.1461186358e+01   1.1464714069e+01    0.1285071    0.1110404  15.72 0.0002129785    1.007    0.007
       345 -10.5081     29.3614    215.5373   9.6580275663e+01   2.4867750145e+01    0.2274752    0.1989839  14.27  0.001070118    1.333    0.250
       346 -10.0933     24.1013    216.1253   9.7873787038e+01   2.5252263882e+01    0.1682374      0.15807  61.89 0.0003900059    1.174    0.148
       347 -11.9435     12.0919    210.5010   1.0046280527e+02   2.7576155359e+01    0.5008505    0.2278326  78.97  0.002153554    2.218    0.549
       348  -9.4519    110.3643    212.1865   7.6605149544e+01   1.5740347973e+01     0.165998    0.1282129 -73.96 0.0009400467    1.642    0.391
       349 -12.4096      4.9398    207.8336   1.0206346716e+02   2.8768942062e+01    0.5910845    0.3047946  80.06  0.003160429    1.824    0.452
       350 -10.4840    236.9668    209.0079   5.1207432001e+01  -1.8294045237e-01    0.1797224    0.1039194  -9.40 0.0006181849    1.657    0.396
       351 -11.0221     19.9779    200.4739   9.8001515891e+01   2.9122054851e+01    0.5220386     0.159499 -69.54   0.00211687    3.094    0.677
       352 -10.7984    175.3210    202.2547   6.0905530758e+01   8.4264920801e+00    0.2277368    0.1896022   7.93 0.0004612223    1.054    0.051
       353  -9.8087     67.2796    202.6281   8.6062292973e+01   2.3470165218e+01    0.2172816    0.1525861 -43.36 0.0002449655    1.704    0.413
       354  -9.0050    238.2899    200.6919   4.9638655983e+01   7.5978238587e-01   0.09539559   0.08272496 -34.55 0.0003089378    1.578    0.366
       355 -10.1860    217.3024    209.1957   5.4397293147e+01   2.0086351294e+00    0.2344197   0.08272307 -32.35  0.001079593    2.673    0.626
       356  -9.4484     56.8015    197.1789   8.8214910951e+01   2.5982334010e+01    0.2171477    0.1436787 -26.89   0.00104607    2.182    0.542
       357  -8.9513    134.7462    196.6310   6.8657670973e+01   1.5287901252e+01    0.1365765   0.09716576 -16.94 0.0003236232    1.635    0.388
       358 -12.0562     15.8285    192.0656   9.8582281700e+01   3.1449256132e+01    0.4064696    0.3866577 -40.61  0.001826884    1.302    0.232
       359 -10.5177    186.7627    192.1844   5.6966725611e+01   8.4956462234e+00    0.3554927    0.1247109 -34.52  0.001406801    3.036    0.671
       360 -10.6305    244.8215    188.1102   4.6540011684e+01   1.6969567970e+00    0.1643047    0.1313498 -23.67 0.0005303271    1.217    0.178
       361  -9.9210     61.7863    184.4881   8.5513063447e+01   2.8343402516e+01    0.2521133    0.1905416 -74.14  0.001290655    1.378    0.274
       362 -12.5246     17.1842    181.8280   9.7596720192e+01   3.3783460704e+01     0.560329    0.3324008  30.03  0.002948879    1.607    0.378
       363 -10.9408     22.9968    180.3600   9.5893411558e+01   3.3617693259e+01    0.4620467    0.1719454  60.09  0.001698032    2.963    0.662
       364 -11.5229    249.6535    179.9829   4.4444967573e+01   2.2308162544e+00    0.3453982    0.1111102 -38.51   0.00163568    2.596    0.615
