#   1 NUMBER                 Running object number                                     
#   2 MAG_AUTO               Kron-like elliptical aperture magnitude                    [mag]
#   3 X_IMAGE                Object position along x                                    [pixel]
#   4 Y_IMAGE                Object position along y                                    [pixel]
#   5 X_WORLD                Barycenter position along world x axis                     [deg]
#   6 Y_WORLD                Barycenter position along world y axis                     [deg]
#   7 A_WORLD                Profile RMS along major axis (world units)                 [deg]
#   8 B_WORLD                Profile RMS along minor axis (world units)                 [deg]
#   9 THETA_WORLD            Position angle (CCW/world-x)                               [deg]
#  10 FWHM_WORLD             FWHM assuming a gaussian core                              [deg]
#  11 ELONGATION             A_IMAGE/B_IMAGE                                           
#  12 ELLIPTICITY            1 - B_IMAGE/A_IMAGE                                       
         1 -13.7514    200.0750     44.2209   3.9519529335e+01   3.0266504064e+01    0.8975188    0.7792051 -59.64  0.003079623    1.101    0.092
         2 -14.0542    209.7831     35.2855   3.6370236147e+01   2.9305854468e+01    0.7011821    0.6553618  57.03  0.001343427    1.359    0.264
         3 -12.7823      2.3393      7.7743   8.4452286983e+01   7.3825049637e+01    0.9914486    0.1596972 -44.61  0.003606659    5.149    0.806
         4 -13.9416    235.5011      9.2130   2.8766336723e+01   2.7044331206e+01     0.825651     0.620163 -68.06  0.004285896    1.027    0.026
         5 -11.0578     60.1831      7.6154   5.6029207065e+01   6.5793369665e+01    0.1789198   0.09014033  40.71 0.0005285901    1.655    0.396
         6 -10.5855    167.9808    231.3377   8.6672684512e+01   1.3247460994e+00    0.1877921    0.1548145  20.59 0.0004750475    1.074    0.069
         7 -12.4492    139.6106    247.0775   9.5039633465e+01   2.7819291106e+00    0.6526219    0.3116231 -61.56  0.002870675    3.065    0.674
         8 -12.3420    125.8260    249.2982   9.8259731125e+01   4.4157999650e+00    0.4678524    0.3097924   6.46  0.002398979    2.075    0.518
         9 -12.3082    125.2709    243.8495   9.7677379873e+01   5.5033100366e+00    0.3732026    0.2035894 -47.55  0.001625533    2.088    0.521
        10 -13.0147    106.3720    249.8462   1.0245950563e+02   7.1441227947e+00    0.6496728    0.3252999  36.04  0.002811888    1.704    0.413
        11 -14.4266     55.2771    184.0542   1.0648893561e+02   2.8972622524e+01     1.918099     1.301792  65.27  0.009742651    1.525    0.344
        12 -16.7298     38.6404    191.9050   1.1157408195e+02   2.9001435614e+01      8.89045     3.627704  72.45    0.0172501    4.303    0.768
        13 -12.3818    193.6968    196.1652   7.5081060511e+01   3.7455320315e+00      1.16798    0.6224533 -64.80  0.003369641    6.222    0.839
        14 -10.8412     67.0753    197.2755   1.0516094421e+02   2.4165011935e+01    0.2513965    0.1914047 -85.02  0.000358545    1.294    0.227
        15 -10.4429     82.5172    194.9553   1.0098880377e+02   2.2536615158e+01    0.2653463    0.2083953  11.53  0.001368451    1.588    0.370
        16 -10.4902    157.9531    192.8158   8.2197654454e+01   1.0472108258e+01    0.2422076    0.2026262 -45.86 0.0004951939    1.230    0.187
        17 -11.9588     81.3738    182.2497   9.9415341681e+01   2.5827276737e+01     0.433353     0.357091  68.58  0.001036355    1.232    0.188
        18 -10.5224    145.4267    184.1919   8.3489295613e+01   1.4563688360e+01     0.206452    0.1448774 -62.74 0.0009429429    1.676    0.403
        19 -11.3963     99.1587    181.1567   9.4571379994e+01   2.3317036025e+01    0.3189508    0.2599095  20.88 0.0007452695    1.364    0.267
        20 -10.7544     87.1484    177.1612   9.7079118589e+01   2.6221102721e+01    0.2284296    0.2121093  80.42 0.0003909993    1.045    0.043
        21 -10.8290     90.0126    174.9948   9.5952547323e+01   2.6316067690e+01     0.243689    0.1748886  72.30 0.0006064767    1.660    0.398
        22 -15.2527     81.1917    157.7005   9.5366834153e+01   3.2099719189e+01     3.907331     1.443177  54.72  0.009562542    5.981    0.833
        23 -12.4584     73.0361    165.9277   9.9091646997e+01   3.1194304475e+01    0.4705366    0.3738973 -54.59  0.001112056    1.232    0.188
        24 -11.4867    243.4947    171.9997   6.1143815961e+01   3.2204509352e-01    0.2341197     0.168158 -87.20  0.001046797    3.550    0.718
        25 -11.0880     34.4335    171.5959   1.1044865955e+02   3.4533320873e+01     0.324138    0.2093275  58.15  0.001079621    1.582    0.368
        26 -10.9088    191.4933    167.2839   6.9739263838e+01   9.7618734465e+00    0.4640881    0.2331607 -48.23   0.00192071    2.005    0.501
        27 -11.4095     87.8649    211.1425   1.0187897644e+02   1.7940333889e+01    0.2991524    0.2166544  51.43 0.0006563553    1.305    0.234
        28 -10.3554    110.8949    167.6810   8.9031412828e+01   2.4648403458e+01    0.2944438    0.2242056 -70.10  0.000737332    1.430    0.301
        29  -9.7997    102.7770    165.0178   9.0707002637e+01   2.6718568179e+01    0.2069163    0.1948479 -61.33  0.000206449    1.043    0.041
        30 -12.3766     88.7737    150.9949   9.1913810654e+01   3.2622456336e+01    0.6905472     0.460174 -24.22  0.002879537    2.104    0.525
        31 -11.6121    133.7855    145.4644   7.8278825179e+01   2.5752638032e+01     1.218673    0.2843841 -53.87  0.002629891    6.232    0.840
        32 -12.3911     55.4598    147.3828   1.0110247586e+02   3.8395312555e+01     0.779309    0.5308964 -60.95  0.003846733    1.329    0.247
        33 -11.4804    123.8119    202.0869   9.1884117519e+01   1.4315109590e+01    0.3261552     0.234293 -66.39 0.0008550703    1.591    0.371
        34  -9.6387    112.0153    150.4553   8.5223537102e+01   2.8713940460e+01    0.2284185    0.1542443  38.86 0.0004686386    1.510    0.338
        35 -11.3109     28.6668    143.5150   1.0855299880e+02   4.2332119377e+01    0.2548562    0.2150598   6.08  0.001490189    1.444    0.307
        36 -11.8942    105.0352    133.4169   8.3387547732e+01   3.4229645115e+01     1.064959    0.4899329 -37.53  0.003557181    2.753    0.637
        37 -12.0672     89.9597    136.9254   8.8638363365e+01   3.6019412347e+01    0.2962286    0.2633896 -48.11 0.0003629904    1.085    0.079
        38 -11.1945     25.8657    137.4702   1.0856185089e+02   4.4147853713e+01    0.3272107    0.2071017  45.37  0.001238508    1.746    0.427
        39 -11.2267    135.1526    128.7008   7.3937399798e+01   2.9403683985e+01    0.3560437    0.2849461 -51.02  0.001693738    1.231    0.187
        40 -10.7466    111.7457    128.7898   8.0350451700e+01   3.4092842193e+01     0.336643    0.2459438  10.15 0.0008064283    1.832    0.454
        41 -13.6936     69.9286    152.4930   9.7691988040e+01   3.5119346590e+01    0.8377558    0.4619417 -53.65  0.001019697    1.693    0.409
        42 -11.0680     98.8554    124.5647   8.3105336445e+01   3.7546361713e+01    0.3266817    0.2631165   0.67   0.00101606    1.516    0.340
        43 -12.2523     68.7832    170.4521   1.0098679107e+02   3.0634978090e+01    0.4074168    0.3127557 -24.88  0.001406972    1.679    0.404
        44 -15.0597     70.3249    145.1574   9.6234149477e+01   3.6970362645e+01     3.021135     1.598805  80.12  0.003346484    4.749    0.789
        45 -11.9077     34.0115    119.1360   1.0301309562e+02   4.8104525927e+01    0.3651008    0.2068306  26.39    0.0017428    1.973    0.493
        46  -9.9699    107.9673    118.0229   7.8757911131e+01   3.7407050919e+01     0.225481    0.2184071 -23.40 0.0003096998    1.031    0.030
        47 -10.4790    231.1479    113.9669   5.1112616625e+01   1.2593883345e+01    0.2067534    0.1994448 -79.44  0.000744745    1.165    0.142
        48 -12.4531     23.9913    108.3404   1.0452369392e+02   5.1717694571e+01    0.4755659    0.2129992  14.29  0.002029285    2.792    0.642
        49 -10.8688    115.1601    109.0328   7.4302144532e+01   3.8056882301e+01     0.269765    0.1818813 -20.08  0.001088089    2.041    0.510
        50  -9.8333    205.6668    110.1364   5.4278260797e+01   1.8264203011e+01    0.2043584    0.1665118 -42.09 0.0006585786    1.116    0.104
        51 -11.8551     41.8751    104.0867   9.7244806082e+01   5.1066634917e+01    0.4018019     0.273667  46.65  0.001470064    1.754    0.430
        52 -11.2406    210.8204     96.7257   5.0342611020e+01   1.9634294013e+01     0.406614    0.2417214 -62.79  0.001639741    2.009    0.502
        53 -10.1475     16.1961     90.3636   1.0396864593e+02   5.6682464855e+01    0.1701766    0.1154777  31.95 0.0005972203    1.730    0.422
        54 -18.4559     13.8082    240.0546   1.2064827274e+02   2.0727626945e+01     6.171179     4.399275  35.37   0.02566633    1.505    0.335
        55  -9.8881     74.9547     85.1811   8.0264589646e+01   5.0916405839e+01    0.2102154    0.1968613  68.93 0.0006143238    1.279    0.218
        56  -9.5813    150.8039     82.9521   5.7928987115e+01   3.5546894766e+01     0.252951    0.1643598 -65.64  0.001060496    2.019    0.505
        57  -9.8326     69.9696     81.9362   8.1066743187e+01   5.2430556314e+01    0.2047866    0.1761211  75.04 0.0004486764    1.560    0.359
        58 -11.1745     13.5073     59.9978   9.7903285492e+01   6.3677660602e+01    0.2152462    0.1748167  -3.22 0.0003969244    1.253    0.202
        59 -13.0156    188.8679     52.5803   4.3008897225e+01   3.1631883404e+01    0.5689321    0.4301591  40.34 0.0008399321    1.672    0.402
        60 -11.3014    117.0079    249.0307   1.0010199944e+02   5.7560807178e+00    0.2018516    0.1599897  52.47 0.0004497989    1.226    0.184
        61 -12.3329    119.6963    245.9049   9.9140180207e+01   5.9446715971e+00     0.358634    0.2077795  52.92  0.001801213    1.863    0.463
        62  -9.2882    198.0000     23.8952   3.4995882943e+01   3.3296313200e+01    0.1875937   0.06764733 -32.68 0.0007912448    2.865    0.651
        63 -13.3362    105.7751    205.1121   9.6719056674e+01   1.6570873475e+01    0.7571642    0.4022042 -49.28  0.003331532    1.999    0.500
        64 -15.9698     10.4484    206.6058   1.1931768653e+02   2.8361994991e+01     1.143397    0.8934101  16.52  0.004855688    1.712    0.416
