#   1 NUMBER                 Running object number                                     
#   2 MAG_AUTO               Kron-like elliptical aperture magnitude                    [mag]
#   3 X_IMAGE                Object position along x                                    [pixel]
#   4 Y_IMAGE                Object position along y                                    [pixel]
#   5 X_WORLD                Barycenter position along world x axis                     [deg]
#   6 Y_WORLD                Barycenter position along world y axis                     [deg]
#   7 A_WORLD                Profile RMS along major axis (world units)                 [deg]
#   8 B_WORLD                Profile RMS along minor axis (world units)                 [deg]
#   9 THETA_WORLD            Position angle (CCW/world-x)                               [deg]
#  10 FWHM_WORLD             FWHM assuming a gaussian core                              [deg]
#  11 ELONGATION             A_IMAGE/B_IMAGE                                           
#  12 ELLIPTICITY            1 - B_IMAGE/A_IMAGE                                       
         1 -15.1912     47.3379    207.5671   1.3047134491e+02   2.7112087516e+01      12.5399      4.47895  80.43   0.02911635    6.412    0.844
         2 -13.7435     36.6840    217.2853   1.3305533302e+02   2.6530750275e+01       1.1048    0.6402829  86.19  0.002585646    1.520    0.342
         3 -12.9905    197.9998     33.0976   5.9937426282e+01   3.1368710330e+01     1.318817     1.140082  28.80  0.007138331    1.291    0.225
         4 -13.5612    214.2152     16.3823   5.3286177432e+01   2.9191383936e+01     1.340384    0.9977539  26.14  0.007090721    1.709    0.415
         5 -11.9186      2.4146     15.0703   1.1376625116e+02   7.1451153619e+01    0.6409429    0.2178734 -61.36  0.002950487    3.042    0.671
         6  -9.4664     55.9640    240.9144   1.3126210597e+02   2.0264461513e+01    0.1602445    0.1131797  61.16  0.000315176    1.026    0.025
         7 -11.1670    177.5726    249.8362   1.1113249642e+02   1.5551841852e+00    0.4824622    0.1244912  47.03  0.001853416    3.724    0.731
         8 -10.7477    139.4840    249.1774   1.1765416476e+02   7.4735700989e+00    0.2629972    0.1789995 -89.42  0.001658212    2.240    0.553
         9 -11.3759     93.4813    249.6797   1.2560784621e+02   1.4054035151e+01    0.3593416    0.1982604  54.31   0.00235156    1.401    0.286
        10 -11.3582      1.9810    244.9579   1.3994159545e+02   2.5314334306e+01    0.8384341    0.1614222 -83.20  0.003711372    5.266    0.810
        11 -11.9299      6.9934    226.8147   1.3850672720e+02   2.7845428726e+01    0.5251411    0.2223203  66.68  0.003430665    1.823    0.451
        12 -10.5507     12.8525    245.1101   1.3832347940e+02   2.4261418265e+01    0.2741417     0.122513 -85.21  0.001492701    2.014    0.503
        13 -11.6811     30.6396    248.6931   1.3575771781e+02   2.1876272616e+01     0.508458    0.3395391  50.46  0.004133077    1.283    0.220
        14 -11.1442     38.9037    246.9011   1.3437614863e+02   2.1264023248e+01    0.3280317    0.2698567  49.11   0.00281283    1.436    0.304
        15 -12.2532     12.4089    238.0865   1.3811279210e+02   2.5444592662e+01    0.4759384    0.2342023  81.97 0.0009994133    1.673    0.402
        16 -10.5301     46.6969    234.8821   1.3242785110e+02   2.2351927914e+01    0.4330033    0.1584248  66.08    0.0021582    2.960    0.662
        17 -10.8545     19.3169    234.0334   1.3685469104e+02   2.5438578447e+01    0.1970021    0.1485837 -73.60  0.001289283    1.602    0.376
        18 -10.6918     17.9450    249.7489   1.3773994127e+02   2.3020944757e+01    0.3412832    0.1422743  48.22   0.00236052    1.708    0.414
        19 -14.4675     96.3055    228.6983   1.2325808073e+02   1.6987949464e+01     4.157059    0.2681665  42.56   0.01184681    6.585    0.848
        20 -10.4634      1.8239    197.2647   1.3809755042e+02   3.3588261866e+01    0.2667323    0.1020691 -77.63  0.001575316    2.179    0.541
        21  -9.5049    192.1026    193.3064   1.0008387743e+02   6.8327444509e+00    0.4551043    0.2450886 -63.55  0.001444252    6.311    0.842
        22 -11.3974     58.2926    192.9267   1.2715121382e+02   2.8606939262e+01    0.3179345    0.2191484 -50.19 0.0006632766    1.933    0.483
        23 -11.5927     64.5344    185.4836   1.2515993030e+02   2.9302589098e+01    0.2531907    0.2350795 -75.28 0.0007816617    1.304    0.233
        24  -8.3752    181.5108    192.4480   1.0197752607e+02   8.8836377504e+00    0.1334264    0.1132542  31.13  9.45456e-05    1.022    0.021
        25 -12.4938     30.1325    225.1721   1.3464144685e+02   2.5840427023e+01    0.2653798    0.2384133  77.62 0.0007634698    1.409    0.290
        26  -9.4666     40.1971    229.0266   1.3316613238e+02   2.4082319559e+01    0.1883774    0.1145188  59.42 0.0008154642    1.227    0.185
        27 -10.7319     75.0283    173.6293   1.2159555099e+02   3.0339072653e+01    0.2171652    0.1998204  78.59 0.0003977601    1.141    0.124
        28 -13.0273     61.6891    171.0141   1.2422306560e+02   3.2639212388e+01    0.4635282    0.2592367 -48.59  0.001555508    2.271    0.560
        29 -11.6101     82.9199    165.0340   1.1871673825e+02   3.1034314508e+01    0.5636629    0.4763673  59.79  0.003567342    1.096    0.087
        30 -10.0428      8.4529    250.4990   1.3917900999e+02   2.3831755606e+01    0.3433514    0.1191523  36.27  0.002072332    2.844    0.648
        31  -9.7123     96.0939    149.6794   1.1328251017e+02   3.2336703084e+01    0.2771811    0.2289793  43.15 0.0007366134    1.228    0.186
        32 -11.8441     84.6637    148.5872   1.1588599457e+02   3.4337085593e+01    0.2725111    0.2264923 -55.30  0.000530915    1.267    0.211
        33 -12.2703     67.5221    143.7835   1.1937688233e+02   3.7802463925e+01    0.7312142    0.4460383  65.41  0.003303345    1.828    0.453
        34 -11.5961     57.2922    131.8122   1.2020709497e+02   4.1783483675e+01    0.7714182    0.2933667 -78.63  0.002476165    4.607    0.783
        35  -8.7398     99.3043    145.9461   1.1186188704e+02   3.2631902756e+01    0.1867658    0.1682971 -67.65 0.0003510846    1.110    0.099
        36 -11.1625    106.9093    243.7034   1.2278106715e+02   1.3082481757e+01    0.2129748    0.1530125 -79.89  0.001254065    1.638    0.390
        37  -9.3462    108.5424    135.5243   1.0762646414e+02   3.3346919149e+01    0.3044465    0.2150519 -12.49  0.001345197    2.433    0.589
        38 -10.3842     95.6052    132.5127   1.1034168602e+02   3.6201907282e+01    0.2482332    0.2245326 -27.11 0.0008801112    1.308    0.235
        39  -9.0108    106.0125    122.7226   1.0564135681e+02   3.6610994812e+01    0.1861386    0.1739568  50.99 0.0002452442    1.086    0.079
        40 -13.0296     10.1124    207.0527   1.3711543848e+02   3.1050801121e+01    0.6672516    0.4926503  38.60  0.003049439    1.598    0.374
        41 -10.7112    227.2996    203.2856   9.5398197578e+01  -6.4928199836e-01    0.3391241    0.2413976 -55.34 0.0008186747    2.468    0.595
        42  -9.7459    167.7756    112.8194   8.8115774704e+01   2.5941408710e+01    0.3286434    0.2713651 -81.12  0.001091978    1.537    0.350
        43  -9.0624    203.5514    111.2251   8.0380494814e+01   1.8044830424e+01    0.2068322    0.1412825 -18.78 0.0009346291    1.644    0.392
        44 -10.2774    240.8043     97.6090   7.0713777254e+01   1.1949634736e+01    0.1886653    0.1378172  69.60 0.0007744973    1.700    0.412
        45 -10.6845     13.0946     61.6671   1.2165171131e+02   6.1550443125e+01    0.2437974    0.1348186 -57.75 0.0008862297    1.377    0.274
        46  -9.6481    125.3183    244.6511   1.1965283726e+02   1.0244665528e+01    0.1172426   0.07187963  63.80 0.0007048255    1.733    0.423
        47 -11.7944     18.0130    243.0364   1.3745275018e+02   2.4086537380e+01    0.5775749    0.1135295  50.51   0.00299004    2.955    0.662
        48 -11.0728     17.0741     25.5510   1.1015388112e+02   6.8583914138e+01    0.3507988     0.188062  39.94  0.001960258    2.652    0.623
