#   1 NUMBER                 Running object number                                     
#   2 MAG_AUTO               Kron-like elliptical aperture magnitude                    [mag]
#   3 X_IMAGE                Object position along x                                    [pixel]
#   4 Y_IMAGE                Object position along y                                    [pixel]
#   5 X_WORLD                Barycenter position along world x axis                     [deg]
#   6 Y_WORLD                Barycenter position along world y axis                     [deg]
#   7 A_WORLD                Profile RMS along major axis (world units)                 [deg]
#   8 B_WORLD                Profile RMS along minor axis (world units)                 [deg]
#   9 THETA_WORLD            Position angle (CCW/world-x)                               [deg]
#  10 FWHM_WORLD             FWHM assuming a gaussian core                              [deg]
#  11 ELONGATION             A_IMAGE/B_IMAGE                                           
#  12 ELLIPTICITY            1 - B_IMAGE/A_IMAGE                                       
         1 -11.0226    187.2469     32.0022   6.6723171650e+01   3.4621500625e+01    0.7944815     0.664678  85.60  0.003881415    1.054    0.052
         2 -11.5324    194.6550     20.8706   6.3049158230e+01   3.4192429144e+01    0.7468935    0.7069682  16.18  0.003743812    1.400    0.286
         3  -7.5430    172.9640     10.7523   6.3305669695e+01   4.0414078519e+01    0.1718473    0.1414881  78.38 0.0003544248    1.023    0.023
         4  -9.1714    200.2658     19.3986   6.2039433087e+01   3.3042369254e+01    0.2672056    0.2054829 -84.91 0.0007248457    1.144    0.126
         5  -8.9679    120.3467    249.4348   1.2814880365e+02   5.8727428794e+00    0.2616085    0.2215453 -37.66 0.0005877566    1.571    0.364
         6  -7.2889    102.9973    250.7605   1.3167647571e+02   8.4286092493e+00    0.1596652   0.09079678  44.18 0.0008500147    1.501    0.334
         7  -8.8858     97.7346    249.6998   1.3257030740e+02   9.4556483555e+00    0.3066526    0.2092144  76.42  0.001792611    1.495    0.331
         8 -11.1066     68.0423    199.3607   1.3279383577e+02   2.4589583948e+01    0.7752941    0.5971732 -83.15   0.00366749    1.165    0.141
         9 -11.1807     78.5845    219.4565   1.3296929606e+02   1.8553093747e+01    0.9322596    0.6349027 -88.41  0.001426124    1.451    0.311
        10 -12.9734     58.6867    210.4697   1.3608659627e+02   2.3374887839e+01      4.55046     1.604922  60.66   0.01517638    4.349    0.770
        11 -12.0024    247.0245    237.4528   1.0173249700e+02  -1.2746528688e+01    0.2455759    0.2137686  -5.60 6.614916e-05    1.182    0.154
        12 -14.3834     20.3768    241.8540   1.4598912841e+02   2.1477855822e+01     2.515812     2.087678 -82.44   0.01090064    1.370    0.270
        13 -11.4780     67.9672    249.4129   1.3813943823e+02   1.3949532675e+01     1.894059    0.4271212  41.85  0.007283453    3.496    0.714
        14  -8.2937     71.5770    238.8202   1.3645594414e+02   1.5531457747e+01    0.1926154     0.142424  53.71 0.0005026958    1.192    0.161
        15  -8.4619    102.2013    235.8725   1.3009846969e+02   1.1435061179e+01    0.1934637    0.1516301  72.17  0.000424818    1.175    0.149
        16 -10.3221    110.1933    230.5890   1.2780401887e+02   1.1186588960e+01    0.7270787    0.1844239  42.02  0.002499049    3.353    0.702
        17  -8.7336    110.5448    224.6662   1.2694493130e+02   1.2339036380e+01     0.552039    0.4054018 -18.58  0.002705819    2.446    0.591
        18  -8.4149     88.1466    243.2200   1.3371649743e+02   1.2188983623e+01    0.1843795    0.1598051 -73.41   0.00029245    1.302    0.232
        19  -8.8514     69.8180    229.3786   1.3583958763e+02   1.7727691133e+01    0.2147281    0.1516836  86.95 0.0006390323    1.301    0.232
        20  -7.8923    132.9516    230.0000   1.2300112693e+02   7.4152631760e+00    0.2316813   0.06956096  40.61 0.0008058991    2.966    0.663
        21  -9.8446     96.2280    227.3816   1.3027576590e+02   1.4127388706e+01    0.4230554    0.1646774  47.87  0.001781756    2.282    0.562
        22 -10.7429     18.4583    229.1253   1.4547267766e+02   2.4254387682e+01    0.5269572    0.2282909 -61.05  0.001407361    2.431    0.589
        23 -10.0212    159.7211    215.7867   1.1511242094e+02   5.3812258614e+00    0.2400457    0.2365801  36.75 0.0003638153    1.075    0.070
        24  -8.0701      1.7162    203.1174   1.4672473726e+02   3.1400945685e+01    0.1742759    0.1152842  73.84  0.001171026    1.226    0.184
        25 -11.5024     11.2627    207.1773   1.4522161666e+02   2.9628110772e+01    0.5588167    0.3569955  35.52  0.001771598    1.866    0.464
        26 -10.3292      3.9829    214.0239   1.4704307296e+02   2.8870549709e+01    0.3619079    0.2233411  44.30  0.001479281    1.678    0.404
        27  -9.9480     11.8814    214.2990   1.4562316239e+02   2.8041051732e+01    0.5046415    0.1211065  41.42   0.00225746    3.358    0.702
        28  -7.7917    169.0716    213.9667   1.1281541957e+02   4.0085420727e+00    0.2126458    0.1669998  77.75 0.0005068164    1.685    0.407
        29  -7.6839     88.2982    204.6764   1.2902399740e+02   2.0324553458e+01    0.1441692   0.09504973  73.71 0.0002928253    1.626    0.385
        30  -7.5571    161.0148    200.9876   1.1223242638e+02   8.1013855970e+00    0.2139451    0.1705628  76.77 0.0003282342    1.543    0.352
        31  -9.4649    199.4483    199.5966   1.0383922527e+02   1.0979469991e+00    0.4340374    0.2519957  35.35  0.002013974    1.708    0.414
        32  -9.7417     12.2172    195.7691   1.4415326995e+02   3.2031825920e+01    0.3858208    0.1904663  63.30 0.0008135028    1.952    0.488
        33  -8.0957    190.9913    191.2540   1.0395193119e+02   4.2809660268e+00    0.2491106    0.1620164 -80.94 0.0008982659    3.504    0.715
        34  -7.8813     58.8283    189.2832   1.3358479996e+02   2.8204286104e+01    0.2400666    0.1502546 -46.75   0.00116285    1.961    0.490
        35  -8.3008    209.0189    188.4894   9.9723350977e+01   1.3954007527e+00    0.2167426    0.1363179  39.91 0.0001465855    1.591    0.371
        36  -7.4870     15.0035    188.7614   1.4300120314e+02   3.3331372264e+01    0.1336501   0.09637928  42.80 0.0005245875    1.553    0.356
        37  -7.9031     87.0812    174.5891   1.2481480241e+02   2.7565499231e+01    0.2754736    0.1688888  76.93  0.001022537    2.169    0.539
        38  -9.4288     79.9449    183.3430   1.2789576273e+02   2.6583997522e+01    0.4277856    0.2827309 -44.74  0.001833723    1.804    0.446
        39  -9.1828     83.5113    177.8222   1.2620001280e+02   2.7352382556e+01    0.3327051    0.2411944 -46.28  0.000643421    1.552    0.356
        40  -7.2702      9.0680    184.0000   1.4381239719e+02   3.4951717232e+01    0.1533691    0.0665002  30.41 0.0005954983    2.761    0.638
        41  -7.7695    198.8938    179.1540   9.9867096879e+01   5.1237446170e+00    0.2139785    0.2043766 -82.17    0.0012073    1.191    0.160
        42  -9.8541     21.7192    175.6047   1.4032232488e+02   3.5692591964e+01     0.378861    0.2171021 -76.05  0.002131531    1.422    0.297
        43  -7.5683    109.1117    246.1273   1.2995411224e+02   8.3222471228e+00    0.1807671    0.1316767  68.90   0.00055458    1.319    0.242
        44  -9.3078     90.3484    167.5817   1.2282423581e+02   2.8731822806e+01    0.3543228    0.2507599  64.68 0.0006925472    1.529    0.346
        45 -10.8377     79.2329    163.4314   1.2490746387e+02   3.1498943667e+01    0.4601359    0.3198271 -44.24  0.001105139    1.598    0.374
        46  -7.1527    177.5231    165.5857   1.0153655464e+02   1.2248715590e+01    0.1493126    0.1474591  44.55 0.0001428422    1.017    0.017
        47  -7.4676     35.2078    163.5776   1.3584143576e+02   3.7150896244e+01    0.1469706     0.129399   6.01 0.0003790748    1.554    0.357
        48  -9.1525     95.6970    160.8911   1.2026875253e+02   2.9466652023e+01    0.4553277    0.3045249 -29.69  0.001428102    2.163    0.538
        49  -8.5408    250.6429    159.0993   8.6025884188e+01  -7.9954059466e-01    0.1980646    0.1148197 -39.19 0.0003118207    1.522    0.343
        50  -8.3879    107.8776    158.6020   1.1672242773e+02   2.7882801409e+01    0.2304487    0.1971693 -49.21 0.0004289859    1.194    0.163
        51  -8.3524    173.9450    153.0922   9.9576944499e+01   1.5699826623e+01    0.2237984    0.2188429 -61.24 0.0002850335    1.014    0.014
        52 -10.6154     68.3094    144.9465   1.2451711799e+02   3.7613519574e+01    0.7002045    0.4599543  86.00  0.003252714    1.948    0.487
        53 -10.3015    220.3380    147.9958   8.8970332379e+01   6.9653915805e+00    0.2589834    0.2447535 -63.99 0.0002505108    1.115    0.103
        54  -8.7957    106.8835    143.6915   1.1390938278e+02   3.1662568851e+01    0.3993264    0.2645627 -31.88  0.001712225    1.936    0.483
        55  -7.2529     96.6556    144.6553   1.1683363276e+02   3.3251099538e+01     0.154884    0.1166836 -21.99 0.0007045628    1.794    0.442
        56  -8.9568     66.8084    134.2736   1.2292295237e+02   4.0412210422e+01    0.2102272    0.1677295 -66.42   0.00114898    1.149    0.130
        57  -8.9883    239.1699    129.7947   8.1698665718e+01   6.6456324917e+00    0.2289419    0.2108238 -32.61 0.0002456404    1.088    0.081
        58  -7.8584    167.6643    130.5405   9.5720167951e+01   2.1992706929e+01    0.2742945    0.1537767  43.13 0.0006283702    1.851    0.460
        59  -7.4460    102.1801    129.8076   1.1209357260e+02   3.5838088254e+01    0.2053113    0.1758797 -19.89 0.0004121061    1.357    0.263
        60  -7.6280    224.5110    129.0270   8.3999474528e+01   9.7632022446e+00    0.1959336    0.1167362 -61.96 0.0003718317    2.175    0.540
        61  -7.8983    115.1812    133.5755   1.0944422223e+02   3.2507436881e+01    0.2082521    0.1504779  28.07 0.0008513273    1.618    0.382
        62  -8.1570     33.6499    129.2730   1.3131691780e+02   4.5487282447e+01     0.215913    0.1716937  36.76  0.001329291    1.471    0.320
        63  -7.8669     26.8426    128.0457   1.3301178118e+02   4.6407192415e+01    0.1859189    0.1503066  86.47 0.0004057401    1.278    0.217
        64  -7.4684    110.1640    121.8244   1.0800248223e+02   3.6217828857e+01    0.2021994     0.179652 -14.47 0.0004547201    1.270    0.213
        65  -7.7704     10.7665    115.7754   1.3564383405e+02   5.0499590885e+01    0.1594976    0.1224795  89.34 0.0003871703    1.352    0.260
        66  -7.7874    168.4747    113.9703   9.1432339878e+01   2.5328183235e+01    0.2222038    0.1316748 -64.86 0.0006635113    2.389    0.581
        67  -8.2102    195.8844    107.4644   8.4168859971e+01   2.0258154358e+01    0.3006174    0.2101895  79.30  0.001328022    1.806    0.446
        68  -8.3315     96.9945     90.2813   1.0345832484e+02   4.5600293482e+01    0.2287997    0.1937773 -39.67 0.0003120185    1.139    0.122
        69  -7.6710    141.5176     85.0364   8.9925883030e+01   3.7359106793e+01    0.2171737    0.1495737 -38.54  0.000379602    1.488    0.328
        70  -9.7971    234.8036     74.2400   7.0121826416e+01   1.7367953611e+01    0.2624531    0.2302037  76.60 0.0004088179    1.179    0.152
        71  -8.0854    239.3590     69.9372   6.8595964094e+01   1.7074299748e+01    0.2325706    0.1870364  65.71 0.0007674316    1.323    0.244
        72  -8.3543    121.0087     68.1639   9.0122722658e+01   4.4967339678e+01    0.2257699    0.2012986 -34.26  0.001255469    1.153    0.133
        73  -7.2414    236.4928     63.4858   6.7560376032e+01   1.8714152099e+01    0.1349922    0.1164719 -70.95 0.0008103042    1.029    0.028
        74  -8.0754    109.8691     57.3417   8.9713117607e+01   4.9097648089e+01    0.2083339    0.1881693 -35.86 0.0004193927    1.179    0.152
        75  -9.4517    133.0684     45.5745   8.0220426572e+01   4.5768196379e+01    0.2286043    0.2163728  -5.02 0.0002506591    1.131    0.116
        76  -9.7653    176.9515     40.2289   7.0360401220e+01   3.6044998553e+01    0.3264386    0.2687654 -60.67 0.0008113703    1.239    0.193
        77  -8.6036    134.4813    249.6450   1.2539343412e+02   3.4876957199e+00    0.2361035    0.1048013  41.61 0.0008795036    1.906    0.475
        78  -9.3016    228.1882     25.5958   6.0400872183e+01   2.5900998398e+01      0.31137    0.2275521 -37.97 0.0008999372    1.527    0.345
        79 -12.1923     49.9386    232.9312   1.4001616549e+02   1.9710949922e+01     1.058523    0.6968275  39.52  0.004886205    1.641    0.391
        80  -8.5364    128.6153    246.8567   1.2619144452e+02   4.9722208061e+00    0.1725454    0.1201383 -77.11 0.0009513868    1.775    0.436
