#   1 NUMBER                 Running object number                                     
#   2 MAG_AUTO               Kron-like elliptical aperture magnitude                    [mag]
#   3 X_IMAGE                Object position along x                                    [pixel]
#   4 Y_IMAGE                Object position along y                                    [pixel]
#   5 X_WORLD                Barycenter position along world x axis                     [deg]
#   6 Y_WORLD                Barycenter position along world y axis                     [deg]
#   7 A_WORLD                Profile RMS along major axis (world units)                 [deg]
#   8 B_WORLD                Profile RMS along minor axis (world units)                 [deg]
#   9 THETA_WORLD            Position angle (CCW/world-x)                               [deg]
#  10 FWHM_WORLD             FWHM assuming a gaussian core                              [deg]
#  11 ELONGATION             A_IMAGE/B_IMAGE                                           
#  12 ELLIPTICITY            1 - B_IMAGE/A_IMAGE                                       
         1 -13.9810    168.0325     64.6941   2.9034266047e+02   5.9883571116e+00    0.2107367       0.1022 -82.90  0.008688703    4.404    0.773
         2 -15.2268    205.2136     61.0598   2.8988490736e+02   5.7975236231e+00    0.4425529    0.1867303  42.92   0.03601669    2.469    0.595
         3 -15.0602    245.8154     88.8427   2.8958564197e+02   5.2285498966e+00    0.4310595   0.09857404 -61.36   0.02603245    4.545    0.780
         4 -14.1194    233.0048      3.6756   2.8919803927e+02   6.2744577915e+00    0.0399907   0.03260851 -19.41  0.001890321    1.354    0.261
         5 -14.5724    247.4892     23.9322   2.8915671965e+02   5.9542344579e+00   0.04708016   0.03245658 -70.85  0.002225641    1.607    0.378
         6 -14.3432    191.7404     44.3856   2.8993734426e+02   6.0708674887e+00    0.3429638   0.05483499 -51.03   0.01923871    5.162    0.806
         7 -16.2239    245.6630     11.6782   2.8910068514e+02   6.1045371853e+00    0.2037141    0.1274938  -0.51   0.01202019    2.206    0.547
         8 -11.5936    131.2134     21.7124   2.9050292391e+02   6.7057009761e+00   0.03313825   0.02808203  52.81  0.003867156    1.242    0.195
         9 -10.1982    142.3759     10.1203   2.9029908515e+02   6.7676253301e+00   0.03608819   0.01417318 -56.22  0.002810784    2.443    0.591
        10 -10.2627    125.2148     14.1821   2.9052574120e+02   6.8285055481e+00   0.01505276    0.0130536  85.98  0.001251707    1.293    0.226
        11 -11.4295    119.3293     10.0637   2.9056874850e+02   6.9118842753e+00   0.03449799   0.02536334   9.44  0.002728481    1.502    0.334
        12 -10.0566    182.9975      7.0410   2.8980407133e+02   6.5490206382e+00   0.03258824   0.01583628  45.48  0.002811502    2.230    0.552
        13  -9.6714    183.0052      2.5685   2.8977575619e+02   6.5996760605e+00   0.02873663   0.01150643  39.06  0.002330852    2.411    0.585
        14  -8.5556    151.0220      7.3506   2.9018035249e+02   6.7451158568e+00   0.01483066  0.008796625 -78.20  0.001153394    2.220    0.549
        15  -9.3372    172.2411      3.5756   2.8990809392e+02   6.6554887553e+00   0.02241008   0.01408657  74.68  0.001958332    2.426    0.588
        16  -8.4777    186.6190      1.7797   2.8972848898e+02   6.5860390967e+00   0.01096757  0.009336419  39.67  0.000570379    1.166    0.143
        17  -9.3661     71.9201    243.1938   2.9258650089e+02   4.5570148084e+00   0.01138646  0.009338372 -47.80 0.0002211145    1.229    0.186
        18 -10.7464    216.3985    130.1373   2.9018917208e+02   4.9435004429e+00   0.01836094   0.01044916  42.12 0.0008486153    1.774    0.436
        19  -9.3153    135.8159    135.8280   2.9116696027e+02   5.3810346638e+00   0.01063959   0.01027604 -11.44 0.0005548446    1.035    0.034
        20 -12.0573    184.7042    122.8095   2.9051343385e+02   5.2244308463e+00   0.03905305   0.02247183 -52.14  0.003791553    1.720    0.419
        21  -9.4788    160.5700    128.1228   2.9082901615e+02   5.3144772009e+00   0.01582553   0.01129012  74.00  0.001601341    1.822    0.451
        22 -10.3232    207.1905    124.1006   2.9025876483e+02   5.0695130089e+00   0.01726166   0.01163471  76.99  0.001654063    2.071    0.517
        23 -11.9506    206.0099    110.5059   2.9018701773e+02   5.2312618737e+00   0.03123476   0.02451478  -7.28  0.003433634    1.453    0.312
        24 -10.5892    220.7189    119.0522   2.9006895903e+02   5.0424107721e+00   0.01733689   0.01411673 -36.11  0.001237553    1.281    0.220
        25 -10.5020    220.0473    114.4613   2.9004791001e+02   5.0987298507e+00   0.02086673   0.01293038  59.03  0.001519416    2.067    0.516
        26  -9.4693    133.7081    120.4233   2.9109486421e+02   5.5692208487e+00   0.01945128   0.01296376   6.17  0.001919164    1.811    0.448
        27 -10.9252    167.9295    114.4604   2.9065706175e+02   5.4238422079e+00   0.02034656   0.01828752 -33.40 0.0009634285    1.137    0.121
        28  -9.0024    134.6786    113.5420   2.9104027048e+02   5.6413748784e+00   0.01218177  0.006222704 -61.99  0.001087902    2.019    0.505
        29 -10.4932    214.5468    116.0500   2.9012216481e+02   5.1150276152e+00   0.01945177   0.01435989  55.78  0.002080683    1.516    0.340
        30  -9.7587    196.3295    111.3267   2.9030531457e+02   5.2823441289e+00   0.01164967  0.008388883  17.08 0.0008167668    1.458    0.314
        31  -8.8340    150.2607    105.0827   2.9080476891e+02   5.6404628172e+00   0.01120182  0.007525471  72.08  0.001066312    2.041    0.510
        32  -8.7532    178.1015    103.8824   2.9047157303e+02   5.4805820771e+00   0.01051695  0.008835748  55.58 0.0005313401    1.272    0.214
        33  -8.7062    140.5962    104.1662   2.9091209197e+02   5.7110628546e+00  0.009767351  0.005822106 -47.75 0.0009403714    1.697    0.411
        34 -10.9194    214.7349    111.8026   2.9009323579e+02   5.1620804493e+00   0.02180642   0.01302991  26.33  0.002132868    1.663    0.399
        35  -9.5346    146.5427     99.6344   2.9081401152e+02   5.7255144596e+00   0.01418788   0.01147587 -41.60 0.0007510518    1.266    0.210
        36  -9.7550    196.5089     97.1196   2.9021380334e+02   5.4425545390e+00   0.01667878   0.01256458  20.93  0.001562232    1.343    0.256
        37  -8.8230    132.9428     96.1805   2.9095145405e+02   5.8494371871e+00   0.01010531  0.008607878  54.87 0.0004461592    1.245    0.197
        38  -8.4435    207.7944     93.2482   2.9005752353e+02   5.4160668521e+00   0.01392917  0.008511836 -49.19 0.0007525965    1.641    0.391
        39 -10.3883    155.6680     92.8858   2.9066479005e+02   5.7453210162e+00   0.02147681   0.01444955  -1.01  0.002102783    1.891    0.471
        40  -9.6579    139.7596     89.3647   2.9082880494e+02   5.8844184388e+00   0.01567263   0.01452209  82.24 0.0009074081    1.161    0.139
        41  -7.8448      6.5482    233.4461   2.9328993702e+02   5.0725271643e+00  0.006626076  0.006377585  -9.58 6.924592e-05    1.040    0.038
        42 -10.9157    153.3869     82.6061   2.9062680073e+02   5.8762865122e+00   0.01744011   0.01593171 -38.70 0.0009584352    1.108    0.097
        43  -8.5781     49.4020    222.2857   2.9271921575e+02   4.9343587590e+00     0.011182  0.009458411 -27.04  0.001087222    1.253    0.202
        44  -7.6657    128.3250     83.6452   2.9092668368e+02   6.0205812148e+00  0.007164388  0.005015735  63.70 0.0007046385    1.767    0.434
        45 -10.7231      3.2864    212.1446   2.9319530738e+02   5.3350348191e+00   0.02356846   0.01813215 -52.40  0.002633564    1.302    0.232
        46  -8.5732    145.1529     70.9005   2.9064949819e+02   6.0605228566e+00   0.01820359  0.008415527 -78.75  0.001220691    4.099    0.756
        47  -8.6096    123.9857    206.0052   2.9174537638e+02   4.6568013888e+00  0.009233103  0.008947652  -8.98  0.001141494    1.029    0.028
        48 -13.0070     19.7474    193.8761   2.9288872129e+02   5.4410994073e+00   0.04714735   0.04665166 -13.96  0.003848697    1.017    0.017
        49  -8.5401    147.2843     57.4572   2.9053991191e+02   6.1998749544e+00  0.009253831  0.005992983  40.08 0.0005748975    1.529    0.346
        50  -8.5931     18.5344    151.4611   2.9263785231e+02   5.9310851661e+00  0.006714801  0.006324264 -16.14 6.437003e-05    1.076    0.071
        51  -8.2096    134.0000    147.9871   2.9126453756e+02   5.2541331755e+00   0.01117236  0.003811677 -61.10 0.0008083472    2.984    0.665
        52 -10.5992     68.5787    145.0843   2.9201193471e+02   5.6935716763e+00   0.03452733   0.01912106  51.18   0.00311251    2.133    0.531
        53  -8.5265    143.4178    144.7730   2.9113420580e+02   5.2320633881e+00   0.01000793  0.005874469 -48.61 0.0009582107    1.714    0.416
        54 -11.7408    210.8531    135.0711   2.9028498273e+02   4.9220688676e+00   0.03379434   0.01896949  33.73   0.00324312    1.707    0.414
        55 -10.5541    199.9665    124.0318   2.9034274155e+02   5.1153633930e+00    0.0140714   0.01042631  38.26 0.0003109835    1.328    0.247
        56 -12.2863    197.1444    131.7443   2.9042422534e+02   5.0453648374e+00   0.03800374   0.03112617  72.26  0.003906309    1.412    0.292
        57 -10.6242     41.9809    188.9972   2.9259807378e+02   5.3589900506e+00    0.0182233   0.01272356  43.12  0.001925092    1.450    0.310
        58 -10.4473    146.0531     20.8121   2.9032343135e+02   6.6234190469e+00   0.01393457   0.01183206  83.82 0.0003818879    1.341    0.254
        59  -9.8776    191.2995    188.2793   2.9084768407e+02   4.4394854165e+00   0.01215541    0.0113339 -41.07 0.0002919455    1.082    0.076
        60 -12.0002     60.3286    162.9081   2.9222014840e+02   5.5420430161e+00   0.04388382   0.03225811  26.66   0.00270567    1.339    0.253
        61 -11.5899     48.7323    173.2068   2.9242032800e+02   5.4967813590e+00   0.02643725   0.02235515   2.83  0.001293286    1.253    0.202
        62 -11.9516     55.1740    168.3280   2.9231440616e+02   5.5123528739e+00   0.04279452   0.03473596  41.87   0.00287171    1.234    0.190
        63  -8.5738    218.9761    169.8459   2.9040872484e+02   4.4764174803e+00   0.01768603  0.005476921  40.74  0.001235675    3.218    0.689
        64 -10.5145     74.0730    154.9854   2.9200965205e+02   5.5468955966e+00    0.0195837   0.01020485 -49.64  0.001798122    1.913    0.477
        65 -10.8569    221.4997    132.3123   2.9014327451e+02   4.8869655441e+00   0.01805069   0.01325445 -40.36  0.001948498    1.423    0.297
        66 -10.0474    245.4212    248.9376   2.9059664285e+02   3.4132852749e+00    0.0267175   0.01252047   9.70  0.001856055    3.732    0.732
