#   1 NUMBER                 Running object number                                     
#   2 MAG_AUTO               Kron-like elliptical aperture magnitude                    [mag]
#   3 X_IMAGE                Object position along x                                    [pixel]
#   4 Y_IMAGE                Object position along y                                    [pixel]
#   5 X_WORLD                Barycenter position along world x axis                     [deg]
#   6 Y_WORLD                Barycenter position along world y axis                     [deg]
#   7 A_WORLD                Profile RMS along major axis (world units)                 [deg]
#   8 B_WORLD                Profile RMS along minor axis (world units)                 [deg]
#   9 THETA_WORLD            Position angle (CCW/world-x)                               [deg]
#  10 FWHM_WORLD             FWHM assuming a gaussian core                              [deg]
#  11 ELONGATION             A_IMAGE/B_IMAGE                                           
#  12 ELLIPTICITY            1 - B_IMAGE/A_IMAGE                                       
         1 -15.2513     68.5656    144.2969   1.0919563132e+02   3.7358032419e+01      5.28338     2.632437  70.52  0.003840769    3.507    0.715
         2 -14.3509    198.1287     36.1215   4.9223226428e+01   3.0925243908e+01     1.747223     1.344561  26.50  0.006226808    1.661    0.398
         3 -14.5176    209.3886     24.0516   4.4540764459e+01   2.9592934757e+01     1.478961     1.088021   5.57  0.004326104    1.940    0.485
         4 -10.7918     61.0248      7.5299   6.9846185378e+01   6.6340724315e+01    0.1823392    0.1108877  40.67 0.0003974207    1.572    0.364
         5 -12.7937     58.4296      2.7708   6.8409576848e+01   6.7300555613e+01    0.9194742    0.2035234  48.99  0.003194306    4.543    0.780
         6 -11.8807    233.3629      2.0251   3.6868638205e+01   2.6267347454e+01    0.6565568    0.2127998  74.37   0.00258678    2.875    0.652
         7 -11.9560    193.8080    195.8406   8.9434089192e+01   4.1261142793e+00      1.06492    0.5742128 -64.29  0.003144503    6.577    0.848
         8 -11.2160    139.9183    248.7325   1.0789397694e+02   4.9642961413e+00    0.3289028    0.2058905 -74.32  0.001856597    2.465    0.594
         9 -13.0191     71.6961    175.5544   1.1292168571e+02   2.9617521682e+01     1.119933    0.5868195 -33.61  0.003727171    5.390    0.814
        10 -14.6610     86.8500    228.3420   1.1566055451e+02   1.6553011081e+01     1.990453     1.086207  44.78  0.004862938    1.531    0.347
        11 -14.7198     46.7784    220.8533   1.2255659142e+02   2.3328527677e+01     1.205654     1.061098  62.38  0.006666523    1.305    0.234
        12 -13.2549     17.7616    191.7796   1.2601468590e+02   3.2394101368e+01    0.3974527    0.2902251  52.48 0.0006097805    1.331    0.248
        13 -16.6283     49.7796    200.5336   1.2033025250e+02   2.7050964895e+01     16.03348     5.458522 -84.67   0.02144118    4.676    0.786
        14 -16.3328     65.2339    248.1295   1.2127027202e+02   1.6005068583e+01     8.223376     2.478552  32.18   0.02206713    7.273    0.863
        15  -9.3750     98.8454    199.8445   1.1002987167e+02   2.0285220849e+01    0.1820696    0.1339729  68.94            0    1.297    0.229
        16 -13.3895     89.6076    155.9976   1.0572997220e+02   3.1448771555e+01     2.101846     1.071651 -75.49  0.004893417    2.573    0.611
        17 -13.7306     55.6577    146.1612   1.1283337791e+02   3.8592215351e+01    0.8819131    0.7800274 -32.03  0.005453417    1.442    0.306
        18 -10.1453    173.5068    244.5142   1.0114798108e+02   2.0725434628e-01    0.1943905    0.1552139 -47.30 0.0009278097    1.610    0.379
        19 -10.5813    113.3618    199.1512   1.0682970950e+02   1.8058895495e+01    0.3201862    0.1878236  82.82  0.001340596    2.703    0.630
        20 -16.9259      7.8977    244.4632   1.3050306645e+02   2.3247635724e+01      1.89019     1.628282  46.82   0.01073537    1.623    0.384
        21  -9.7502    161.9847    166.7281   9.0483062733e+01   1.5603431227e+01    0.2068365    0.1865923  48.18 0.0004574517    1.079    0.073
        22 -10.0346     82.0834    195.0086   1.1301945338e+02   2.3859897413e+01    0.2275454    0.1722209  51.50 0.0007399806    1.201    0.168
        23 -10.2749     73.5638    188.3870   1.1408033490e+02   2.6510888302e+01    0.2544048    0.1806012  70.61 0.0006360331    1.301    0.231
        24 -16.7847      6.4221    210.4353   1.2920630479e+02   2.9687024153e+01     5.258007    0.8842242 -69.23    0.0215419    4.385    0.772
        25 -11.2400    133.7610    143.5208   9.2211997644e+01   2.6299077183e+01    0.8937357    0.2959226 -57.87  0.002295337    5.023    0.801
        26 -10.2778    174.8763    149.1110   8.3857110755e+01   1.6453368545e+01    0.2319261    0.2133822  82.84 0.0005674623    1.245    0.197
        27  -9.3027     95.7613    188.6189   1.0921409718e+02   2.3126848135e+01    0.1832396    0.1109643  50.59 0.0002780117    1.508    0.337
        28  -9.5293    150.3654    187.6913   9.6996864418e+01   1.3725606506e+01      0.14648    0.1061096  70.60 0.0007038117    1.752    0.429
        29 -10.3137     84.6636    144.1133   1.0493988558e+02   3.5041682239e+01    0.3202061    0.2169457  81.38  0.001510774    1.792    0.442
        30 -11.0954    103.2299    140.6141   9.9394109968e+01   3.2786343629e+01    0.5710821    0.3342872 -30.17  0.002173351    2.810    0.644
        31 -12.4871     90.5760    140.8721   1.0278318106e+02   3.4874089603e+01    0.2807944    0.2594003 -56.46 0.0005213033    1.125    0.111
        32  -9.5107    174.3927    138.2063   8.1444374344e+01   1.8753019412e+01    0.2123102    0.1443429 -52.41 0.0003851391    1.612    0.380
        33 -12.1797     45.7513    137.0000   1.1410959508e+02   4.1944310451e+01    0.4109928    0.2001273 -54.25  0.001479794    1.915    0.478
        34 -13.6960     70.9453    158.6517   1.1079051021e+02   3.3618329617e+01    0.5904383    0.5058447 -39.29  0.001345194    1.456    0.313
        35 -10.3054    106.0120    130.7432   9.6579557195e+01   3.4617091711e+01    0.3360737    0.2955467 -74.96  0.001251482    1.132    0.116
        36 -10.3454    112.2547    130.8251   9.4924707596e+01   3.3437959231e+01    0.2815469    0.2456802   6.52 0.0008029127    1.396    0.284
        37  -9.5344     98.9520    186.0238   1.0814151080e+02   2.3172515279e+01    0.2219221    0.1461692  71.88 0.0006365253    1.683    0.406
        38 -10.8739    135.6964    124.1174   8.7217424136e+01   3.0249329855e+01    0.3896911    0.1647988 -48.61  0.001169382    2.379    0.580
        39 -10.5749    137.9729    171.2518   9.6799690964e+01   1.9414582181e+01    0.2958772    0.1869446 -80.47  0.001187093    2.600    0.615
        40 -11.7329    118.9744    125.6272   9.1939542712e+01   3.3346661364e+01    0.9202425    0.4997534 -44.17  0.003730397    1.867    0.464
        41  -9.8236    160.6601    127.3389   8.1926143222e+01   2.4061624190e+01     0.163648     0.126407 -86.60 0.0007050345    1.764    0.433
        42 -11.2050     98.9381    127.1205   9.7713920206e+01   3.6741394507e+01    0.3946133    0.2842788  24.81  0.001068876    1.699    0.412
        43  -9.9184    147.5015    185.0454   9.7157062130e+01   1.4782871565e+01     0.204592     0.141757 -49.81   0.00102731    1.573    0.364
        44  -9.9353    108.1708    119.6544   9.3451884892e+01   3.6823203081e+01    0.2250965    0.1979502 -65.49 0.0003299434    1.123    0.110
        45 -10.4674    107.9619    203.6837   1.0859516499e+02   1.8042825679e+01    0.1901773    0.1551073  56.93 0.0006580021    1.058    0.055
        46 -12.7464     43.6553    109.1657   1.1019950402e+02   4.8864817054e+01    0.4197669    0.3767301  68.76  0.001716749    1.219    0.180
        47  -9.5253    168.0136    112.9734   7.6556983708e+01   2.5352245482e+01    0.2647696    0.1981991 -77.61    0.0011302    1.836    0.455
        48  -9.9080    135.0000    112.9447   8.4552242659e+01   3.2882020661e+01    0.2626108   0.08881266 -45.14 0.0007990943    2.919    0.657
        49 -11.5876    118.2085    109.1345   8.8035006050e+01   3.7278369521e+01    0.5653839     0.461913  62.20  0.002772897    1.351    0.260
        50  -9.9912    205.5418    110.1700   6.8089067370e+01   1.7093668698e+01    0.2634716    0.2185145  49.66 0.0006113114    1.256    0.204
        51 -10.5200     99.3736    180.7029   1.0727696318e+02   2.4258716190e+01    0.2402621    0.2275913  51.75 0.0006656596    1.172    0.147
        52  -9.5334     93.9156    104.3652   9.3766871659e+01   4.2987776080e+01    0.1932855    0.1830459  45.58 0.0004400298    1.122    0.108
        53  -8.8551    104.2614    101.2851   8.9902520295e+01   4.1806003797e+01    0.1455017    0.1168951 -17.14 0.0001646263    1.486    0.327
        54  -9.8612    135.0000    106.0176   8.2697389407e+01   3.4398827290e+01    0.2661032   0.08894858 -44.09 0.0008033259    2.949    0.661
        55 -11.8238     52.8508     93.0122   1.0394233084e+02   5.1674701769e+01    0.4569115    0.3064407 -68.33  0.002101674    1.475    0.322
        56  -8.9133    108.5224     93.4898   8.6490814455e+01   4.2721607973e+01    0.1524881    0.1453892 -65.31 0.0001315999    1.086    0.079
        57 -10.8407     41.7929     91.9404   1.0737939264e+02   5.3135660545e+01    0.1971415    0.1883893 -24.42 0.0005059689    1.181    0.153
        58 -12.6320     82.9180    163.0716   1.0851471917e+02   3.0839401103e+01     0.718075    0.3924554  59.64 0.0004072502    2.060    0.514
        59  -8.7750    157.6660     80.7124   6.9813238405e+01   3.4210431216e+01    0.1611904    0.1233926  18.76 0.0003224236    1.627    0.385
        60  -9.6688     58.9589     67.5113   9.4983349736e+01   5.6622338516e+01    0.1905737    0.1336123  32.41   0.00102533    1.587    0.370
        61 -11.2779     13.4160     59.9474   1.1048408258e+02   6.2628632634e+01    0.2373353    0.1835297 -64.91 0.0004447729    1.202    0.168
        62 -11.3255    148.7507     52.6067   6.2950660997e+01   4.1298711708e+01    0.5137898    0.3401673 -78.28  0.001778755    2.361    0.576
        63 -13.3743    188.9685     43.1657   5.2558996926e+01   3.2325863583e+01     0.975168    0.6208005  37.24  0.001034707    1.927    0.481
        64 -10.7923    171.8089    241.0693   1.0098879210e+02   9.6718217677e-01    0.2220989    0.1751647 -51.31 0.0008994967    1.645    0.392
        65 -10.8136    209.7620    199.3134   8.6975743137e+01   7.1365611407e-01    0.2654257    0.2168918 -70.66 0.0009359791    2.002    0.501
        66 -10.3773    149.8869     45.6811   6.0410375240e+01   4.2061649134e+01    0.2683814    0.2297107 -60.38 0.0004759478    1.284    0.221
        67 -12.0251     20.7675     33.3934   9.9447801846e+01   6.7476263823e+01    0.3856256    0.1945552  34.89  0.002001821    2.520    0.603
        68 -11.5419     21.6571     21.1222   9.4184564849e+01   6.9584526150e+01    0.1827316    0.1526374  12.75 0.0009340286    1.366    0.268
        69  -8.8982    143.0009     17.7627   5.2234672413e+01   4.7345090562e+01    0.1788384    0.1102213  62.80  0.000228901    1.489    0.329
        70  -9.7329    189.6863     14.9832   4.4370756871e+01   3.5612947119e+01    0.1909266    0.1733015 -56.58 0.0005780463    1.117    0.105
        71 -10.4874    198.6975    222.7993   9.3170106538e+01  -8.6099763521e-01    0.2123826    0.1446079  29.57 0.0004888407    1.252    0.201
        72  -9.5785    130.2417    212.8386   1.0519768952e+02   1.2562407841e+01    0.1917889    0.1586394  64.13 0.0004961893    1.166    0.143
