#   1 NUMBER                 Running object number                                     
#   2 MAG_AUTO               Kron-like elliptical aperture magnitude                    [mag]
#   3 X_IMAGE                Object position along x                                    [pixel]
#   4 Y_IMAGE                Object position along y                                    [pixel]
#   5 X_WORLD                Barycenter position along world x axis                     [deg]
#   6 Y_WORLD                Barycenter position along world y axis                     [deg]
#   7 A_WORLD                Profile RMS along major axis (world units)                 [deg]
#   8 B_WORLD                Profile RMS along minor axis (world units)                 [deg]
#   9 THETA_WORLD            Position angle (CCW/world-x)                               [deg]
#  10 FWHM_WORLD             FWHM assuming a gaussian core                              [deg]
#  11 ELONGATION             A_IMAGE/B_IMAGE                                           
#  12 ELLIPTICITY            1 - B_IMAGE/A_IMAGE                                       
         1 -10.6929     63.3885     47.9763   5.6007238282e+01   6.1274549535e+01     0.412804    0.2290334 -27.92  0.001721193    2.275    0.560
         2 -11.1774     53.7109     50.2919   6.1115518315e+01   6.2427141714e+01    0.7297702     0.163347 -49.50  0.002136253    4.304    0.768
         3 -10.9168     40.9132     14.0002   4.9975045175e+01   7.0993921868e+01    0.2020026    0.1664616   9.42 0.0003227869    1.124    0.110
         4 -10.3633      4.3554    249.6804   1.0208999818e+02   2.2627170572e+01    0.1929698    0.1065769  56.67 0.0008691575    1.237    0.192
         5  -9.8397     92.6654    238.3256   8.4531416896e+01   1.4420816485e+01    0.1258783   0.07166397  57.46 0.0007051354    1.715    0.417
         6 -10.8274     84.8288    227.0183   8.5093670337e+01   1.7454896827e+01    0.2029084    0.1157224  67.53  0.001084514    2.025    0.506
         7 -10.6635    162.0069    224.9598   6.9138522750e+01   6.5587223478e+00    0.3220137     0.208359   7.47  0.001786181    1.942    0.485
         8 -10.0795     99.2239    224.9686   8.1884564882e+01   1.5824446851e+01    0.2160246    0.1485151  40.80 0.0006987393    1.181    0.153
         9 -10.4884     60.0150    223.0335   8.9951733280e+01   2.1427879383e+01    0.2081333    0.1084819  58.99  0.001137683    1.734    0.423
        10 -10.9074    126.2410    220.4839   7.5731338236e+01   1.2646846728e+01    0.2197201     0.183783  64.14 0.0007141601    1.315    0.240
        11  -9.9981     74.6663    219.3283   8.6536422084e+01   2.0244897315e+01    0.1333554   0.07425445  59.49 0.0007051844    1.720    0.419
        12 -10.1113    143.9588    216.7223   7.1588778941e+01   1.0574582127e+01    0.1848076    0.1441777  35.58   0.00116134    1.073    0.068
        13 -10.2798     76.5031    211.4960   8.5405680461e+01   2.1508902749e+01    0.1266777    0.1032432  53.94 0.0001124024    1.003    0.003
        14 -10.1662    116.7981    210.2350   7.6437143905e+01   1.5884730714e+01    0.2191184    0.1191075  63.83 0.0007921481    2.767    0.639
        15 -11.0072    186.4052    204.2992   6.1322329858e+01   5.9184808672e+00    0.2129681    0.1447579  49.99  0.001200904    1.774    0.436
        16 -12.1034    165.5283    202.6956   6.5132991176e+01   9.4619160300e+00    0.3928471    0.3250068  83.81  0.002333429    1.845    0.458
        17 -13.0523    163.9845    194.6040   6.4134125188e+01   1.1045172335e+01    0.5043846    0.3732642  68.14  0.002690587    2.031    0.508
        18 -11.2105    112.9551    196.0112   7.5402927019e+01   1.9171152846e+01    0.4581856    0.2368931 -64.48   0.00211749    2.410    0.585
        19  -9.8327     88.3908    197.6234   8.1238240394e+01   2.2608304183e+01    0.2393396    0.1177983 -83.50 0.0009539429    3.308    0.698
        20 -11.7835    186.4982    193.9794   5.9573803551e+01   7.4650091062e+00    0.2431489    0.1707238  48.33  0.001175755    1.617    0.382
        21  -9.5864     66.3200    193.9929   8.5989884606e+01   2.6463796788e+01    0.2069217   0.09091195  82.87 0.0007047215    4.264    0.766
        22  -9.6857     43.8040    193.2027   9.1202279380e+01   2.9452173117e+01    0.2337567   0.08944794  60.98 0.0009539229    2.845    0.648
        23 -10.0258    206.3177    191.6583   5.5498160596e+01   4.6812981470e+00    0.1105617    0.1020412  86.09 0.0007049074    1.714    0.416
        24 -11.1500    149.2471    197.7805   6.7707319102e+01   1.2936031521e+01    0.3717277    0.2423307 -74.32  0.001747969    2.732    0.634
        25 -11.5789    172.8746    190.5925   6.1657959169e+01   1.0235921531e+01    0.2431313    0.1823787 -63.16  0.001334487    1.925    0.480
        26 -11.3347    139.2458    189.2462   6.8508330043e+01   1.6144411914e+01    0.3168503    0.2441557 -80.48  0.001722419    1.776    0.437
        27  -9.8344    211.3291    189.6617   5.4254124528e+01   4.1946360438e+00    0.1100322    0.1018243  89.13 0.0007051869    1.734    0.423
        28 -11.4738    125.0240    197.0462   7.2842074719e+01   1.7035564270e+01    0.3237415    0.2400726  46.52  0.001851701    1.214    0.176
        29 -10.6197    129.4465    188.1662   7.0518856913e+01   1.8000301202e+01    0.2561323    0.1627582  65.48  0.001187699    2.176    0.540
        30 -11.3220    165.6621    186.7187   6.2453906874e+01   1.2101877545e+01    0.3102802    0.2245195  58.31  0.001483697    1.743    0.426
        31 -13.3382    178.1519    196.8780   6.1680516035e+01   8.3577107390e+00    0.5886328    0.3961541  12.50  0.002790595    1.655    0.396
        32 -11.5083    148.9071    186.9301   6.6023882445e+01   1.4927740993e+01    0.2301042    0.1949925 -56.73   0.00105086    1.374    0.272
        33 -11.4951     95.1572    183.8487   7.7895651223e+01   2.4459399652e+01    0.6371196    0.3858778  85.84  0.002886631    2.362    0.577
        34 -11.0325    204.6743    185.6583   5.4720449177e+01   5.8144315430e+00    0.2094063    0.1382516   2.44  0.001127879    1.730    0.422
        35 -11.3971    120.2123    183.6387   7.1926593822e+01   2.0442023143e+01    0.4334486    0.2015191 -63.93  0.001732667    2.940    0.660
        36 -10.5930    109.4722    185.5009   7.4718288423e+01   2.1836418887e+01     0.313825    0.1853515  67.76    0.0013737    2.388    0.581
        37 -10.9210    183.3960    184.2434   5.8459728071e+01   9.5136867571e+00    0.1726516    0.1234434 -48.60 0.0007735711    1.670    0.401
        38 -11.6177    174.9271    183.7413   6.0045385699e+01   1.1028575501e+01    0.3056112    0.2278493  50.31  0.001392482    1.492    0.330
        39 -11.3064      1.9411    182.4592   1.0027454646e+02   3.5968500051e+01    0.2574393    0.1797675 -88.95  0.001570901    1.257    0.204
        40 -10.2779    197.4894    182.5067   5.5461517145e+01   7.4494020442e+00    0.1286108    0.1124864   8.10 0.0003580515    1.022    0.022
        41 -12.4354    148.1143    179.1602   6.4868752165e+01   1.6501697477e+01    0.4483966    0.3054465 -58.14  0.002293492    1.774    0.436
        42  -9.5982     44.3198    181.6756   9.0106491796e+01   3.1932354198e+01    0.1404027   0.07830964  62.37 0.0006031715    1.676    0.403
        43  -9.3928     20.0097    180.2729   9.5910731096e+01   3.4844147324e+01    0.1444787   0.09749084  37.59 0.0006323761    1.444    0.308
        44 -11.2442    138.1657    178.6657   6.6998779664e+01   1.8343792651e+01    0.2844041    0.2198241  85.77  0.001479052    1.777    0.437
        45 -10.0671     13.5087    177.0120   9.7277337546e+01   3.6182407300e+01    0.1895909   0.07239921  71.69  0.000810554    2.661    0.624
        46  -9.9373     73.7580    175.9953   8.2150698373e+01   2.9384309384e+01     0.200387    0.1839135  50.38 0.0009513547    1.129    0.114
        47 -11.1611     76.8976    174.8140   8.1207325076e+01   2.9197605631e+01    0.4009985    0.2329662  76.30  0.001805385    2.193    0.544
        48 -11.0276    183.6635    175.3416   5.6769717080e+01   1.0929212064e+01    0.1925074    0.1656201  81.55 0.0008880253    1.699    0.411
        49 -10.9411    159.7484    174.9421   6.1593663166e+01   1.5219011003e+01    0.2453637    0.2006717 -70.29  0.001349704    1.605    0.377
        50  -9.9851    105.9782    175.0017   7.3980810682e+01   2.4612883064e+01    0.2342303    0.1584064  68.12  0.001078286    1.754    0.430
        51  -9.9473     74.3785    183.2375   8.2875431676e+01   2.7684056550e+01     0.185096    0.1194565 -86.21 0.0008092997    1.709    0.415
        52 -11.9811    177.4639    170.2248   5.7029937210e+01   1.2889254414e+01    0.3736435    0.2675692 -50.68  0.001986339    1.630    0.387
        53 -10.8828    142.4911    171.5367   6.4768005348e+01   1.8965218454e+01    0.2733997     0.140099 -49.15  0.001030714    2.112    0.526
        54 -11.3498    134.8606    170.9422   6.6409283298e+01   2.0455869167e+01    0.3697446    0.2113201 -63.49  0.001598446    2.335    0.572
        55 -12.0424    122.2945    168.1649   6.8890733950e+01   2.3268415421e+01    0.6052696    0.4004745 -69.72  0.002874037    1.893    0.472
        56 -11.7823    150.0213    168.9070   6.2595492443e+01   1.8108210175e+01    0.3178998    0.2587043  89.43  0.001653672    1.659    0.397
        57 -11.4770    168.2091    168.1742   5.8534430834e+01   1.4921431511e+01    0.3770726    0.2480341 -57.92  0.001819273    1.990    0.498
        58  -9.7458    186.3030    167.3044   5.4711349797e+01   1.1811733813e+01    0.1370332   0.09938854   3.32 0.0003666358    1.596    0.373
        59 -12.8771    139.5684    163.7291   6.3997398757e+01   2.1052291860e+01    0.6377749    0.4053622 -64.68  0.002897461    2.062    0.515
        60 -11.2625     16.1444    164.3961   9.5829367914e+01   3.8837648290e+01    0.5141534    0.2448425  20.96  0.002241447    2.566    0.610
        61 -10.6227     79.7654    163.2609   7.8885102369e+01   3.1417452588e+01    0.5158146    0.2639147  82.01  0.001786051    3.656    0.726
        62 -10.3907    159.9758    164.0272   5.9480816496e+01   1.7200791153e+01    0.2198686    0.1771971  81.29  0.001134578    1.728    0.421
        63 -11.6543    147.8141    163.5980   6.2085591220e+01   1.9547807866e+01    0.3011768    0.2322888  71.19  0.001521199    1.678    0.404
        64 -11.7043    144.3757    159.6576   6.2106502432e+01   2.0974891750e+01    0.2804594    0.2537543  76.83 0.0003741477    1.245    0.197
        65 -11.0280    206.1608    162.0115   4.9946198880e+01   9.1876055783e+00    0.2099225    0.1542099 -60.75  0.001092628    2.054    0.513
        66  -9.4376     69.6604    162.3548   8.1444134920e+01   3.3113777209e+01    0.1539014    0.0932796  66.39 5.339838e-05    1.809    0.447
        67 -11.8973    177.9784    160.3282   5.4978017945e+01   1.4529599566e+01     0.360944    0.2900426 -74.49   0.00165174    1.799    0.444
        68 -11.1925    178.3576    155.4731   5.3910285355e+01   1.5323062331e+01     0.273698    0.2033002 -16.16  0.000882517    1.508    0.337
        69 -11.0806    151.8905    160.5826   6.0584045174e+01   1.9375036088e+01    0.2824377    0.1973382 -67.50  0.001326952    1.961    0.490
        70 -10.7481     23.6974    161.9897   9.3687488431e+01   3.8699110470e+01     0.467292    0.2464431 -85.35  0.001532775    1.734    0.423
        71 -10.6192     92.7560    159.4648   7.4873494250e+01   3.0249931326e+01    0.3621559    0.2490452  79.12  0.001710434    1.763    0.433
        72 -10.5257    128.5115    158.3687   6.5605948240e+01   2.4210409302e+01    0.3146862    0.2287853  83.06  0.001245439    1.923    0.480
        73 -12.2463    197.0829    157.2318   5.0637390535e+01   1.1562263356e+01     0.356173    0.2612666 -53.21  0.001898783    1.691    0.408
        74 -11.8799    188.8263    156.7319   5.2100825038e+01   1.3151130820e+01    0.3526432    0.2401697 -41.56  0.001647671    1.501    0.334
        75 -12.2620    167.8314    156.2856   5.6253024339e+01   1.7170461417e+01    0.4787085    0.2861726 -46.47  0.002239423    1.768    0.434
        76 -10.7268    105.5123    157.2944   7.1176376242e+01   2.8590572366e+01    0.4170321    0.2555267  78.61   0.00165829    2.631    0.620
        77 -11.5302    157.8365    155.2962   5.8205344941e+01   1.9270801894e+01    0.3589185    0.2099994 -50.77  0.001614553    1.883    0.469
        78 -11.3507    119.4637    154.8265   6.7167879902e+01   2.6643177202e+01    0.3818455    0.2398106 -81.89  0.001534229    2.581    0.613
        79 -10.9420    145.0031    154.5066   6.0940016815e+01   2.1894748060e+01    0.2833788    0.2113393 -68.29  0.001383938    1.684    0.406
        80 -10.3052     49.3873    154.3308   8.5953490680e+01   3.7728377141e+01    0.3763711    0.1780962  69.55  0.001476968    2.769    0.639
        81 -11.6201    204.8941    154.0972   4.8564984079e+01   1.0672377873e+01    0.1976281    0.1872139 -46.30   0.00089234    1.260    0.207
        82 -11.8837    133.4390    152.1550   6.3201499226e+01   2.4598320034e+01    0.5441891    0.3334081 -70.53  0.002221883    2.446    0.591
        83 -10.4129     81.7613    153.9494   7.6935730678e+01   3.3297049799e+01    0.2742069     0.192839  87.44   0.00106607    1.604    0.376
        84 -13.4865    189.5116    147.9206   5.0122994125e+01   1.4541578996e+01    0.7979283    0.3458624 -45.54  0.003194951    2.472    0.596
        85 -11.5218    162.5512    149.9887   5.6073693508e+01   1.9379468220e+01    0.3483864    0.2388751 -59.32  0.001292123    1.813    0.448
        86  -9.7286     98.4022    150.1783   7.1782807996e+01   3.1450368444e+01    0.2098825    0.1378605 -74.21 0.0009514953    1.772    0.436
        87 -10.7222    142.7238    148.3955   6.0218450568e+01   2.3587155676e+01    0.2713578    0.1824528 -58.87   0.00125242    1.714    0.417
        88 -11.8147    199.9764    147.8269   4.8142459725e+01   1.2593961990e+01    0.2518118    0.1919052 -31.78  0.001103403    1.250    0.200
        89 -10.7195     39.4002    146.9999   8.7919695205e+01   4.0692126709e+01    0.4549258    0.2070483  71.71  0.001764305    2.886    0.653
        90 -13.1750    149.3690    142.9811   5.7518742100e+01   2.3379298991e+01    0.9060829    0.4603637 -53.37  0.003526327    2.258    0.557
        91 -12.1759    107.2709    143.9902   6.8239952975e+01   3.1311075053e+01     0.751855    0.4496217 -77.18  0.002987822    2.451    0.592
        92 -11.5928    175.8042    145.6937   5.2361984645e+01   1.7587722878e+01    0.2956741    0.1985243 -50.32   0.00142658    1.643    0.391
        93 -10.8964     67.8555    153.1642   8.0652266446e+01   3.5561618828e+01    0.4031112    0.2398628  71.08   0.00152686    1.994    0.499
        94 -11.0959     55.5666    144.3058   8.2889492087e+01   3.9403902041e+01    0.5444182    0.2807692  89.26  0.002199626    2.509    0.601
        95 -12.2326    165.9188    142.8083   5.3802726494e+01   2.0089988294e+01    0.5160192    0.2325571 -47.80  0.002000866    2.378    0.579
        96 -10.9421    138.2069    143.5575   6.0273097361e+01   2.5487413376e+01    0.2869635    0.2141692 -48.83  0.001413995    1.383    0.277
        97 -12.0381    124.9312    141.4537   6.3112340318e+01   2.8551395645e+01    0.7194785    0.3810644 -63.21  0.002744371    2.494    0.599
        98 -10.6183     87.9441    143.1932   7.3397044800e+01   3.4867707896e+01    0.3573096    0.2098381 -74.17  0.001376705    2.022    0.505
        99 -11.5483    182.4884    141.0362   4.9998071081e+01   1.7119097368e+01    0.3498421    0.2488006 -65.17  0.001645491    2.003    0.501
       100 -10.9620      2.2777    139.7135   9.7929062858e+01   4.5822570926e+01    0.4102006    0.0938799 -88.40  0.001214318    5.181    0.807
       101 -11.8984    172.3537    137.3460   5.1230261272e+01   1.9828547823e+01     0.468814    0.2570478 -54.10  0.001915454    2.273    0.560
       102 -11.0346     22.6490    135.8510   9.1643390037e+01   4.5151178653e+01    0.7085398    0.2559696 -87.46  0.002595746    3.193    0.687
       103 -11.5581    197.9977    138.0202   4.6380144635e+01   1.4617453947e+01    0.2724108    0.1824472 -60.14  0.001266173    2.114    0.527
       104 -10.8059    138.5847    137.3348   5.8827767230e+01   2.6728970481e+01    0.2901898    0.1454818 -52.31  0.001132296    2.153    0.536
       105 -12.2406    192.9165    129.1572   4.5319140788e+01   1.7145322349e+01    0.4000044     0.200644 -40.13  0.001444733    1.905    0.475
       106 -11.5776    182.3510    150.6106   5.2093619878e+01   1.5432471615e+01    0.2835004    0.2257154 -49.95  0.001535492    1.392    0.282
       107 -12.1056    193.5978    134.7684   4.6467149393e+01   1.6033553065e+01    0.2642775    0.2057768 -34.86 0.0007211131    1.228    0.185
       108 -11.6376    162.6068    135.1836   5.2812965808e+01   2.2238800514e+01    0.3727342    0.2496741 -52.55  0.001572679    1.633    0.388
       109 -11.2247     38.9786    134.7272   8.6554358057e+01   4.3793115723e+01    0.4720856    0.1693202 -69.81  0.001840654    2.520    0.603
       110 -12.0678    179.5798    132.6802   4.8696850289e+01   1.9222696554e+01    0.4264549    0.2583033 -47.39   0.00190178    1.725    0.420
       111 -11.8922    132.0476    129.5321   5.8675626678e+01   2.9741422582e+01    0.7572113    0.3390448 -53.82  0.002732236    2.501    0.600
       112 -10.7487    112.8641    132.1458   6.4279053748e+01   3.2988925730e+01    0.4418264    0.2761142 -66.66  0.001872345    1.915    0.478
       113 -11.9737    143.3087    130.1282   5.6051164151e+01   2.7278074823e+01    0.5716621    0.2757001 -48.02  0.002219493    2.125    0.529
       114 -11.7731     83.2797    130.5422   7.2364158040e+01   3.8706678571e+01    0.6821791    0.3041122 -65.41  0.002513721    2.527    0.604
       115 -12.5561    168.9607    128.6153   4.9930850569e+01   2.2186057439e+01    0.5664226    0.2994121 -46.61  0.002356643    1.942    0.485
       116 -12.0365    152.9423    128.0202   5.3304545886e+01   2.5686431412e+01    0.6141332    0.2967588 -51.65  0.002324521    2.323    0.569
       117 -11.8215     12.7330    125.6994   9.3696192442e+01   4.8509889965e+01    0.8810012    0.2550089 -76.31  0.003321214    2.948    0.661
       118 -12.2788     99.2733    124.7769   6.6459306939e+01   3.7288092793e+01    0.9468411    0.4311211 -56.70  0.003562299    2.258    0.557
       119 -10.5933     72.7808    127.7333   7.4998254763e+01   4.1081224974e+01    0.4715886    0.2006459 -69.02  0.001672127    2.777    0.640
       120 -12.2604    117.9651    123.6804   6.0980589595e+01   3.3916129641e+01    0.7295132    0.4213303 -61.47  0.002939372    2.032    0.508
       121 -11.6336     58.8799    122.0234   7.8323466941e+01   4.4543516379e+01    0.9044769    0.3863662 -79.58  0.002869877    3.788    0.736
       122 -12.3395    180.3420    123.2330   4.6335885303e+01   2.0797510305e+01    0.5254174    0.2569468 -39.44  0.002152079    1.978    0.494
       123 -11.9807     43.0072    120.2228   8.3205734225e+01   4.7009064571e+01     1.033412    0.4161364 -86.27   0.00313491    4.394    0.772
       124 -11.7184     27.9922    121.1809   8.8289830346e+01   4.8344246704e+01    0.8326216    0.3267085  71.94  0.002542514    4.787    0.791
       125 -11.6841    188.8741    122.8330   4.4599841233e+01   1.9084483055e+01    0.3483188    0.1950097 -49.30  0.001499929    1.951    0.488
       126 -12.4481    158.6194    119.9439   5.0076679251e+01   2.6089358636e+01    0.5114402    0.2887022 -47.28  0.002145304    1.803    0.445
       127 -11.5372    172.7442    119.9853   4.7078823816e+01   2.3020378668e+01    0.3839207    0.2277787 -52.65  0.001634803    1.908    0.476
       128 -12.5296    141.8254    116.9173   5.3212064271e+01   3.0370173746e+01    0.9436751    0.3458306 -46.71  0.003137375    2.767    0.639
       129 -11.0350     70.9260    118.5297   7.3774704736e+01   4.3662038776e+01    0.4776598    0.2170996 -65.19  0.001824231    2.296    0.564
       130 -12.0228    130.8319    116.9209   5.5951518282e+01   3.2743606154e+01    0.6344877    0.3402194 -52.72  0.002508488    1.978    0.494
       131 -11.2876      2.5742    114.5720   9.5953638354e+01   5.1978119635e+01    0.7689759    0.2315696 -88.53     0.002717    3.551    0.718
       132 -12.0515    186.0618    114.6838   4.3168588270e+01   2.1129012129e+01    0.4186502    0.2035135 -40.45   0.00171371    1.954    0.488
       133 -11.9751    108.9347    111.6333   6.0558686275e+01   3.8499148418e+01    0.9640188     0.347589 -53.86  0.003074947    3.011    0.668
       134 -12.0827    193.0761    113.3949   4.1565063732e+01   1.9861317117e+01    0.3854462    0.1897757 -39.57   0.00161233    1.903    0.475
       135 -11.8813     78.6001    110.5984   6.9582475019e+01   4.4391626004e+01    0.7828227    0.3730838 -69.96  0.002719027    2.887    0.654
       136 -11.7941     92.4954    109.1877   6.4845490349e+01   4.2271313843e+01     1.020999    0.3390081 -53.88  0.003270985    3.002    0.667
       137 -11.5009    174.8221    110.1938   4.4226515692e+01   2.4397598328e+01    0.4211473    0.2042294 -39.64  0.001673555    1.987    0.497
       138 -11.8274    159.5059    110.5252   4.7508611133e+01   2.7752525122e+01    0.5294027    0.2334071 -43.27  0.001959163    2.228    0.551
       139 -11.7677    122.4884    110.0982   5.6401603199e+01   3.6025615802e+01    0.6001135    0.3129832 -39.66  0.002310181    2.080    0.519
       140 -11.6225     66.2250    108.6855   7.3248060710e+01   4.6841787546e+01    0.6054015    0.2607495 -64.48  0.002251862    2.417    0.586
       141 -11.3822     14.2170    108.7761   9.1412588252e+01   5.2649508961e+01    0.5630413    0.2555185 -76.04  0.002594672    1.896    0.473
       142 -11.7081    183.0611    108.1423   4.2110864712e+01   2.2952205154e+01     0.351557    0.2002873 -41.98  0.001534409    1.679    0.404
       143 -10.8853    133.2809    108.3672   5.3128602197e+01   3.4056400717e+01    0.3653941    0.2191095 -41.50  0.001529458    1.693    0.409
       144 -11.9513    189.1917    105.7645   4.0381924516e+01   2.2028546626e+01    0.3394279    0.1919299 -35.53  0.001489358    1.688    0.408
       145 -12.1999     44.8040    100.8232   7.9143221928e+01   5.1730798522e+01    0.9263636    0.4787444  82.15  0.003282734    3.407    0.707
       146 -11.0754     43.7928     92.4145   7.7771518620e+01   5.3969033662e+01    0.2614728    0.2576496 -80.32  0.001204494    1.093    0.085
       147 -12.8155     22.0530     99.2175   8.7294128320e+01   5.4450980156e+01     1.180761    0.4798769 -85.83   0.00437959    3.064    0.674
       148 -11.8112    166.9419    102.0128   4.3705656533e+01   2.7702459349e+01    0.4724113    0.2112314 -35.34  0.001733103    2.309    0.567
       149 -12.4310    150.1907    100.5078   4.6934898521e+01   3.1851340947e+01    0.9108618    0.2461549 -42.86  0.002613882    3.604    0.723
       150 -11.9321    128.7712     99.9549   5.2011730439e+01   3.6853633199e+01    0.5967215    0.3279932 -38.11  0.002358031    1.934    0.483
       151 -11.7342    176.0017    100.0124   4.1370275556e+01   2.6001314722e+01      0.37916    0.2208665 -29.50  0.001594826    1.856    0.461
       152 -11.5004    159.8203     99.6407   4.4567762304e+01   2.9793433444e+01    0.4316021    0.1891638 -42.84  0.001580855    2.222    0.550
       153 -12.2558    108.1729     97.6523   5.7068014820e+01   4.1842760101e+01    0.6622486      0.45814  79.24  0.002727743    2.113    0.527
       154 -11.6055    107.6670     92.6594   5.5797246462e+01   4.3063950087e+01    0.4715662    0.3588967   7.98  0.002092091    1.867    0.464
       155 -11.6558     81.9469     97.7947   6.5335744069e+01   4.6924683099e+01     0.647819    0.2669988 -56.86  0.002300211    2.488    0.598
       156 -12.0731    139.7889    102.7584   5.0004831124e+01   3.3777920928e+01    0.6479332    0.3067926 -44.18  0.002430476    2.094    0.522
       157 -12.5775     63.3787     92.6984   7.0498019940e+01   5.1235615492e+01    0.9996689    0.3841036 -57.34  0.003655949    2.443    0.591
       158 -11.1233    183.6139     95.2188   3.8686350199e+01   2.5119712213e+01      0.21429    0.1382344 -26.40 0.0008491178    1.678    0.404
       159 -11.9811    177.0019     91.7120   3.8973021574e+01   2.7259572596e+01    0.3519767    0.2089906 -28.43  0.001493305    1.828    0.453
       160 -11.3696    164.8455     92.4832   4.1561108323e+01   2.9968061651e+01    0.3169558    0.2061347 -21.51  0.001335421    1.924    0.480
       161 -11.4068     95.0322     94.3314   6.0139756873e+01   4.5278573463e+01    0.7113422    0.3045195 -43.77  0.002533423    2.420    0.587
       162 -11.7039    138.8254     89.9124   4.6621954604e+01   3.6614523053e+01     0.597412    0.2536115 -42.63    0.0021172    2.319    0.569
       163 -10.3362     57.9897     91.9904   7.2304673486e+01   5.2206691750e+01    0.2138944     0.200356 -77.11  0.001222318    1.036    0.034
       164 -10.7656    158.0000     90.4779   4.2428494569e+01   3.1961319354e+01    0.3478253   0.08597381 -38.37 0.0009386376    3.966    0.748
       165 -11.6078    124.3968     90.2202   5.0380717437e+01   3.9897662431e+01    0.3770701    0.3214155 -44.46  0.001339512    1.168    0.144
       166 -11.4651    124.5034     85.9908   4.9090582596e+01   4.0750494246e+01    0.6630869    0.4417798   4.74  0.002395654    2.935    0.659
       167 -11.4027     34.7971     86.5769   8.0047791519e+01   5.6438261884e+01    0.8822707    0.2568032 -61.72  0.003154077    2.818    0.645
       168 -11.5428      4.5713     89.6996   9.2651431573e+01   5.8063252129e+01    0.4607599     0.209101 -75.71  0.002193049    1.840    0.457
       169 -11.7866      6.9968    100.0980   9.2976640577e+01   5.5323041523e+01    0.6470563    0.1208399 -68.59  0.002205227    3.523    0.716
       170 -11.7549     86.1316     85.9087   6.0615454347e+01   4.8942329866e+01    0.4405586    0.3339868 -80.58   0.00174891    1.649    0.393
       171 -11.6769     86.4941     81.0074   5.9010882579e+01   4.9984407601e+01    0.5816156    0.3361115  21.14  0.002114684    2.883    0.653
       172 -12.6458     48.3034     81.2833   7.3350157097e+01   5.6156917342e+01    0.8519906    0.3831277 -60.20  0.003500442    2.065    0.516
       173 -11.4381    141.0082     81.2934   4.3541799796e+01   3.7780131850e+01    0.4422197    0.2322773 -35.66  0.001720824    1.975    0.494
       174 -10.3785    170.5105     81.9866   3.7516104201e+01   3.0508675471e+01    0.2170235    0.1366414  -8.69  0.000810554    2.651    0.623
       175 -11.2138    158.4970     81.4945   3.9751195067e+01   3.3501145441e+01    0.3284681    0.1491436 -36.84  0.001212761    2.172    0.540
       176 -11.5585     24.2608     79.6483   8.2956813321e+01   5.9172255705e+01    0.4844947    0.2380135 -80.56  0.002071115    2.316    0.568
       177 -12.1004     26.1517     72.7281   8.0632687269e+01   6.0702122091e+01    0.8165148    0.3355373 -29.23   0.00261554    4.755    0.790
       178 -11.1782    119.1992     78.5462   4.8215643605e+01   4.3494246454e+01    0.4395224     0.227609 -43.32  0.001718269    1.916    0.478
       179 -11.0907      8.8398     80.1656   8.9587487404e+01   6.0181521210e+01    0.2022949     0.162364  77.90  0.001243525    1.275    0.216
       180 -10.7502    150.2184     78.4673   4.0609471792e+01   3.6071282764e+01    0.3103828    0.2161531 -38.11  0.001414644    1.423    0.297
       181 -10.7859    174.6301     76.8101   3.5292494497e+01   3.0405587644e+01    0.2269017    0.1281984 -44.72 0.0009541065    1.709    0.415
       182 -10.7635    167.5052     75.9934   3.6372155770e+01   3.2276933197e+01    0.2375161    0.1463386 -35.40   0.00103318    1.593    0.372
       183 -10.8812    127.6773     74.3522   4.4638259060e+01   4.2321907481e+01    0.3897799    0.2283611 -56.64  0.001534275    2.050    0.512
       184 -11.1140    128.0129     70.7438   4.3386383020e+01   4.2927352360e+01    0.4747029     0.314566  22.70  0.001894561    2.269    0.559
       185 -12.0253     62.5309     69.9565   6.4334236126e+01   5.6753069796e+01     1.141811     0.174619 -48.27  0.002772168    5.679    0.824
       186 -10.6376      9.9444     74.7450   8.8222101514e+01   6.1449184094e+01    0.1972979    0.1510056 -49.20 0.0007487147    1.218    0.179
       187 -10.7078    189.4814     74.5080   3.2139048608e+01   2.7233586684e+01    0.1456122     0.136575 -49.80 6.324644e-05    1.017    0.017
       188 -10.6631     74.4251     78.9648   6.2626305147e+01   5.2686083926e+01    0.6338111    0.2411178 -56.94  0.002107806    2.985    0.665
       189 -10.4797    140.8611     72.6814   4.0919960686e+01   3.9428646695e+01    0.2795493    0.2200047 -24.73  0.001331141    1.406    0.289
       190 -11.5558     81.9983     71.5342   5.7527763241e+01   5.2946101256e+01    0.4923126    0.2747874 -51.62  0.001929492    1.805    0.446
       191 -11.7352     82.0264     66.6763   5.5863349253e+01   5.3980124014e+01    0.6074203    0.3670692 -13.50  0.002088603    3.463    0.711
       192 -11.3411     94.9141     68.2741   5.2040663803e+01   5.1008920166e+01    0.8315534     0.218261 -44.52  0.002387753    3.765    0.734
       193 -11.8392    104.7233     80.3417   5.2952611203e+01   4.6374918668e+01    0.8163707    0.3512214 -44.43  0.002943375    2.301    0.565
       194 -10.9641    105.7038     69.2347   4.9011973220e+01   4.8449260548e+01    0.5064484    0.2056588 -37.49  0.001732206    2.643    0.622
       195 -10.3715      5.6240     70.0593   8.9348380007e+01   6.2845542375e+01    0.3047273    0.1045355 -72.49  0.001253495    2.468    0.595
       196 -11.6091     51.1127     68.3380   6.8521116750e+01   5.8850552561e+01    0.7284871    0.2678963 -64.24  0.002237234    4.058    0.754
       197 -10.8568     16.2318     69.2285   8.4342718925e+01   6.2370613280e+01     0.339529    0.1472905 -67.44  0.001526711    1.976    0.494
       198 -10.8653     17.8625     62.9464   8.2173137614e+01   6.3758952868e+01    0.4120058    0.1202185 -55.63  0.001621931    2.552    0.608
       199  -9.7533    170.6629     69.6504   3.3946794474e+01   3.2571000377e+01    0.1556839    0.1177374  19.24 0.0007046391    1.786    0.440
       200 -10.0617    163.3371     69.3296   3.5200932867e+01   3.4438322928e+01    0.1558539    0.1190152  20.64 0.0004012522    1.732    0.423
       201 -10.8005    147.1948     65.6843   3.7312384055e+01   3.9096495743e+01    0.4685731    0.2164312 -23.15  0.001500564    3.317    0.699
       202 -10.8676    121.9006     63.4776   4.2519984142e+01   4.5754654653e+01    0.5669441    0.2601603 -29.54  0.001966863    2.698    0.629
       203 -10.9551    138.5481     64.2216   3.8734795943e+01   4.1516444323e+01     0.387461    0.1548804 -33.39  0.001314549    2.658    0.624
       204 -11.0409    110.2293     60.6364   4.4692839541e+01   4.9062743231e+01    0.5157624    0.2795224 -23.79  0.001886691    2.612    0.617
       205 -11.3078     73.4376     55.8792   5.5103145510e+01   5.7862110225e+01    0.9130055    0.2533539 -40.90  0.002739216    3.807    0.737
       206 -10.5043    100.1658     56.6315   4.6201691392e+01   5.2126503192e+01    0.5731938      0.19171 -37.87  0.001849777    3.071    0.674
       207 -10.3999    115.6202     70.9919   4.6747210418e+01   4.5828181627e+01    0.3682128    0.1471993 -40.27  0.001265194    2.502    0.600
       208 -11.1634     25.1932     56.8301   7.6979960729e+01   6.4569595720e+01       0.3792    0.1386016 -44.75  0.001518652    2.558    0.609
       209 -10.7713      8.3920     50.4098   8.3929541625e+01   6.7358058676e+01    0.3978898     0.107771 -49.24  0.001574979    2.805    0.644
       210 -10.2958    130.5795     55.6799   3.7693277589e+01   4.4975994087e+01    0.2977232    0.1528543 -29.69   0.00114572    2.150    0.535
       211 -10.5803     25.8327    243.1499   9.7942928779e+01   2.1639641951e+01    0.3509253    0.1072943  71.15  0.001463263    4.131    0.758
       212 -10.5207    118.5210     54.0211   4.0067110494e+01   4.8250297902e+01    0.2371214    0.1487425 -37.04  0.001036954    1.607    0.378
       213  -9.6934     16.9800    244.0383   9.9627066738e+01   2.2386338382e+01    0.1335675   0.09297223  57.68  0.000516743    1.004    0.004
       214 -11.4680      7.3223     56.1713   8.5838985356e+01   6.6077540438e+01    0.3962454    0.1683183 -75.88  0.001742517    2.377    0.579
       215 -10.9167     92.0785     48.6990   4.5698373009e+01   5.5377609642e+01    0.5127419    0.1949239 -42.70  0.001819498    2.661    0.624
       216  -9.5649    130.3269     46.3179   3.4455345092e+01   4.6545831698e+01     0.155686    0.1151218  26.32 0.0003075836    1.678    0.404
       217 -10.4512     83.4617     40.8095   4.5326750715e+01   5.8625690989e+01    0.3311895    0.2179759  10.75    0.0014068    2.301    0.565
       218 -10.3068    113.5740     42.3450   3.6976003251e+01   5.1370448634e+01    0.3768597    0.2458279   2.90  0.001530101    2.416    0.586
       219 -11.2806     37.4817     61.2939   7.2402998441e+01   6.2238940732e+01    0.6150673    0.2039068 -49.95  0.002335416    2.579    0.612
       220 -10.5560     16.9249     41.8084   7.6720726380e+01   6.8689228258e+01    0.5010269   0.08203661 -54.84  0.001679476    3.744    0.733
       221 -10.4869    122.8921     41.8106   3.4498481017e+01   4.9120277250e+01    0.3764336    0.2145603   2.34  0.001217313    3.864    0.741
       222 -11.2047      4.8735     39.5646   8.3029502706e+01   7.0027156240e+01    0.5618402    0.1553755 -68.38  0.002078168    3.477    0.712
       223 -10.2608    105.6882     50.5950   4.2287755333e+01   5.1927585113e+01    0.3885587    0.1882983 -33.47  0.001507673    2.171    0.539
       224 -11.9256     45.1210     49.9424   6.4936572498e+01   6.3775949085e+01    0.5530859    0.2249065 -43.22  0.002227267    2.347    0.574
       225 -10.3558     36.7687     38.7093   6.4634905212e+01   6.7228892244e+01    0.3909155    0.1294469 -45.19  0.001503917    2.712    0.631
       226  -9.5521     23.6365     46.7166   7.4651611463e+01   6.7008119313e+01    0.1367421   0.08655155 -28.02 0.0007018122    1.684    0.406
       227  -9.8069    112.3211     31.3284   3.2931360838e+01   5.3284096853e+01    0.1534365    0.1080308  27.66 0.0005769611    1.689    0.408
       228 -10.6387     27.7041     29.1625   6.5463981200e+01   7.0241317855e+01    0.3312564    0.1112372 -37.67  0.001205411    3.377    0.704
       229  -9.0925     44.4593     25.5007   5.4464775109e+01   6.8582711662e+01    0.1325598    0.1156262  -8.96 0.0001386607    1.039    0.037
       230  -9.1764    110.6623     24.6659   3.0594320956e+01   5.4567908778e+01      0.15482    0.1034678  30.54 0.0007051848    1.746    0.427
       231  -9.9250     12.6550     21.2826   7.1334735188e+01   7.3324543228e+01    0.1095412    0.0943888  61.77 0.0003934568    1.640    0.390
       232  -9.9285     50.6483     15.6780   4.6106859852e+01   6.9065259430e+01    0.1392015   0.09335544  11.33 0.0007047928    1.750    0.429
