#   1 NUMBER                 Running object number                                     
#   2 MAG_AUTO               Kron-like elliptical aperture magnitude                    [mag]
#   3 X_IMAGE                Object position along x                                    [pixel]
#   4 Y_IMAGE                Object position along y                                    [pixel]
#   5 X_WORLD                Barycenter position along world x axis                     [deg]
#   6 Y_WORLD                Barycenter position along world y axis                     [deg]
#   7 A_WORLD                Profile RMS along major axis (world units)                 [deg]
#   8 B_WORLD                Profile RMS along minor axis (world units)                 [deg]
#   9 THETA_WORLD            Position angle (CCW/world-x)                               [deg]
#  10 FWHM_WORLD             FWHM assuming a gaussian core                              [deg]
#  11 ELONGATION             A_IMAGE/B_IMAGE                                           
#  12 ELLIPTICITY            1 - B_IMAGE/A_IMAGE                                       
         1 -14.8923    169.8027     41.5918   7.1475859355e+01   3.7095919633e+01     1.353411     1.142117  -3.37  0.004223227    1.399    0.285
         2 -14.9498    189.8371      8.6244   5.8922027717e+01   3.5707247719e+01     2.374324    0.9786596  68.33  0.008150321    2.257    0.557
         3 -11.0093    133.8353    247.3736   1.2371003007e+02   7.7591564732e+00    0.1505267    0.1239915  30.37  0.000258095    1.149    0.130
         4 -19.8536     63.3976    167.6853   1.3173556206e+02   3.2411953419e+01     17.81602     6.585871 -73.02   0.06813993    3.055    0.673
         5 -11.0187    125.0920    244.2919   1.2516240369e+02   9.3604342715e+00    0.2793328    0.1284958 -54.27  0.001525531    2.942    0.660
         6 -11.0296    106.7727    206.7391   1.2509094263e+02   1.8114455141e+01    0.2349345    0.2022977  38.43  0.000572002    1.067    0.063
         7 -12.4989    105.1653    202.5694   1.2498049244e+02   1.9129695289e+01    0.3658395     0.238944  25.79  0.001558059    1.445    0.308
         8 -11.2829     30.6499    204.9745   1.4286597434e+02   2.7965102459e+01    0.1813007    0.1437538  24.78 0.0005547692    1.405    0.288
         9 -10.4065    153.2938    200.6604   1.1368789490e+02   1.2069621937e+01    0.2153561    0.1806092 -39.49  0.001347137    1.430    0.301
        10 -10.2989    138.7406    200.3612   1.1688362562e+02   1.4406418288e+01    0.2042562    0.1577379  37.69 0.0009683011    1.133    0.117
        11 -10.4491    141.5661    198.7525   1.1601050168e+02   1.4240352723e+01     0.228278    0.1785814  44.26  0.000616416    1.259    0.206
        12 -10.4635    113.0174    196.3303   1.2233200098e+02   1.9140023446e+01    0.4143614    0.2547277  -0.94  0.001743657    3.014    0.668
        13 -10.6762    150.8080    245.6802   1.2014524825e+02   5.7341713798e+00    0.1619371    0.1295655  11.89 0.0004053677    1.207    0.172
        14 -11.8659    180.6299    193.4396   1.0673620307e+02   8.9041334140e+00    0.2466635    0.2271707  56.70  0.001591771    1.549    0.355
        15 -11.6835    152.6270    192.6431   1.1259208636e+02   1.3519218955e+01    0.2985867    0.2446815  57.72  0.001398406    1.534    0.348
        16 -11.3937    168.2040    176.5605   1.0641408177e+02   1.3667486804e+01    0.2478404    0.2321303 -64.25 0.0006774566    1.440    0.305
        17 -12.2087    169.3164    182.0843   1.0715816719e+02   1.2548003423e+01    0.4565683    0.2400331  29.08  0.001893389    1.773    0.436
        18 -12.9512    172.5053    188.9873   1.0767095893e+02   1.0895685482e+01    0.5365891    0.3050269  19.35  0.002105814    1.890    0.471
        19 -12.8730    175.5636    186.1874   1.0654592021e+02   1.0846045614e+01    0.4766231    0.3908734 -81.94  0.002576801    2.212    0.548
        20 -12.2398    163.8765    188.0584   1.0936387113e+02   1.2455428938e+01    0.4244198    0.2149176  21.89  0.001821886    2.291    0.564
        21 -11.9633    152.5828    185.1562   1.1138553103e+02   1.4823797945e+01    0.2995202    0.2506201  78.67  0.001685451    1.762    0.433
        22 -11.8984    119.0223    240.4529   1.2602497131e+02   1.0741396525e+01    0.1699177    0.1628665  87.29 0.0006885876    1.396    0.284
        23 -10.3069    139.4966    250.0011   1.2285776293e+02   6.6509358600e+00    0.2273219     0.113764  39.71  0.001042721    1.572    0.364
        24 -12.5126    204.6531    176.5431   9.8994904466e+01   7.6191486144e+00      0.41164    0.3579663 -31.11  0.001619902    1.390    0.281
        25 -12.5520    203.4943    166.1943   9.7238680122e+01   9.3446445189e+00    0.5984674    0.4202041  -9.61  0.002263878    1.409    0.290
        26 -12.5923    137.8936    171.4415   1.1250288895e+02   1.9885869191e+01    0.3786844    0.3455791 -75.10  0.001155573    1.350    0.259
        27  -9.7786     13.5239    233.2855   1.4753515819e+02   2.4211371118e+01    0.1079659   0.07190326  45.34 0.0007676873    1.106    0.096
        28 -10.5024    198.5178    177.5161   1.0034857864e+02   8.4567914408e+00    0.2839271    0.2279241  84.28  0.001457056    2.750    0.636
        29 -12.5128    193.9396    166.8547   9.9219295029e+01   1.0850190131e+01    0.4451946    0.3123032 -38.32 0.0007211359    1.548    0.354
        30 -11.7581    190.6452    161.1690   9.8754911121e+01   1.2328968573e+01    0.3804432    0.3080923  19.70  0.001121946    1.104    0.094
        31 -11.9096    189.9299    155.8353   9.7819063969e+01   1.3329117840e+01    0.4587957    0.4141419   3.80  0.001819592    1.076    0.071
        32 -11.2020    129.4177    175.2011   1.1522024747e+02   2.0611554855e+01    0.2735382    0.1929158  39.02 0.0008949966    1.243    0.195
        33 -11.8986    125.2965    172.1858   1.1575184857e+02   2.1921297688e+01    0.3798867    0.2397374  38.42 0.0003712499    1.385    0.278
        34  -9.6424     19.5744    231.0879   1.4625643741e+02   2.4047375474e+01    0.1070267   0.09559514 -83.07 0.0006151285    1.459    0.314
        35 -11.4160     22.8684    166.4944   1.4282974471e+02   3.7088585362e+01    0.3720396    0.2159962   0.69  0.001375294    2.654    0.623
        36 -12.9882    143.1989    174.5387   1.1176248533e+02   1.8363932045e+01    0.7517016    0.5650326 -18.85  0.003963361    1.575    0.365
        37 -10.9412    141.2676    164.0319   1.1034984758e+02   2.0741024664e+01     0.192573    0.1857492  10.66   0.00035842    1.103    0.093
        38 -10.3196     13.0911    157.9760   1.4506622980e+02   3.9892515559e+01    0.1839101    0.1583896  73.57 0.0003511152    1.079    0.073
        39 -11.5451    166.9199    155.2936   1.0261045357e+02   1.7660129286e+01     0.355833    0.2394719  62.69  0.001576076    2.284    0.562
        40 -13.8980    133.8459    145.3519   1.0858765980e+02   2.5968393693e+01     1.403947    0.4465164 -56.05  0.003798195    5.031    0.801
        41 -13.6279    135.9158    127.9775   1.0423465038e+02   2.9289215101e+01     1.940649    0.3706972 -50.19  0.004125684    7.110    0.859
        42 -12.0931     15.1904    149.7018   1.4405728090e+02   4.1713992569e+01    0.5018449    0.2384301 -80.83  0.001620974    1.923    0.480
        43 -12.4126     11.3431    144.3302   1.4490380485e+02   4.3302527196e+01    0.5717334    0.3560854 -35.92  0.003005149    2.192    0.544
        44 -13.0425      6.0905    139.2041   1.4622605964e+02   4.4905373975e+01    0.7036962    0.5424346 -84.05  0.002497017    1.190    0.160
        45 -13.4336      3.4635    126.0293   1.4644265537e+02   4.8325982094e+01     1.878016    0.5956759 -85.21  0.007455463    2.766    0.638
        46 -12.3932      3.7185    112.3699   1.4566264442e+02   5.1771111214e+01    0.3958171    0.3550462  78.06  0.001756646    1.072    0.068
        47 -12.7087     11.5403    110.7087   1.4276408985e+02   5.1787664747e+01    0.6978959    0.2591824   0.64  0.002522304    4.194    0.762
        48 -13.1306    144.3483    146.2252   1.0608387804e+02   2.3746384591e+01    0.6666775    0.4631573 -75.72  0.002833994    2.379    0.580
        49 -12.6622    142.4849    139.0815   1.0502756266e+02   2.5589437988e+01     0.405113    0.3545215 -87.54  0.001542433    1.431    0.301
        50 -10.9105    174.2776    148.7137   9.9614306548e+01   1.7459934221e+01     0.311552    0.2733465 -69.75  0.001287925    1.550    0.355
        51 -11.5771    160.4750    127.6574   9.8011997059e+01   2.4195293284e+01     0.403032    0.2832487 -54.24     0.001264    1.681    0.405
        52 -12.5559    113.9701    118.3551   1.0817267005e+02   3.5972688897e+01    0.3696651    0.3294954  84.96  0.000567512    1.247    0.198
        53 -13.0143    187.3345    228.4908   1.1082653957e+02   3.0477987481e+00    0.4668789    0.2479152  47.14  0.002389946    2.649    0.623
        54 -11.9583    135.0000    112.0267   1.0056357982e+02   3.2946752534e+01     0.644881    0.2062193 -46.41  0.001933513    3.268    0.694
        55 -11.5568    134.6199    105.8031   9.9023274132e+01   3.4378419767e+01    0.5424454    0.1897736 -43.22  0.001690864    2.950    0.661
        56 -10.7163    168.3003    113.1586   9.2659557103e+01   2.5300468930e+01    0.3799209    0.2747307 -88.00  0.001285148    2.347    0.574
        57 -13.3448    117.2822    109.6962   1.0502624637e+02   3.7303475305e+01    0.5891086     0.396907  34.25   0.00207357    1.520    0.342
        58 -10.9649    205.2299    110.5244   8.4735952047e+01   1.7850389413e+01    0.3451779    0.2389129  25.81  0.001173157    1.654    0.395
        59 -10.0101    139.4767    230.0673   1.2062090771e+02   9.4945209027e+00    0.1486652    0.1233264 -41.94  0.001019436    1.554    0.356
        60  99.0000     15.6528    218.0716   1.4668116265e+02   2.6818095117e+01    0.3637739    0.1907258  86.73  0.002232374    1.868    0.465
        61 -10.5167     20.5026    218.1261   1.4564885768e+02   2.6361451901e+01    0.1435389    0.1001488 -86.49 0.0009835636    1.522    0.343
        62 -10.6286    147.0121     80.9890   8.8626202409e+01   3.6514136343e+01    0.2429051    0.2396386  13.12 0.0005045109    1.028    0.027
        63 -11.6081     96.7796    213.1231   1.2810737548e+02   1.8359054641e+01    0.2589025    0.2029923 -31.83  0.001235772    1.719    0.418
        64 -14.5003    157.2469     56.5388   7.8565133244e+01   3.8200627156e+01     1.456403      1.28847  63.50  0.002772978    1.113    0.101
        65  -9.8124    160.0104    248.3197   1.1865283458e+02   4.1751237922e+00    0.1577175    0.1146546  24.13 0.0007242282    1.022    0.021
        66 -12.9405    174.0497     34.0241   6.8433849058e+01   3.6973590133e+01    0.4184276    0.3948241  32.85 0.0008672443    1.196    0.164
        67 -10.8146     13.5540     59.6846   1.3601795918e+02   6.4987535576e+01    0.2317008    0.2096001 -88.86 0.0004257877    1.131    0.116
        68 -10.4499    131.2206     28.8203   7.3963535869e+01   4.9357508498e+01    0.2685321    0.1983852  80.49 0.0006792863    1.408    0.290
