#   1 NUMBER                 Running object number                                     
#   2 MAG_AUTO               Kron-like elliptical aperture magnitude                    [mag]
#   3 X_IMAGE                Object position along x                                    [pixel]
#   4 Y_IMAGE                Object position along y                                    [pixel]
#   5 X_WORLD                Barycenter position along world x axis                     [deg]
#   6 Y_WORLD                Barycenter position along world y axis                     [deg]
#   7 A_WORLD                Profile RMS along major axis (world units)                 [deg]
#   8 B_WORLD                Profile RMS along minor axis (world units)                 [deg]
#   9 THETA_WORLD            Position angle (CCW/world-x)                               [deg]
#  10 FWHM_WORLD             FWHM assuming a gaussian core                              [deg]
#  11 ELONGATION             A_IMAGE/B_IMAGE                                           
#  12 ELLIPTICITY            1 - B_IMAGE/A_IMAGE                                       
         1 -13.9364      7.4372     45.5047   7.1001888570e+01   6.8471757595e+01     1.503094    0.7916552 -40.28  0.006305981    1.652    0.395
         2 -13.8723    222.8315     39.1799   5.0074391646e+00   2.4929862684e+01      2.05092    0.7699299 -29.97  0.008690301    2.642    0.621
         3 -12.2300     24.9880     14.5549   4.6938580466e+01   7.3065290614e+01    0.3548383    0.2728604 -26.62  0.001641211    1.196    0.164
         4 -11.8855      3.8315     11.5786   6.1076942309e+01   7.5731918881e+01    0.3902305    0.2751583  -9.63  0.001739513    1.273    0.214
         5 -12.3511     20.7782      1.8439   4.1979827017e+01   7.5565399312e+01    0.6815263    0.2008969  32.98   0.00270543    3.409    0.707
         6 -10.0450      1.7492      1.5988   5.7396279394e+01   7.7668432702e+01    0.1500113   0.09799786  23.37 0.0009463585    1.591    0.371
         7 -11.8794      3.4444    231.0620   9.0133625919e+01   2.4640929993e+01    0.6723098    0.1744314  55.88  0.003065915    2.832    0.647
         8 -13.0375    207.0792    248.7676   4.9814025412e+01  -3.6855547553e+00    0.8140823    0.3526711  23.43  0.004384974    2.036    0.509
         9 -13.2471    231.6804    247.4803   4.5375414220e+01  -6.3593117251e+00    0.8128824     0.531179  33.74  0.005682454    1.752    0.429
        10 -12.1531    219.3546    249.2464   4.7725549899e+01  -5.1778747756e+00     0.537463    0.2620911  13.76  0.003036205    2.034    0.508
        11 -12.6195    247.4867    247.3334   4.2778025050e+01  -8.0269434446e+00    0.6185838    0.4255141   3.87  0.003690537    1.031    0.030
        12 -13.2609    246.7343    234.1800   4.0913341404e+01  -6.5034624370e+00    0.7383827    0.4486292  -9.22  0.005105547    1.360    0.265
        13 -13.4039    237.8598    232.9650   4.2164219332e+01  -5.3834443638e+00    0.7317013    0.2958001 -27.01  0.003944106    2.390    0.582
        14 -14.6708     65.7213    120.4837   6.2568584662e+01   4.3857407279e+01     2.738471     1.394211  41.85   0.01120865    1.967    0.492
        15  99.0000     60.6321    248.1822   7.9219492926e+01   1.5422991321e+01     3.281898    0.3510672  47.20  0.009186785    6.688    0.850
        16 -15.5245     52.2126    143.5164   7.0974565395e+01   3.9734877661e+01     3.771684     2.144294  39.49   0.01736205    1.692    0.409
        17 -14.6805     12.7371    156.2462   8.4267446364e+01   4.0479285083e+01     6.454329     1.730401  49.10   0.01612796    3.462    0.711
        18 -12.1467     28.0548    249.4598   8.5914008246e+01   1.8815137793e+01    0.5948801    0.2718249  36.19  0.002960034    1.674    0.403
        19  99.0000     23.7714    241.1413   8.6401167393e+01   2.0785259663e+01    0.4555896    0.1519426 -84.74  0.002121058    3.375    0.704
        20 -13.1771     48.0950    213.1064   7.9433922690e+01   2.3738331597e+01     2.086211     1.467397  54.55   0.01105183    1.191    0.160
        21 -15.0498     16.4143    119.0918   7.9732210228e+01   4.9651039335e+01     2.231072     1.655793  46.48    0.0126459    1.392    0.281
        22 -13.8619      2.6599     95.9204   8.2229966642e+01   5.6442061229e+01     1.947713    0.5121055 -75.58  0.006924293    3.211    0.689
        23 -13.1420      3.2010    216.0518   8.9679632590e+01   2.7660708242e+01    0.5222663    0.3126802  77.43  0.002744203    1.436    0.304
        24 -11.3948    175.3999    210.8051   5.0115459604e+01   5.8823222532e+00    0.3830048    0.2411307 -34.70  0.002124677    1.682    0.405
        25 -14.1861     19.9652    202.0876   8.5294262978e+01   2.9105075525e+01     2.217677    0.8956764  64.14   0.01018839    2.406    0.584
        26 -12.3261    161.4323    205.8490   5.2234450964e+01   8.8344901724e+00     0.396505    0.2914078  30.28  0.002290337    1.195    0.163
        27 -14.6506      9.5001    180.1724   8.6634706923e+01   3.4994681005e+01     1.800472    0.6668146  54.28  0.008091716    2.372    0.578
        28 -10.1025     72.3410    207.7538   7.3191694902e+01   2.1846191022e+01    0.2618907     0.128552  43.04   0.00122684    1.706    0.414
        29 -10.4224     69.1459    202.1873   7.3398947721e+01   2.3463816037e+01    0.2990549    0.2031436  74.04   0.00160979    1.591    0.372
        30 -10.6529    134.2444    193.4225   5.6327856008e+01   1.5482312639e+01    0.3183274    0.2072405  27.86  0.001592432    1.450    0.310
        31 -12.8462    160.6303    183.0916   4.8518584502e+01   1.3048788323e+01     0.477437    0.3536865  62.55  0.002405558    1.916    0.478
        32 -12.9285     95.8515    167.1998   6.1800389848e+01   2.7501897121e+01     1.189085     0.905371 -84.49  0.005971544    1.535    0.349
        33 -13.6795    130.8188    170.6905   5.3255725598e+01   2.0731383002e+01     1.017249    0.6686032  67.74  0.004322885    2.340    0.573
        34 -12.7069    162.8364    172.5726   4.6067712539e+01   1.4651926217e+01    0.7784454    0.2583383  33.40  0.002557422    3.384    0.705
        35 -13.0490     16.7767    135.8011   8.1349950077e+01   4.5315285941e+01     1.527256    0.5960675  36.67  0.006590006    2.407    0.585
        36 -11.8213    246.9106    165.4788   2.9084761451e+01   2.2811510169e+00    0.5046105    0.2831139 -14.38  0.002668947    1.977    0.494
        37 -14.7402     73.9665    233.8413   7.5262444150e+01   1.6413877166e+01     3.338327     1.521158  64.46   0.01451873    3.061    0.673
        38 -12.8662    105.3685    163.0807   5.8506235129e+01   2.6877683647e+01    0.5930278    0.4396538  48.36  0.002943425    1.312    0.238
        39 -11.3612    149.8373    159.0268   4.6373293778e+01   1.9702175423e+01     0.356249    0.2196271 -45.54   0.00162403    1.680    0.405
        40 -13.2837    113.9577    156.0045   5.4876895788e+01   2.7008498374e+01     0.808629      0.61935  86.96  0.003836173    1.700    0.412
        41 -12.7891    118.6177    145.6018   5.1533609825e+01   2.8548192903e+01    0.8220973    0.5555234 -81.65  0.003376751    2.259    0.557
        42 -15.3083     96.3834    235.4704   7.0491456843e+01   1.3157524352e+01     6.015594     1.282847  38.63   0.02190744    3.248    0.692
        43 -12.2657      3.7082    195.4740   8.8772553371e+01   3.2003320172e+01     1.351184    0.4045066  85.65  0.005275644    3.573    0.720
        44 -12.0741    129.4103    135.4145   4.6415905024e+01   2.8766375161e+01    0.6695132    0.5475494  89.08  0.003216334    1.546    0.353
        45 -13.0504    119.3827    130.8326   4.8089295864e+01   3.1812973964e+01     1.055188    0.6567669 -47.48  0.003591659    1.637    0.389
        46 -13.2309     96.2503    119.0479   5.2172728998e+01   3.9095027809e+01    0.9720485    0.5852005  39.76  0.004116521    1.637    0.389
        47 -10.7846     87.5536    122.0666   5.5632151888e+01   3.9927848246e+01    0.2887104    0.2215512  13.43 0.0008345428    1.573    0.364
        48 -11.8265     85.8221    115.8420   5.4771321433e+01   4.1777389098e+01    0.5031963    0.3788465 -65.05  0.001720385    1.394    0.283
        49 -12.5023     79.1504    111.3727   5.5960081819e+01   4.4043273356e+01    0.9055966     0.697203  77.36  0.004250511    1.594    0.373
        50 -13.0017    105.8778    127.6388   5.1234720629e+01   3.5200397724e+01    0.7884511    0.6367005 -63.44  0.003841692    1.310    0.237
        51 -11.0026     24.6610     87.7399   7.1874846321e+01   5.7093113042e+01    0.4338553    0.2807482 -55.21  0.001438843    1.368    0.269
        52 -11.8509     35.0379    106.4931   7.1081100321e+01   5.1313306915e+01    0.7896065    0.4005406  25.13   0.00348111    2.094    0.522
        53 -11.4359     22.7255    102.8973   7.5253331591e+01   5.3364404217e+01    0.6448857    0.2038901 -56.31  0.002435704    2.580    0.612
        54 -12.2820     30.3607    101.3195   7.1998191505e+01   5.3108739491e+01    0.5648657    0.3969594  10.01  0.002870499    1.646    0.393
        55 -13.1149     27.6289     95.4363   7.2054657820e+01   5.4873207988e+01     1.330889    0.5151381  21.96  0.005269099    2.779    0.640
        56 -10.9669     40.8194     97.9155   6.7195784535e+01   5.2913515420e+01    0.4781749    0.2651115  34.60  0.001761244    1.857    0.462
        57 -12.4313     45.5800     88.6129   6.3189998629e+01   5.4712511078e+01     1.173796    0.6287603  53.14  0.004764175    2.469    0.595
        58 -12.8505     66.7364     83.1212   5.3118600736e+01   5.3014182141e+01     1.048318    0.9370047 -65.66  0.004470547    1.175    0.149
        59 -13.6638     70.1490     67.0111   4.6659462087e+01   5.6073584332e+01     1.324522     1.063389  67.37  0.005925453    1.587    0.370
        60 -11.2759     47.0128     74.4811   5.8876739681e+01   5.7982663496e+01    0.4982902    0.2842486  33.32  0.002282463    1.803    0.445
        61 -13.2123     14.0815     58.5555   7.0634613564e+01   6.5048299350e+01     1.050224    0.7890189 -56.43  0.004099443    1.169    0.144
        62 -11.5851      5.7912     66.7783   7.6634729091e+01   6.3559405768e+01    0.4335232    0.3162097 -29.93  0.001723547    1.357    0.263
        63 -11.8657      2.1549     61.7377   7.7542380964e+01   6.4941376521e+01    0.5081677    0.3346962 -73.74  0.001723709    1.397    0.284
        64 -12.6419    188.1981    242.5697   5.2402759576e+01  -5.5253017077e-01    0.6108894    0.4083953  35.94  0.003935025    1.487    0.327
        65 -12.7588     18.3162     46.7363   6.5006173548e+01   6.7442416665e+01    0.9008531     0.461807  -0.69   0.00411484    2.430    0.588
        66 -12.4473    132.3709     55.0500   2.2949195476e+01   4.4394412810e+01    0.7019392    0.5335277  72.42   0.00343067    1.375    0.273
        67 -10.5369    231.4846     71.8877   1.1603841455e+01   1.8746411933e+01    0.4383065    0.1647526 -46.64  0.001844428    2.403    0.584
        68 -12.1957     30.4893     54.1515   6.0677276051e+01   6.4642813301e+01    0.5685928    0.3904898 -61.73   0.00272658    1.504    0.335
        69 -11.8278     34.0491     47.6716   5.6553888146e+01   6.5659204616e+01    0.5654778    0.3500705  53.66  0.002625833    2.426    0.588
        70 -11.1587    245.2106     49.3125   5.2796652275e+00   1.9139375418e+01    0.2907589    0.1922838  48.82  0.001156316    1.997    0.499
        71 -11.2697    246.4603     42.0318   3.6261571244e+00   1.9816900974e+01    0.4029235    0.2262294 -64.28  0.002249729    1.772    0.436
        72 -10.6521     58.2671     39.6917   4.1173483651e+01   6.3617442833e+01    0.4728546    0.2304059 -34.50  0.002006908    2.190    0.543
        73 -11.8825     55.0119     35.2975   4.0716806270e+01   6.4970449331e+01    0.3244545    0.2629423  21.02  0.001620278    1.173    0.147
        74 -11.5749     40.9847     26.7374   4.3749442182e+01   6.8759895513e+01     0.414643    0.2989694  40.76  0.001838521    1.490    0.329
        75 -10.9236     22.7867     25.2656   5.3924134235e+01   7.1441364097e+01    0.3281658    0.2343593 -77.87   0.00168368    2.547    0.607
        76 -10.0817      1.5070     21.9830   6.7421622045e+01   7.3852687207e+01      0.18487    0.1038841 -57.38    0.0010143    1.601    0.375
        77 -11.3608    178.9937    241.9029   5.4066845065e+01   7.3838213709e-01    0.4178547    0.2233715   1.02  0.001977985    2.805    0.643
        78 -11.1754     14.7841    238.4108   8.8104505377e+01   2.2184886993e+01    0.4257804    0.3484532 -78.04  0.002065108    1.449    0.310
        79 -11.8839    192.2564    235.0872   5.0553863262e+01  -7.2348660146e-02    0.3756583    0.2478691 -27.63  0.002392676    1.570    0.363
        80  -9.9665      7.5291    236.5362   8.9492443892e+01   2.3220800325e+01     0.201828    0.1143881  50.80 0.0009535499    1.293    0.227
