#   1 NUMBER                 Running object number                                     
#   2 MAG_AUTO               Kron-like elliptical aperture magnitude                    [mag]
#   3 X_IMAGE                Object position along x                                    [pixel]
#   4 Y_IMAGE                Object position along y                                    [pixel]
#   5 X_WORLD                Barycenter position along world x axis                     [deg]
#   6 Y_WORLD                Barycenter position along world y axis                     [deg]
#   7 A_WORLD                Profile RMS along major axis (world units)                 [deg]
#   8 B_WORLD                Profile RMS along minor axis (world units)                 [deg]
#   9 THETA_WORLD            Position angle (CCW/world-x)                               [deg]
#  10 FWHM_WORLD             FWHM assuming a gaussian core                              [deg]
#  11 ELONGATION             A_IMAGE/B_IMAGE                                           
#  12 ELLIPTICITY            1 - B_IMAGE/A_IMAGE                                       
         1 -13.5226    219.8985      7.4628   3.6136397454e+01   2.9449804744e+01     1.358417     1.052067  51.16  0.005481716    1.504    0.335
         2 -14.3499    194.0634     38.4072   4.6946839324e+01   3.2059896632e+01     2.869046     1.752705  23.82   0.01202256    2.673    0.626
         3 -10.0855    189.9027     14.7528   4.0988433893e+01   3.5863132848e+01    0.2282748    0.1839366  29.17 0.0009610555    1.519    0.342
         4  -7.2009     56.7730    218.6134   1.1808425916e+02   2.1918339937e+01    0.4199393    0.1923605  64.04  0.002033056    2.335    0.572
         5 -10.9794    247.3309    249.2489   8.5169191409e+01  -1.1214828628e+01    0.5127891    0.2047932  33.57  0.002741285    2.124    0.529
         6 -11.4509    248.4128    243.2162   8.4002104984e+01  -1.0677930585e+01    0.3586218    0.2802833  12.26  0.002620954    1.172    0.147
         7 -11.3353    249.2325    237.5950   8.2926055986e+01  -1.0137382299e+01    0.3379578    0.2062872  15.00  0.002126003    1.380    0.275
         8 -10.0285     72.0000    249.0102   1.1772779038e+02   1.4248684833e+01    0.1950126    0.1091836 -73.19  0.001186843    1.945    0.486
         9  -8.8967     80.9621    220.4554   1.1340424633e+02   1.8368982143e+01    0.1802292    0.1078002  40.71 0.0003541025    1.513    0.339
        10 -10.0443     71.9958    244.7387   1.1738204033e+02   1.5005436523e+01    0.2567355    0.1687622  83.42   0.00100559    1.537    0.350
        11  -9.8463    184.5885    212.2630   9.0675744019e+01   3.2046675528e+00    0.1784448    0.1214066 -25.72 0.0009512107    1.627    0.385
        12  -8.5864     56.7877    209.0531   1.1722846423e+02   2.3875843851e+01    0.2000844    0.1416903 -72.56 0.0009371646    1.381    0.276
        13 -13.0479     32.0098    206.4060   1.2200636286e+02   2.7274598703e+01    0.3146996    0.1643431  55.11  0.001010437    1.663    0.399
        14 -10.9442     65.6588    204.6850   1.1495336298e+02   2.3667629382e+01    0.3405136    0.1915775 -67.98  0.001563208    1.743    0.426
        15  -8.4566     69.8361    199.4532   1.1350081844e+02   2.4234973054e+01    0.1787539    0.1195619  37.86  0.001004431    1.504    0.335
        16  -8.1724    224.2574    206.6661   8.1934581277e+01  -2.4569561596e+00    0.1095495    0.1039621 -51.10 0.0004346411    1.569    0.363
        17 -11.3808    196.0503    204.4091   8.6975358399e+01   2.5422797779e+00    0.5671062    0.2326826  31.05  0.002248423    2.592    0.614
        18  -8.3644     93.4583    205.5026   1.0907590544e+02   1.9602173598e+01    0.1287539    0.1160623  63.35 9.202707e-05    1.048    0.046
        19  -9.4973     96.3643    201.9156   1.0798358384e+02   1.9913743902e+01    0.2044006    0.1527864 -89.99  0.001148927    1.435    0.303
        20 -12.5036     55.3434    197.6260   1.1643912854e+02   2.6487231495e+01    0.6097335    0.2646488 -52.42  0.002752322    2.725    0.633
        21 -10.8793    192.8392    194.8057   8.5839107491e+01   4.7075232640e+00     1.079341    0.5956328 -64.56  0.003175421    6.416    0.844
        22  -9.1117     81.9558    194.6559   1.1026139742e+02   2.3598754776e+01    0.1911828    0.1526051  54.38  0.001136449    1.146    0.128
        23  -8.4652     77.9435    192.5071   1.1089679868e+02   2.4638797833e+01    0.1749458   0.09183378  59.58 0.0004821704    2.083    0.520
        24  -9.2637     96.9548    190.7000   1.0633145516e+02   2.2226684723e+01    0.1940015    0.1608516  52.89 0.0005718941    1.118    0.105
        25 -11.1706    149.1673    187.7039   9.3898837046e+01   1.3952360741e+01    0.3685451    0.3275369  74.99  0.001281715    1.298    0.230
        26 -12.2645     65.9947    184.1720   1.1260411515e+02   2.8125505681e+01    0.7104779    0.6400887 -43.66  0.004521761    1.375    0.272
        27 -11.1941     62.4733    250.4298   1.1954529548e+02   1.5215850677e+01    0.2202437    0.1196332  56.33  0.000535327    1.485    0.326
        28  -9.4126     94.0967    186.9667   1.0646217954e+02   2.3489418313e+01    0.2065927    0.1840088  76.37 0.0006155606    1.044    0.042
        29 -11.0543     98.7056    181.5285   1.0457966336e+02   2.3983902203e+01    0.4243088    0.3376625 -24.65  0.002263775    1.693    0.409
        30 -11.0781    144.1800    178.0720   9.3265489906e+01   1.6843771623e+01    0.4395509    0.2734527 -52.28  0.001326044    1.721    0.419
        31 -10.2564    189.0708    177.1114   8.3134912870e+01   8.5433261550e+00    0.4882191    0.3593718 -58.18  0.002411111    1.796    0.443
        32  -9.3844     37.8037    176.5906   1.1823042098e+02   3.3196538493e+01    0.2760894    0.1464052  51.75  0.001455498    1.820    0.450
        33  -9.7570     56.3303    175.0440   1.1376713912e+02   3.1444629227e+01    0.4505792    0.1807018  52.57   0.00186111    2.708    0.631
        34 -10.5143    216.7573    187.8766   7.9746209474e+01   1.6821919376e+00    0.3232663    0.1842518  -2.02  0.001321495    2.730    0.634
        35  -9.0003     84.2123    173.7506   1.0689639928e+02   2.7981313637e+01    0.1733739    0.1541216 -44.79 0.0003645158    1.284    0.221
        36  -9.6837     46.2055    172.9480   1.1591003549e+02   3.3120004594e+01     0.355902    0.2281086  24.37  0.001710824    1.964    0.491
        37  -8.4741    194.4068    172.2324   8.1012875485e+01   8.4307116791e+00    0.1958191    0.1354104 -46.88  0.000946947    1.600    0.375
        38 -10.5144    138.8526    170.9151   9.3152126043e+01   1.9358868114e+01    0.3557239    0.2147745  35.60  0.001033437    1.654    0.395
        39  -9.6118    231.4913    170.4916   7.3424396341e+01   1.9571711291e+00    0.1391931    0.1180694  -6.52 8.302405e-05    1.009    0.009
        40 -10.1136    149.6365    177.4744   9.1894372334e+01   1.5949312043e+01    0.2538757    0.2411919  80.91  0.000559726    1.160    0.138
        41  -9.7149    240.4901    169.5009   7.1607100562e+01   5.7629271076e-01    0.1360491    0.1153146 -10.33 -0.0001042808    1.029    0.028
        42 -12.1204     49.1197    249.4463   1.2182380699e+02   1.7016155376e+01     0.186903    0.1384709  78.85 0.0005092798    1.171    0.146
        43  -9.4243    187.6938    162.9462   8.0441128068e+01   1.1470512189e+01    0.3372243    0.2307899 -60.04  0.001169408    2.020    0.505
        44  -9.6745     53.1778    229.9601   1.1970405700e+02   2.0126635937e+01    0.2874611     0.146955 -88.80  0.001575391    2.078    0.519
        45  -8.8923     44.5630    230.4709   1.2134837663e+02   2.1050817040e+01    0.1180487   0.08477489  67.73 0.0006513189    1.096    0.088
        46 -11.4839     94.7503    151.3866   1.0050805142e+02   3.1645569716e+01    0.6770933    0.5617618 -31.42  0.003127198    1.399    0.285
        47 -10.8036    133.9469    145.5797   8.9112385959e+01   2.5932819175e+01     1.359684    0.3496513 -54.77  0.003049018    6.297    0.841
        48  -9.7936    187.5269    152.1208   7.8073649505e+01   1.3596685820e+01    0.2815278    0.2224426  39.67  0.001416249    1.275    0.216
        49  -9.0908    112.9320    150.7277   9.5608220260e+01   2.8701116459e+01    0.2653507    0.1933642 -73.72 0.0009446886    1.591    0.371
        50 -10.0155    174.4937    149.2064   8.0254265512e+01   1.6860587287e+01    0.3176514    0.2750461 -53.47    0.0008745    1.263    0.209
        51  -9.1396    109.2118    147.7245   9.5974950530e+01   3.0071497679e+01    0.2162378    0.1951962  78.67 0.0007499671    1.157    0.136
        52  -9.7284    143.9923    146.4557   8.6799155678e+01   2.3729886774e+01    0.4028729    0.2674122 -82.46  0.001501385    2.755    0.637
        53  -9.1137     87.0949    143.6620   1.0111800963e+02   3.4726454344e+01    0.2329401    0.1743286  58.52 0.0006564893    1.449    0.310
        54 -10.6157    106.5933    137.7182   9.4583873996e+01   3.2917697178e+01    0.5047818    0.3310615 -29.26  0.001379292    1.987    0.497
        55 -10.5811    105.9389    130.6954   9.3213790622e+01   3.4712855906e+01    0.4038905    0.3314407 -59.69  0.001199557    1.202    0.168
        56 -10.3240    135.9884    129.2033   8.4769873153e+01   2.9236766935e+01    0.5738325    0.2051097 -47.48  0.001688955    2.775    0.640
        57 -11.5163     94.6504    137.5229   9.7827602805e+01   3.5009890026e+01    0.2869619    0.2585461 -44.06 0.0003672931    1.123    0.110
        58 -10.5233    114.4826    129.0177   9.0464209285e+01   3.3539575183e+01    0.3667166    0.3202631   4.67  0.000807384    1.309    0.236
        59  -9.2252    160.5121    127.9360   7.8374614116e+01   2.4282902611e+01    0.2492414    0.1532776 -42.54  0.001035888    1.600    0.375
        60 -10.3882    101.7159    124.9012   9.3076470297e+01   3.6849318549e+01    0.3031209    0.2519616 -20.42 0.0006949314    1.381    0.276
        61 -10.7851    120.2325    123.0450   8.7447202726e+01   3.3828315160e+01    0.4992307    0.3780384  -7.41  0.001589038    1.763    0.433
        62  -9.8466     58.7557    229.2305   1.1858985824e+02   1.9581001660e+01    0.1524339    0.1194125  71.68 0.0003513038    1.052    0.050
        63  -9.4190    109.8437    118.1068   8.9121651409e+01   3.6978699047e+01    0.2260346    0.2131306 -43.67 0.0003941316    1.018    0.017
        64 -10.1004    231.2731    113.6871   6.0649869503e+01   1.1621360563e+01    0.2923332    0.2630367 -20.60 0.0007194776    1.052    0.049
        65 -10.4194    134.8460    107.6503   7.9472077141e+01   3.4277679984e+01    0.8609816    0.1262445 -44.61  0.001752797    6.710    0.851
        66  -9.2459    167.7068    112.6481   7.2745687224e+01   2.5860003267e+01    0.3183676    0.2306419 -76.90  0.001310055    2.081    0.519
        67 -11.2209    118.2882    110.2643   8.4703727117e+01   3.7150179516e+01    0.6269508    0.4346027  66.29   0.00209271    1.993    0.498
        68  -9.6491    205.5483    110.2663   6.4301639412e+01   1.7725694268e+01    0.3047278    0.2428124  38.07 0.0008327443    1.339    0.253
        69  -9.4706    118.9867    102.4958   8.2384059485e+01   3.8752733567e+01    0.2221406    0.1375848  65.94 0.0008105829    2.591    0.614
        70  -9.6465     65.5204    100.1228   9.8285030367e+01   4.8448468187e+01    0.3033407    0.2168549  13.11  0.001529278    1.706    0.414
        71  -9.6231     50.4346    224.6621   1.1981280629e+02   2.1486876738e+01    0.1781964    0.1040235  85.98 0.0006212463    1.664    0.399
        72  -8.7929    155.5714     82.2271   6.6946421593e+01   3.4692753610e+01    0.2131615    0.1505577 -23.39 0.0003985915    1.564    0.360
        73 -10.2795     40.5059    224.4630   1.2167722279e+02   2.2682239484e+01    0.2215277    0.1168691  72.96 0.0007831104    1.789    0.441
        74  -8.7803    184.0616     77.0148   5.9452486472e+01   2.8699038864e+01    0.2400866     0.181874 -71.05 0.0007283547    1.608    0.378
        75  -7.0469     76.3743    223.5103   1.1463633802e+02   1.8398154046e+01    0.1182142     0.101785  69.26 0.0007960653    1.067    0.063
        76  -9.0586     66.9562     70.9541   8.9695885944e+01   5.4839883175e+01    0.2022278    0.1738095  75.47 0.0007186518    1.643    0.391
        77  -8.3302     84.2490    245.6878   1.1519415270e+02   1.3200255098e+01    0.1150922   0.07277963  66.45            0    1.515    0.340
        78 -12.8312    178.5688     52.3515   5.3341792390e+01   3.3993039081e+01    0.8802903    0.7425874  36.54 0.0008701967    1.280    0.219
        79 -19.5170     15.2468    145.1866   1.2049457697e+02   4.2607581354e+01     19.19863     4.549132 -76.18   0.06536505    3.962    0.748
        80 -10.6012     54.6814    222.1375   1.1879173182e+02   2.1471555950e+01    0.2280887    0.1283474  49.98 0.0005628038    1.497    0.332
        81  -9.6935     80.5867     15.3523   6.2977469064e+01   6.1691950045e+01    0.2310421      0.18862  42.46  0.001061794    1.243    0.196
        82  -9.5187    168.0837    232.5332   9.7239236576e+01   2.6722503189e+00    0.2081603     0.178905  25.46 0.0007983939    1.040    0.038
        83  -9.0089     76.2814     13.6444   6.3616093805e+01   6.2715414233e+01    0.1178791    0.1010774 -50.91 0.0007015461    1.661    0.398
