#   1 NUMBER                 Running object number                                     
#   2 MAG_AUTO               Kron-like elliptical aperture magnitude                    [mag]
#   3 X_IMAGE                Object position along x                                    [pixel]
#   4 Y_IMAGE                Object position along y                                    [pixel]
#   5 X_WORLD                Barycenter position along world x axis                     [deg]
#   6 Y_WORLD                Barycenter position along world y axis                     [deg]
#   7 A_WORLD                Profile RMS along major axis (world units)                 [deg]
#   8 B_WORLD                Profile RMS along minor axis (world units)                 [deg]
#   9 THETA_WORLD            Position angle (CCW/world-x)                               [deg]
#  10 FWHM_WORLD             FWHM assuming a gaussian core                              [deg]
#  11 ELONGATION             A_IMAGE/B_IMAGE                                           
#  12 ELLIPTICITY            1 - B_IMAGE/A_IMAGE                                       
         1 -14.7207    207.9888     59.7287   3.5770796314e+02   2.7452692871e+01      1.13697    0.8978729 -32.61   0.00523836    1.325    0.246
         2 -14.1236    206.2420     41.4843   3.5374343989e+02   3.0219490815e+01     1.336582    0.6997656 -36.11  0.007203689    1.675    0.403
         3 -14.6905    121.9403     32.0683   1.6362402125e+00   5.0306887278e+01    0.7290173    0.4562881 -51.63   0.00364443    1.600    0.375
         4 -15.8849     96.9227     38.5452   9.4948206315e+00   5.5492931957e+01     2.092505    0.9100867  50.66  0.006712141    2.202    0.546
         5 -14.1264     79.6609     36.1632   1.3564441511e+01   5.9915605108e+01     1.034052    0.6687899   6.55  0.004240408    2.874    0.652
         6 -15.0665    142.7041     25.1216   3.5615020558e+02   4.6138515625e+01     1.177287    0.5026387  75.60  0.004430218    2.349    0.574
         7 -13.4324    166.0896     20.8566   3.5227115008e+02   4.1186806119e+01    0.9086683    0.2626425 -31.19  0.003552648    3.223    0.690
         8 -14.9497    166.7379      5.0003   3.4789875260e+02   4.2699789099e+01     1.434043    0.5951278  83.59  0.006795804    2.291    0.563
         9 -13.0619     79.0493     17.3780   5.3501969425e+00   6.2590941340e+01    0.4859558    0.2890449  41.99  0.002368731    1.773    0.436
        10 -14.6600      7.7937     10.9743   4.0047529079e+01   7.7262538954e+01    0.9577546    0.7406703 -37.79  0.006103559    1.281    0.219
        11 -14.6423     20.6381      5.2889   2.5082942492e+01   7.6368686033e+01     0.774999    0.5409417  13.90  0.004505856    1.525    0.344
        12 -14.7021    133.4176      7.2447   3.5158697955e+02   5.0284048890e+01    0.6632817    0.4841819  46.84  0.003468945    1.627    0.385
        13 -14.4164    139.2907      3.4012   3.4974298118e+02   4.9226053009e+01    0.7676128    0.3672312  87.99  0.002771251    1.987    0.497
        14 -13.1995    222.9336      3.0220   3.4428458897e+02   3.1393692105e+01     0.678075    0.2508515 -82.43  0.003419421    2.857    0.650
        15 -12.7160     46.1317      3.4088   9.0417164972e+00   7.1653160993e+01    0.3392745    0.2488293  60.21  0.001997183    1.280    0.219
        16 -12.9033     14.2432      2.9091   2.8456139504e+01   7.7719890732e+01    0.4984762    0.2718122  25.03  0.002572229    1.905    0.475
        17 -15.2742     55.0595    134.9846   5.1940892589e+01   4.1510273259e+01     1.926475     1.005576  83.00  0.006485761    3.155    0.683
        18 -16.5324    243.4290    240.6674   2.6068649500e+01  -3.5116404919e+00     2.560456     1.510851 -36.49   0.01500218    1.688    0.407
        19 -16.1345    248.1499    198.0982   1.9087826810e+01   1.3803748273e+00       4.1906      1.04233 -43.64   0.01684671    4.452    0.775
        20 -15.5251    249.5608    159.7049   1.2586402210e+01   6.4686941620e+00     3.338012    0.5149296 -40.51    0.0113269    5.003    0.800
        21 -15.4813     14.6096    246.2733   7.3131609999e+01   1.8743057912e+01     2.480623    0.5579667  28.24   0.01030876    2.922    0.658
        22 -15.4514     59.3429    114.5987   4.6524081316e+01   4.6412167181e+01     1.626582    0.8458824 -54.40  0.006535037    1.851    0.460
        23 -14.4885     43.2940    122.3977   5.4146829433e+01   4.6450517358e+01     1.815436    0.5865821 -71.54  0.005473044    3.496    0.714
        24 -14.3151     49.3499    106.4470   4.8702921105e+01   5.0019402512e+01     1.065098    0.9597591  15.75  0.004466603    1.177    0.150
        25 -11.8738    164.0764    134.6398   2.1418286095e+01   2.2976600672e+01     0.293662    0.1975979 -36.75  0.001490511    1.406    0.289
        26 -15.8799     79.4070    123.4486   4.1284354019e+01   4.0909020367e+01     1.745911     1.456986  63.84  0.005316461    1.277    0.217
        27 -13.5644    105.0492    130.1230   3.4761912926e+01   3.4745483218e+01    0.6116278    0.4779094 -52.61  0.002642825    1.265    0.209
        28 -13.4791    111.9586    129.4186   3.2646425007e+01   3.3649042223e+01    0.5628719     0.435414 -50.59  0.002766546    1.271    0.213
        29 -13.3988    134.1683    128.7569   2.6722999395e+01   2.9648523033e+01    0.6930768    0.4491594  77.32  0.002682319    2.846    0.649
        30 -11.8586    158.3887    129.1167   2.1373020867e+01   2.5080670248e+01    0.2725218    0.2185706  54.85  0.001478211    1.411    0.291
        31 -14.1103    224.8924    115.4014   7.5525964697e+00   1.6274729692e+01     0.912892    0.5846101 -31.12  0.004239316    1.395    0.283
        32 -13.1919    224.0438    106.6623   5.9104367297e+00   1.7744504985e+01     0.513751    0.4133559 -28.42  0.002745468    1.211    0.174
        33 -13.3742    221.2500     99.9051   4.8744923811e+00   1.9218662022e+01    0.7068639    0.3998642 -28.77  0.002998016    1.814    0.449
        34 -14.7928      4.7780    132.7210   7.0101161587e+01   4.7058009775e+01     2.258865    0.5685688 -75.39  0.007288394    3.378    0.704
        35 -13.6608     71.0603    104.9426   3.9927990698e+01   4.7070734476e+01    0.6561393    0.5063852 -67.51  0.002376845    1.342    0.255
        36 -11.5501    139.4966    111.9892   2.1500326085e+01   3.2183706818e+01    0.2155889    0.1238316 -65.88 0.0008105288    2.565    0.610
        37 -12.2913    248.1094    106.7953   3.2128972665e+00   1.4172990585e+01    0.4306707    0.2540849 -62.35  0.002514298    2.225    0.551
        38 -13.4378    164.0192    157.6033   2.6137248312e+01   1.8515270179e+01    0.4522979    0.3826952  71.45  0.002576884    1.615    0.381
        39 -14.3903     73.8840     90.5974   3.5075678792e+01   5.0136396486e+01     1.195134    0.7047989 -37.84  0.004866934    1.983    0.496
        40 -12.6326     98.7614     93.8281   2.7542830091e+01   4.4507738061e+01    0.6686357    0.4796156  12.25  0.002839227    2.110    0.526
        41 -12.3456     53.7235     93.0370   4.3754854705e+01   5.2920413610e+01    0.5061275    0.2726399 -50.38  0.002079709    1.816    0.449
        42 -12.0824      7.0038     94.6843   6.5397760330e+01   5.7437475758e+01    0.2730791    0.1861561  68.62  0.001345772    1.577    0.366
        43 -13.5849    215.8376     81.0705   1.5515974847e+00   2.2958981860e+01    0.6795302    0.5337382  37.05   0.00337709    1.767    0.434
        44 -12.8220    223.1212     71.6667   3.5878101554e+02   2.3052530292e+01    0.4583865    0.3311825  72.56  0.002557081    1.646    0.392
        45 -13.7376    245.4932     78.0160   3.5796111076e+02   1.8543652060e+01    0.8267612    0.5302609 -66.36  0.005391401    1.701    0.412
        46 -13.0679    208.7947     69.9917   3.5991638623e+02   2.5844354935e+01    0.4617167    0.4258132  53.84  0.002380513    1.383    0.277
        47 -13.7153    131.3207    174.2277   3.6545368005e+01   2.0260170612e+01    0.6159997    0.3732689  47.26    0.0028755    1.875    0.467
        48 -13.1681    102.8984     50.9415   1.2532671846e+01   5.2111859395e+01    0.4150166    0.3400451  87.11  0.002026646    1.286    0.222
        49 -12.8476    112.3439     50.2989   9.9437994850e+00   4.9973885374e+01    0.3135501     0.267533  46.54  0.001716263    1.256    0.204
        50 -13.6841    139.3694    173.7592   3.4565796815e+01   1.9128426857e+01    0.5158969    0.3657386 -50.00  0.002710529    1.439    0.305
        51 -12.3343    223.6600     46.3027   3.5336234396e+02   2.6355585319e+01     0.358972    0.1948276  59.61  0.002100196    2.260    0.557
        52 -14.5425    138.5349    165.9218   3.3331684317e+01   2.0889824454e+01    0.7980571    0.5635263  71.51  0.003656645    2.329    0.571
        53 -14.5496    149.2171    165.9210   3.0895687732e+01   1.9205764094e+01     1.198428    0.6232546 -61.38  0.004774608    2.835    0.647
        54 -13.8551     99.9320     27.5614   4.4539373904e+00   5.6285934168e+01    0.6542219    0.4266028  75.32  0.003267099    1.530    0.347
        55 -14.2221     86.7494     62.2274   2.1381638850e+01   5.3761964519e+01    0.9274675    0.8074098   0.72  0.004086623    1.406    0.289
        56 -15.5012     14.9241    150.9978   6.7948584848e+01   4.1333354592e+01     2.895028     1.124044 -66.05   0.01138577    2.343    0.573
        57 -11.9508    243.9697     63.4890   3.5525198634e+02   2.0708615751e+01    0.3488417    0.1556259 -60.41  0.001797881    2.505    0.601
        58 -13.8515    132.3602     30.2799   3.5927731504e+02   4.7998545644e+01    0.4312932    0.3096653 -89.43  0.001824856    1.352    0.260
        59 -14.8920     28.6560    144.3179   6.2583698888e+01   4.1966644120e+01     1.506758    0.8115337  79.59  0.006175857    2.132    0.531
        60 -12.7343     72.7613     28.6970   1.2551340798e+01   6.2602357586e+01    0.4173132    0.2365924 -28.70  0.001926507    2.038    0.509
        61 -14.8872     17.4402    133.7068   6.5500953875e+01   4.5889550191e+01     1.281279    0.6712215 -26.65  0.005081149    2.624    0.619
        62 -13.0979    168.2612    151.4180   2.4056957672e+01   1.9026233502e+01    0.5836836    0.3511357 -37.71  0.002870489    1.550    0.355
        63 -14.0978      2.7108    156.4711   7.2352047447e+01   4.0734200971e+01     2.130754    0.3285805 -82.18  0.005212987    6.387    0.843
        64 -12.4354    113.8493    155.1413   3.7464065533e+01   2.7287524634e+01    0.3521204    0.3290615  69.29  0.001641205    1.160    0.138
        65 -12.0530    154.1212    151.2430   2.6962366643e+01   2.1380992962e+01     0.265609    0.1879839 -72.66  0.001249021    2.099    0.524
        66 -13.2448     79.9915    147.0708   4.5758729923e+01   3.4715933974e+01    0.6155701    0.3760167 -71.69  0.002609102    1.858    0.462
        67 -13.7013     97.6817    144.7678   3.9968436428e+01   3.2459576125e+01     0.799099    0.5365852 -59.22  0.003661175    1.522    0.343
        68 -14.7745     41.8277    145.8784   5.8190424602e+01   4.0163571648e+01     1.533595    0.6885056 -52.16  0.005932436    2.264    0.558
        69 -12.1340    125.0272    144.0128   3.2322773719e+01   2.7928423725e+01    0.2381556    0.1866025  81.34  0.001143148    1.709    0.415
