#   1 NUMBER                 Running object number                                     
#   2 MAG_AUTO               Kron-like elliptical aperture magnitude                    [mag]
#   3 X_IMAGE                Object position along x                                    [pixel]
#   4 Y_IMAGE                Object position along y                                    [pixel]
#   5 X_WORLD                Barycenter position along world x axis                     [deg]
#   6 Y_WORLD                Barycenter position along world y axis                     [deg]
#   7 A_WORLD                Profile RMS along major axis (world units)                 [deg]
#   8 B_WORLD                Profile RMS along minor axis (world units)                 [deg]
#   9 THETA_WORLD            Position angle (CCW/world-x)                               [deg]
#  10 FWHM_WORLD             FWHM assuming a gaussian core                              [deg]
#  11 ELONGATION             A_IMAGE/B_IMAGE                                           
#  12 ELLIPTICITY            1 - B_IMAGE/A_IMAGE                                       
         1 -13.0001    187.1551     38.7391   5.3840661120e+01   3.3365238526e+01      1.39992     1.081385  13.92  0.004663762    1.609    0.379
         2 -12.6455    210.9964      6.9736   4.1863430078e+01   3.0988283196e+01    0.9628718    0.8642418  75.07   0.00423249    1.112    0.101
         3  -9.0364     60.6763      8.6751   7.2800032195e+01   6.5980607262e+01    0.1332105   0.08233554   9.67 0.0007048149    1.687    0.407
         4  -9.6631     60.6771    233.0699   1.2245511693e+02   1.9653858172e+01    0.1781378     0.109858  61.02  0.000431013    1.266    0.210
         5 -11.7405    248.2582    244.3494   9.0619872677e+01  -1.0464013989e+01    0.8472539    0.2984624 -29.14  0.004268868    3.111    0.679
         6  -6.1762     72.0000    248.9580   1.2173646960e+02   1.5474173277e+01    0.3044955    0.1417528  62.68  0.001756038    1.954    0.488
         7  -8.9088     45.7228    214.2206   1.2366889124e+02   2.4975116151e+01    0.5035358    0.2143991  75.76  0.002347225    2.774    0.639
         8  -9.9088    147.9373    215.1569   1.0422510937e+02   9.5909391929e+00    0.2038821    0.1581501  58.45  0.001233855    1.262    0.208
         9  -9.8708     58.5706    215.0570   1.2139248383e+02   2.3240663590e+01    0.1953931    0.1256112  61.65  0.000573313    1.267    0.211
        10  -8.5552    154.3071    213.3304   1.0271529113e+02   8.7966641395e+00    0.1254473   0.09709392   9.90 0.0007039079    1.661    0.398
        11  -8.8592     38.9613    212.7514   1.2477797401e+02   2.6041570046e+01    0.1775962    0.0763724  54.70 0.0009824163    1.926    0.481
        12  -8.4405    164.0000    210.9452   1.0045901775e+02   7.4945795220e+00     0.195231    0.0755064 -46.46 0.0008121815    3.010    0.668
        13 -10.1921     52.8064    209.4053   1.2198681227e+02   2.5052810671e+01    0.1791155    0.1301334  74.93  0.000295556    1.093    0.085
        14  -9.5152     47.8131    205.8690   1.2262828870e+02   2.6352962870e+01    0.3255146    0.1240697  49.34   0.00166353    2.197    0.545
        15 -10.1182    143.1452    208.9003   1.0425954219e+02   1.1492416065e+01    0.2095467    0.1638793  62.49   0.00124491    1.292    0.226
        16  -9.5714     69.5168    208.7829   1.1877074969e+02   2.3024114239e+01    0.1922899    0.1397558  79.59 0.0004357532    1.196    0.164
        17  -7.6687     73.4460    207.1734   1.1785531927e+02   2.2805595356e+01    0.3084627    0.2707761  35.58  0.002136201    1.460    0.315
        18  -9.6808      3.6247    207.1093   1.3060722732e+02   3.0722975376e+01   0.09422451   0.04675601  50.41 0.0003681312    1.690    0.408
        19 -10.1246     61.1946    204.3657   1.1995294840e+02   2.4990958281e+01    0.2186579    0.1947442 -74.49  0.000888428    1.351    0.260
        20 -10.2585     97.1964    200.4875   1.1238629739e+02   2.0664353324e+01    0.4709534    0.3435717 -24.95  0.001237772    2.498    0.600
        21  -9.6441     72.4750    245.4754   1.2139315996e+02   1.5987430071e+01    0.2016444    0.1306721  67.85 0.0005046161    1.265    0.209
        22  -9.5080    193.4335    195.7616   9.2144014220e+01   4.6449024565e+00    0.7617183    0.3824531 -61.34  0.002169099    7.157    0.860
        23 -10.5818     62.7017    197.5812   1.1900842571e+02   2.6162960449e+01    0.3266797    0.2115263 -47.38   0.00136733    2.169    0.539
        24  -8.9712    152.2594    195.6065   1.0035220430e+02   1.2244435893e+01    0.2022151    0.1176527  34.70 0.0009629957    1.710    0.415
        25  -8.6687     79.9871    194.8483   1.1522838112e+02   2.4361548755e+01    0.2047254     0.139149  69.44  0.001191624    1.373    0.272
        26 -10.1412     97.2114    192.6158   1.1138494115e+02   2.2242492372e+01    0.3587132    0.2503868 -37.90  0.001304707    2.090    0.521
        27 -11.0569    124.6041    188.1400   1.0494701359e+02   1.8614550992e+01    0.3256836    0.2224042  45.78  0.001741229    1.335    0.251
        28 -10.6033     73.6778    182.1203   1.1505239835e+02   2.7922558642e+01    0.5261129    0.3534934  64.53  0.002767008    1.392    0.282
        29  -7.9118    153.2931    184.6515   9.8273797429e+01   1.4078831014e+01    0.1385839    0.1069317  79.91 0.0007030198    1.671    0.402
        30 -10.1784     70.7913    185.6127   1.1607692615e+02   2.7575710827e+01    0.6091882    0.3182175  68.30  0.002927655    2.188    0.543
        31  -9.3355    146.7625    183.4247   9.9442692462e+01   1.5534804911e+01    0.2794276    0.1226583  46.35  0.001140818    2.117    0.528
        32 -10.1379     99.3733    180.9419   1.0932489761e+02   2.4326803457e+01    0.2538117    0.2363828 -76.40 0.0005664898    1.163    0.140
        33  -9.2820    141.3974    188.2307   1.0139607335e+02   1.5599559829e+01    0.1798809     0.130923 -66.36 0.0007379352    1.608    0.378
        34 -11.3033    112.7132    172.6203   1.0508536762e+02   2.3882801138e+01    0.6117147    0.4509509  50.21  0.003316158    1.278    0.218
        35  -8.1754    196.2030    174.6083   8.7540406778e+01   7.6043023673e+00    0.2031437    0.1226671  33.72 0.0009469214    1.625    0.385
        36  -8.2049    188.2208    174.3954   8.9094943750e+01   9.2020529485e+00    0.2015888     0.128059  51.64 0.0009466608    1.674    0.403
        37 -10.7605    126.6224    172.5152   1.0194413787e+02   2.1443132931e+01    0.5522231     0.242089  51.37  0.002169022    2.396    0.583
        38  -9.8676     51.6691    226.5938   1.2353399387e+02   2.1943426419e+01    0.1948156   0.09982482  71.93 0.0006959229    1.822    0.451
        39 -10.2376     92.4158    158.8792   1.0754046026e+02   3.0274626386e+01    0.2864633    0.2433172 -58.02 0.0006741098    1.216    0.178
        40 -10.9757     97.9057    152.1072   1.0507286630e+02   3.0926611086e+01    0.5564207    0.4241411 -32.65  0.002480261    1.706    0.414
        41  -8.7580    113.8405    152.3167   1.0125088268e+02   2.8133753211e+01    0.2837107    0.1894079 -82.15  0.001275573    1.950    0.487
        42  -9.8647    134.3627    148.2276   9.5523847756e+01   2.5169837411e+01    0.7478268    0.2116599 -54.66  0.002024647    4.664    0.786
        43  -8.4584    174.8235    149.6004   8.6645148837e+01   1.6538353505e+01    0.2069388     0.140365  54.66 0.0009358178    1.593    0.372
        44 -10.4889    108.6769    138.7650   9.9857648525e+01   3.2134781596e+01    0.5919548    0.3136249 -42.94  0.002454656    2.081    0.519
        45 -10.8536     97.2140    137.8443   1.0259280775e+02   3.4331711427e+01    0.2969303    0.2646954 -58.08 0.0005290227    1.106    0.095
        46  -9.8549     78.3414    134.4064   1.0683707285e+02   3.8101522150e+01    0.3006739    0.2140301  77.80  0.001019169    1.617    0.382
        47  -9.7023    105.9388    130.9344   9.8919540739e+01   3.4429362429e+01    0.3578878    0.3109898 -80.77  0.001220654    1.165    0.142
        48  -9.3396    115.4127    129.3741   9.6124725388e+01   3.3049824202e+01     0.300707     0.241519 -27.16 0.0008453862    1.481    0.325
        49  -9.5585    103.3506    125.0097   9.8307452353e+01   3.6263167408e+01    0.2936797     0.236767 -27.86 0.0008175309    1.476    0.323
        50  -8.3045    120.2172    123.7320   9.3584896237e+01   3.3411139207e+01    0.2424125     0.112305 -40.55 0.0008732093    2.380    0.580
        51  -8.0217    152.6661    119.7107   8.4520740008e+01   2.7474847615e+01     0.158168    0.1244097   7.18 0.0003298107    1.630    0.387
        52  -8.3805    110.8834    118.3406   9.4758334685e+01   3.6428871021e+01    0.2019421    0.1890555  38.96 0.0005865183    1.134    0.118
        53  -8.8964    167.8319    112.8299   7.9229704412e+01   2.5441813757e+01     0.410953    0.2755858 -81.15   0.00151379    2.692    0.628
        54  -9.9880    119.9419    110.4812   9.0381270585e+01   3.6452044868e+01    0.3543476     0.261414 -47.60  0.001685302    1.305    0.234
        55  -8.7654    205.3199    110.1921   7.0813533045e+01   1.7190947303e+01    0.2675198    0.2032795  37.77 0.0007295579    1.384    0.277
        56  -9.5193    134.4994    104.9161   8.5092810532e+01   3.4632658537e+01    0.4275688    0.1482787 -47.20  0.001337599    2.909    0.656
        57 -19.4844     23.5227    142.8844   1.2187910827e+02   4.2494399698e+01     18.97217     3.183113 -72.57   0.05622501    5.466    0.817
        58 -10.6785     86.8859    223.8598   1.1696709659e+02   1.7764910914e+01    0.2599424    0.1834604  88.05 0.0003999327    1.403    0.287
        59  -9.0133    188.0048     88.0205   6.8159478366e+01   2.5331433348e+01    0.2592783    0.1944712 -71.06  0.001147733    1.705    0.414
        60 -10.6235    164.7808     65.4995   6.6176492688e+01   3.5092426889e+01    0.4208819    0.3356804 -78.28 0.0008472978    1.541    0.351
        61 -11.8373    172.6159     53.3417   6.0815582414e+01   3.5044622844e+01    0.6968723    0.5336334 -12.68  0.001275879    1.478    0.323
        62  -8.9408     43.7768    221.2457   1.2452768571e+02   2.3875798552e+01    0.1274485   0.09599616 -82.76 0.0005399362    1.296    0.228
        63 -11.7440    192.1474     32.6053   5.1275772849e+01   3.2870189892e+01    0.5687976    0.5381088  82.95  0.001360818    1.021    0.020
        64 -10.2932    197.7314     24.1137   4.8060095900e+01   3.2467581078e+01    0.2594992    0.2040879   3.95   0.00133783    1.585    0.369
        65  -9.6578    190.1261     15.6333   4.6570477623e+01   3.5377992760e+01    0.3148166    0.1925207 -56.38  0.001290381    1.763    0.433
        66  -9.0653    168.0046    232.7686   1.0292269227e+02   3.4398024466e+00    0.2045583    0.1623951  40.55 0.0007636478    1.034    0.033
