#   1 NUMBER                 Running object number                                     
#   2 MAG_AUTO               Kron-like elliptical aperture magnitude                    [mag]
#   3 X_IMAGE                Object position along x                                    [pixel]
#   4 Y_IMAGE                Object position along y                                    [pixel]
#   5 X_WORLD                Barycenter position along world x axis                     [deg]
#   6 Y_WORLD                Barycenter position along world y axis                     [deg]
#   7 A_WORLD                Profile RMS along major axis (world units)                 [deg]
#   8 B_WORLD                Profile RMS along minor axis (world units)                 [deg]
#   9 THETA_WORLD            Position angle (CCW/world-x)                               [deg]
#  10 FWHM_WORLD             FWHM assuming a gaussian core                              [deg]
#  11 ELONGATION             A_IMAGE/B_IMAGE                                           
#  12 ELLIPTICITY            1 - B_IMAGE/A_IMAGE                                       
         1 -14.1602    222.5195      3.9135   3.8141704123e+01   2.7201474055e+01       2.6844     1.228598  57.26  0.006872703    2.248    0.555
         2 -14.0193    180.5804     47.8915   5.6702575225e+01   3.3369407879e+01     1.999978     1.297339  22.55 0.0007696945    2.007    0.502
         3 -14.0523    191.8916     38.4548   5.1990588884e+01   3.1605610155e+01     1.402389     1.109954 -33.09   0.00321301    1.219    0.179
         4 -14.6103    199.7333     29.3624   4.8097476364e+01   3.0601186036e+01     1.817502      1.36454  26.28  0.001305596    1.514    0.339
         5 -10.9960    189.6155     14.6486   4.4529352761e+01   3.4895646671e+01     0.288845    0.2451408 -45.38 0.0007952471    1.146    0.128
         6 -10.1124     69.3343      2.3359   6.3621626034e+01   6.7434103236e+01     0.143756   0.09792537  15.02 0.0007052064    1.741    0.426
         7  -9.8428     37.0623    224.8647   1.1812946514e+02   2.7944964080e+01    0.1152102     0.101391  44.29 0.0004651966    1.552    0.356
         8 -19.4707     13.4150    147.8270   1.1911765384e+02   4.3780091319e+01     16.14112     4.665598 -87.00   0.07200406    3.313    0.698
         9  -9.8424     72.8499    203.4391   1.1051836613e+02   2.7125040661e+01    0.3195161    0.1727528  65.59  0.001562121    1.698    0.411
        10  -9.2281     55.5360    210.3203   1.1416178715e+02   2.8138252601e+01    0.3822409    0.1929046  56.37  0.001724194    1.463    0.316
        11 -13.5704     54.8041    201.5879   1.1375626058e+02   2.9627252906e+01    0.4192843    0.3235135  57.35  0.001710471    1.130    0.115
        12 -11.0846     44.1129    210.2180   1.1621227256e+02   2.9447232745e+01    0.2460945    0.1586316  84.17 0.0008323232    1.453    0.312
        13 -10.8842     42.0016    205.7921   1.1636259546e+02   3.0389340771e+01    0.2089263    0.1908612  23.25  0.001109873    1.718    0.418
        14 -10.8387     37.8368    211.3257   1.1738832300e+02   2.9950590489e+01    0.1383114    0.0872851  56.21  0.000314576    1.088    0.081
        15 -12.4168    196.0842    198.3998   8.7875409769e+01   9.2970773498e+00    0.9896621     0.842128 -89.36  0.007006517    1.989    0.497
        16 -10.3786    183.8684    206.2912   9.0986214301e+01   1.0354504086e+01    0.1881745    0.1299413 -17.17  0.001274071    1.904    0.475
        17 -13.3531     32.1857    206.5335   1.1817829634e+02   3.1312777236e+01    0.3263226    0.1168437  52.16  0.001620815    1.886    0.470
        18  -9.3161     87.4510    202.6574   1.0773216442e+02   2.5337203293e+01    0.1702128    0.1183039  30.03  0.001142108    1.722    0.419
        19 -11.2232    152.8836    198.4640   9.5265023199e+01   1.6208741046e+01    0.3301948    0.2081769 -57.34  0.002070671    2.207    0.547
        20 -10.7095     97.6558    200.3761   1.0561675727e+02   2.4287820291e+01    0.3275605    0.1889319  31.09 0.0008513005    1.998    0.500
        21 -15.9886     71.6089    148.5588   1.0557511661e+02   3.7136411374e+01     9.904377     3.991948  72.84   0.01955898    8.290    0.879
        22 -10.5305    134.6888    197.9622   9.8484606850e+01   1.9143838338e+01    0.1543039    0.1341623  55.51  0.001156224    1.145    0.126
        23 -10.9766    129.8987    198.1373   9.9383320602e+01   1.9860520210e+01    0.1844782    0.1274833  59.04  0.001107054    1.356    0.262
        24  -9.7864    159.8895    196.9475   9.3826081090e+01   1.5285908141e+01    0.1717521    0.1370543  44.77 0.0004294303    1.067    0.063
        25 -12.4581     28.4760    196.5452   1.1840476633e+02   3.3346765834e+01    0.1789947    0.1243594  60.86  0.001416099    1.022    0.022
        26 -10.9805    207.8377    194.2735   8.5363955297e+01   7.8661195252e+00    0.1652128    0.1511245 -12.06 0.0005094617    1.367    0.269
        27  -9.8842     81.9767    194.9619   1.0809936753e+02   2.7303759694e+01    0.1767366    0.1317519  57.16  0.001172638    1.003    0.003
        28 -13.5301     64.1441    188.6943   1.1105278454e+02   3.0663351439e+01    0.6342458    0.5954718  20.81   0.00505219    1.596    0.373
        29 -10.8586     96.7463    190.7344   1.0484503032e+02   2.5945043925e+01    0.2438429    0.1996604  44.13  0.001132967    1.228    0.186
        30  -9.9673     61.8727    220.2510   1.1363312424e+02   2.5868601500e+01    0.1632494   0.09353273  56.61  0.001185371    1.255    0.204
        31  -9.8418     30.0339    217.9111   1.1904078618e+02   2.9731463689e+01    0.1917879     0.141623 -40.22   0.00140769    2.850    0.649
        32 -10.3210    154.0053    185.4397   9.3312727941e+01   1.7793997568e+01    0.2025504    0.1659132 -85.60  0.001359346    1.648    0.393
        33 -11.6547    146.9065    183.8461   9.4405565467e+01   1.9199224029e+01    0.3830394    0.2172519  59.11  0.001620594    1.983    0.496
        34 -10.2152     72.9599    217.9139   1.1153808407e+02   2.4876887660e+01    0.1570858    0.1071538  57.48 0.0004847446    1.063    0.060
        35 -10.7860     99.3256    180.7600   1.0327556554e+02   2.7217670896e+01    0.2424704    0.1705698  42.82 0.0006144225    1.262    0.208
        36 -10.4244    204.4909    176.2642   8.3046691396e+01   1.0387293260e+01    0.3305517    0.1986866 -43.92  0.001904737    2.249    0.555
        37 -10.7073     58.5613    176.2318   1.1118766929e+02   3.3555990427e+01    0.2231598    0.1438655  54.83 0.0006265877    1.207    0.171
        38  -9.6961     48.7421    217.4355   1.1576961050e+02   2.7805631886e+01    0.2120524   0.08798488  32.99  0.001206188    2.551    0.608
        39 -11.6772    140.6886    173.9961   9.4195476682e+01   2.1710722772e+01    0.5562561    0.3153997  60.37  0.002882448    2.023    0.506
        40 -10.7692     46.2609    173.1994   1.1351868159e+02   3.5567342062e+01    0.3079858    0.1777682  39.45  0.001969875    1.598    0.374
        41  -8.9635     51.6868    215.3053   1.1513682163e+02   2.7802174306e+01    0.1314621   0.08630644  54.32 0.0004868572    1.067    0.063
        42  -9.5145     54.0631    173.6968   1.1192177224e+02   3.4564308370e+01    0.2025317    0.1193072  47.29 0.0007417085    1.379    0.275
        43 -10.8360    230.2488    166.4174   7.7231229597e+01   7.1020721197e+00    0.1795786    0.1435856 -43.38    0.0010238    1.780    0.438
        44 -10.0229    161.7973    166.3231   8.8960538682e+01   1.9180497830e+01    0.1841657    0.1700649 -81.28 0.0005630673    1.328    0.247
        45 -11.3087    130.9655    214.0615   1.0095625316e+02   1.7500007110e+01    0.1931142    0.1537302 -84.01 0.0003903704    1.627    0.385
        46 -12.4447     93.9637    153.7221   1.0111005249e+02   3.2866429082e+01    0.5283072    0.4340514 -15.66  0.003184685    1.999    0.500
        47  -9.4540    149.5103    156.0247   8.9636134044e+01   2.2976703409e+01    0.1737868     0.111686 -75.68 0.0008100786    2.715    0.632
        48  -9.9384    188.3477    153.6803   8.1855245254e+01   1.6087684118e+01    0.1220467    0.0998074  78.75 0.0006863205    1.734    0.423
        49 -11.5233    133.7714    145.0183   9.0996225434e+01   2.7708035154e+01    0.9501201    0.2664525 -54.84  0.002949787    5.365    0.814
        50  -9.3840    191.6526    151.3361   8.0828333820e+01   1.5782176647e+01    0.1225799    0.1011143  83.40 0.0007048046    1.777    0.437
        51 -10.8020    174.3844    148.6503   8.3479902083e+01   1.9442324468e+01    0.2831166    0.2463816  85.86  0.001347173    1.477    0.323
        52 -11.2032    144.0819    145.9550   8.8988050394e+01   2.5633217654e+01    0.3079222    0.2212946 -74.60  0.001643894    1.899    0.473
        53 -10.0467     87.5018    144.2068   1.0128955859e+02   3.5698716761e+01    0.3214024     0.148009  65.16   0.00128395    3.145    0.682
        54 -11.5531    106.6549    139.2320   9.6061751837e+01   3.3586700844e+01    0.4830666    0.4314174  16.61  0.003010516    1.451    0.311
        55 -12.3124     93.8830    139.2481   9.9060885128e+01   3.5686952604e+01    0.2410286    0.2285948  87.94  0.000373741    1.184    0.156
        56 -10.8985    113.9910    129.9834   9.2745246217e+01   3.4097754958e+01    0.3021883    0.2699139  29.80 0.0009556481    1.295    0.228
        57 -10.9855    105.8932    130.7461   9.4804639034e+01   3.5378027215e+01    0.3287996    0.2710445 -85.46  0.001220723    1.237    0.191
        58  -8.7667    101.6462    132.3296   9.6095840839e+01   3.5789609793e+01    0.1424292   0.09289488  72.49 0.0007046229    1.777    0.437
        59 -11.0071    135.7122    127.7314   8.7333361448e+01   3.0437385242e+01    0.5450299    0.1681923 -49.31  0.001891032    3.636    0.725
        60 -10.2568    160.9349    127.6344   8.1935477769e+01   2.5389339741e+01    0.2640587    0.2100274 -52.32  0.001222979    1.425    0.298
        61 -11.1193    101.3946    125.8392   9.5027334455e+01   3.7136965383e+01    0.2379468    0.2204741 -22.21 0.0006471587    1.409    0.290
        62 -11.3393    119.9068    123.6808   9.0151075912e+01   3.4234148353e+01    0.5415411    0.3527024 -22.19  0.002333076    2.880    0.653
        63  -9.9736    134.8860    119.9022   8.5902232659e+01   3.2043678214e+01    0.2904868    0.1478181 -49.60  0.001065585    2.127    0.530
        64 -10.1546    109.5399    118.9466   9.1719540181e+01   3.7090356075e+01    0.2324708     0.177611  54.73  0.001281376    1.219    0.179
        65 -10.6832    134.8784    111.7784   8.4121438133e+01   3.3565610605e+01    0.5636811   0.08465096 -44.20  0.001299338    7.256    0.862
        66 -10.3027    167.7007    112.4832   7.7193339000e+01   2.6458681522e+01    0.3260369    0.2452658  87.78  0.001545274    1.887    0.470
        67 -11.6239    118.3821    110.3356   8.7738494023e+01   3.7151729385e+01    0.6303763    0.3695251  63.04  0.002782979    2.034    0.508
        68 -10.2151    205.5002    110.1322   6.9675691696e+01   1.8606808900e+01    0.2928098    0.1819347  41.25 0.0008433698    1.538    0.350
        69 -10.1887     64.8956    100.0138   1.0019180833e+02   4.8433052711e+01    0.2727315     0.189245  35.36  0.001271137    1.608    0.378
        70 -11.7714     53.0623     90.8505   1.0214535495e+02   5.2086995404e+01    0.4076792    0.2099444 -65.72  0.001425477    1.746    0.427
        71  -9.4266    155.6752     80.9987   7.1549694817e+01   3.4528301597e+01    0.2080464    0.1956229 -30.36  0.000530998    1.089    0.082
        72  -9.9267     65.7651     70.6913   9.3474379155e+01   5.4936283692e+01    0.2680853    0.1699485  50.19  0.001355973    1.688    0.408
        73  -9.1022    169.1690    237.1068   9.7078475081e+01   9.2444769100e+00    0.1280911   0.09549636  49.14 0.0003848493    1.277    0.217
        74 -11.9609     61.3657    234.7155   1.1454020082e+02   2.3829804000e+01    0.1760368    0.1184194  61.72 0.0005370913    1.131    0.116
        75  -9.5883     93.9127    249.8511   1.1017125480e+02   1.7918730837e+01    0.1374138   0.09879626  42.26 0.0004971217    1.255    0.203
        76 -10.5485     53.9676    231.3442   1.1559357928e+02   2.5151865807e+01    0.1713343    0.1072564  73.25  0.001120162    1.412    0.292
        77 -11.2460    157.3843     59.5426   6.4678867788e+01   3.7675729196e+01    0.3715853    0.2794859 -80.86 0.0005801626    1.681    0.405
        78 -10.8137    159.9424     53.4925   6.2199385651e+01   3.7963864806e+01    0.2849518    0.2591016 -62.95 0.0005401459    1.148    0.129
        79 -10.3302    152.7863    211.7890   9.6920964893e+01   1.4517444236e+01    0.1712916    0.1149319  62.37 0.0006144654    1.727    0.421
        80  -9.0209     72.1347    230.9056   1.1252223371e+02   2.3094113725e+01    0.1173589   0.08860898  48.58 0.0003409753    1.213    0.176
        81 -11.9224     66.6076    206.5520   1.1189985077e+02   2.7409898319e+01    0.4229805    0.3638187   7.62 0.0005101294    1.976    0.494
