#   1 NUMBER                 Running object number                                     
#   2 MAG_AUTO               Kron-like elliptical aperture magnitude                    [mag]
#   3 X_IMAGE                Object position along x                                    [pixel]
#   4 Y_IMAGE                Object position along y                                    [pixel]
#   5 X_WORLD                Barycenter position along world x axis                     [deg]
#   6 Y_WORLD                Barycenter position along world y axis                     [deg]
#   7 A_WORLD                Profile RMS along major axis (world units)                 [deg]
#   8 B_WORLD                Profile RMS along minor axis (world units)                 [deg]
#   9 THETA_WORLD            Position angle (CCW/world-x)                               [deg]
#  10 FWHM_WORLD             FWHM assuming a gaussian core                              [deg]
#  11 ELONGATION             A_IMAGE/B_IMAGE                                           
#  12 ELLIPTICITY            1 - B_IMAGE/A_IMAGE                                       
         1 -15.7996     99.9244    179.6632   8.9506326435e+01   2.3844641545e+01     4.804671     2.061887  48.87   0.01665118    2.753    0.637
         2 -10.9248    110.9506     43.8096   5.1271521359e+01   5.0732467415e+01    0.3048138    0.2249478 -29.02 0.0006566583    1.513    0.339
         3 -10.4520     93.2770      8.3752   4.3298921663e+01   5.8484680649e+01    0.1796611    0.1735622  25.31 0.0006652742    1.185    0.156
         4  -9.6454     24.2012      4.7983   6.5942538974e+01   7.1563292302e+01    0.3062357    0.1536399   9.23  0.001273159    2.677    0.626
         5  -9.7638      6.1294      3.1738   7.5371019042e+01   7.3959027185e+01    0.1704971     0.113722  -0.10 0.0004690988    1.194    0.162
         6  -9.5602    220.4749    245.9657   7.3723349169e+01  -7.7330560821e+00    0.1712583    0.1027912 -33.81  0.000600093    1.546    0.353
         7 -13.0149     64.0315    237.0369   1.0625603467e+02   1.5563918019e+01     1.554581     1.199432 -50.77  0.005790631    1.519    0.342
         8 -13.7808     89.2503    242.3661   1.0110029957e+02   1.1045219255e+01     1.829508     1.682855   8.01    0.0117145    1.223    0.182
         9 -14.2695     98.3966    231.9052   9.7733743544e+01   1.1940399987e+01     2.182639     1.404155  40.37  0.006742683    1.392    0.281
        10 -13.1999     55.1581    211.6679   1.0572823158e+02   2.2460677453e+01     1.704874     1.038912 -84.67  0.008370716    1.770    0.435
        11 -12.8546     16.2735    196.3371   1.1381192451e+02   3.0425184089e+01     1.237843    0.7393122 -67.06  0.006667326    1.541    0.351
        12 -13.1513      4.6833    195.6356   1.1655102728e+02   3.1607991969e+01      1.18114    0.3458699 -67.20  0.004821421    2.777    0.640
        13 -13.6656      7.7069    209.0708   1.1676824345e+02   2.8163172448e+01    0.7401083    0.5437434 -23.26    0.0043475    2.023    0.506
        14 -13.4285     17.1690    219.9285   1.1538057273e+02   2.4768281948e+01     1.078125    0.5026087  46.24  0.005473265    1.878    0.467
        15 -13.7957     30.9247    248.2255   1.1437008243e+02   1.7142004559e+01     1.406324    0.4489651  27.94  0.005767907    3.305    0.697
        16 -15.3103     35.7228    227.9748   1.1183592140e+02   2.0990512668e+01     2.270663     1.919137 -87.66   0.01475388    1.145    0.127
        17 -14.4980     32.6333    212.3998   1.1123743217e+02   2.4922080359e+01     3.072675     1.452365  76.10   0.01300133    2.612    0.617
        18 -12.8553      7.5262    219.6683   1.1748669802e+02   2.5740612824e+01    0.6419399    0.1896781  42.98  0.001594741    2.697    0.629
        19 -13.0369     15.4683    227.6858   1.1627332856e+02   2.3186086640e+01    0.5165673    0.3644592  22.25  0.003147254    1.693    0.409
        20 -14.3583      4.3919    247.5627   1.1966595409e+02   1.9998713062e+01    0.7935474     0.491958  70.49  0.005084447    1.334    0.250
        21 -15.0401     16.2572    244.5025   1.1714162795e+02   1.9471327489e+01    0.8967779    0.6063909  86.43  0.003351419    1.333    0.250
        22 -14.1990      9.3877    237.1478   1.1812105143e+02   2.1709762554e+01    0.7129971    0.3738683 -52.31  0.003022378    2.466    0.595
        23 -10.6385     76.1485    250.3621   1.0487304707e+02   1.1188018570e+01     0.237178     0.150004  30.32 0.0008128549    1.487    0.327
        24  -9.4118     70.7942    250.6164   1.0606856536e+02   1.1839082796e+01    0.2752607    0.1087547  31.87  0.001162825    2.281    0.562
        25 -11.2978     67.0865    248.1008   1.0664049595e+02   1.2833910174e+01    0.4697842    0.2202531 -64.86  0.001614652    2.296    0.564
        26  -9.9921    140.1408    244.6641   8.9951820202e+01   3.2644196484e+00     0.202243    0.1449643  42.79 0.0004724615    1.385    0.278
        27  -9.8906    233.1846    244.1972   7.1133734176e+01  -8.9336073089e+00    0.1429405    0.1241149  -8.90 0.0003572095    1.312    0.238
        28  -9.9391    153.5159    243.0895   8.6796455481e+01   1.6161083720e+00    0.3061496    0.1647381  27.45 0.0006077617    1.703    0.413
        29 -10.2361    128.6339    243.3215   9.2319707211e+01   5.1950773500e+00    0.2036919    0.1490374  58.98  0.001101452    1.670    0.401
        30  -9.4107    144.8340    239.8779   8.8222916799e+01   3.4709941948e+00    0.2082612     0.163909   7.91 0.0007399194    1.257    0.205
        31 -10.0705    217.1788    238.5363   7.3125691264e+01  -6.2173163742e+00    0.2086303    0.1525249 -27.51 0.0006452531    1.248    0.199
        32  -9.1600    160.5694    238.7882   8.4617199286e+01   1.3741016209e+00    0.1618385     0.130135 -58.88 0.0009359038    1.604    0.376
        33 -10.6549    231.2958    237.8289   7.0428122521e+01  -7.7898784323e+00    0.2117127    0.1927097  -1.42 0.0008141561    1.399    0.285
        34 -11.4936    227.4215    234.9221   7.0642453691e+01  -6.9008087516e+00    0.4691431    0.1901965 -33.68  0.001063155    2.254    0.556
        35 -11.8349    245.4600    235.5604   6.7584274510e+01  -9.0478532555e+00    0.4015405    0.2326643  11.32  0.002414754    1.741    0.426
        36 -12.2753    248.0040    230.9692   6.6392146066e+01  -8.6628951607e+00    0.4909031    0.2507361 -26.50  0.002794375    1.692    0.409
        37 -11.7251    129.3784    230.5067   9.0330021814e+01   7.6079164592e+00    0.4269675    0.2553892 -40.55  0.002075485    1.865    0.464
        38 -11.2820    125.3964    236.0992   9.2047597123e+01   7.0846031182e+00    0.3359486    0.2433531  54.29   0.00173957    1.549    0.355
        39 -11.8788    123.2005    231.3304   9.1875116165e+01   8.3758707316e+00    0.3727005    0.3276334 -81.59   0.00204083    1.365    0.267
        40  -9.0703    189.0017    235.9829   7.8203552392e+01  -2.1490744078e+00    0.1553849    0.1300627  -8.16 0.0004328524    1.057    0.054
        41  -8.7929    170.3025    236.3349   8.2147421051e+01   4.1139396144e-01    0.1367788   0.09255931  -7.83 0.0007036644    1.661    0.398
        42  -9.2906    166.9801    235.5005   8.2723590215e+01   1.0390332046e+00    0.1939933    0.1181316  29.54   0.00043021    1.495    0.331
        43 -11.1294    136.6638    234.1729   8.9208141796e+01   5.7780877983e+00     0.322973    0.1577271 -45.13  0.001451943    2.214    0.548
        44  -8.6778    175.6857    234.3101   8.0684498088e+01   3.4752834984e-04    0.1205732    0.1034258  57.86 0.0007030129    1.632    0.387
        45 -11.8025    236.5097    231.2998   6.8418857921e+01  -7.4196507066e+00    0.3751963    0.1893658  32.01  0.002082827    2.082    0.520
        46  -9.7929    206.9727    231.9311   7.3967730957e+01  -3.8815321161e+00    0.1913314    0.1632508  -6.50 0.0005523906    1.099    0.090
        47  -9.3969    168.4423    230.7641   8.1649665170e+01   1.6850195533e+00    0.1865494      0.11593 -30.71 0.0009420445    1.696    0.410
        48 -10.9847    143.3082    230.4369   8.7142202805e+01   5.5065543965e+00    0.2792789    0.1919694 -17.73 0.0009393309    1.776    0.437
        49 -13.5562     46.0210    194.9696   1.0618504560e+02   2.7637827458e+01     1.868874      1.54817 -43.63   0.01069063    1.381    0.276
        50  -9.5665    192.0662    229.8671   7.6569983385e+01  -1.5309721859e+00    0.1790915    0.1655103  11.29 0.0003439108    1.238    0.192
        51 -10.2300     74.8588    228.6995   1.0287751271e+02   1.5956871310e+01    0.3150151    0.2333004  59.70  0.001756315    1.315    0.239
        52 -10.2668    208.9836    226.8799   7.2725280656e+01  -3.3184200917e+00    0.2076185    0.1590031 -24.68 0.0003666219    1.167    0.143
        53  -9.9852    171.0960    225.4838   8.0210783159e+01   2.2645320517e+00     0.251134    0.2006954  46.39  0.001133161    1.486    0.327
        54 -11.8496    243.0993    223.4048   6.5946015077e+01  -6.9929734430e+00    0.2648807    0.1963682  12.24  0.001005276    1.303    0.233
        55 -10.9202    131.0058    222.8573   8.8801311267e+01   8.9249423803e+00    0.3860666    0.2277633  -2.89  0.001468839    3.134    0.681
        56 -12.1504    122.3203    221.5757   9.0649659897e+01   1.0543056680e+01    0.5429167     0.314699 -56.81  0.002544426    1.906    0.475
        57 -10.4104     88.3917    215.6906   9.8025348350e+01   1.6988373661e+01    0.3824019    0.2829398 -29.48  0.001520726    1.718    0.418
        58 -10.1243     87.2204    221.0727   9.9012097491e+01   1.5933931012e+01    0.3014157     0.199922 -89.07  0.001454923    1.907    0.476
        59 -10.2497     82.1673    220.7692   1.0019661976e+02   1.6723270047e+01    0.3296959    0.2231625  14.56  0.001109855    1.822    0.451
        60  -9.8304     70.4918    214.4952   1.0228129910e+02   1.9789333295e+01     0.286352    0.1995091 -33.21 0.0009058836    1.906    0.475
        61  -9.3162     73.7365    212.9710   1.0129540003e+02   1.9702477848e+01    0.3831972    0.1859884  54.82  0.001175943    2.355    0.575
        62 -10.9207     76.5184    222.6120   1.0178148017e+02   1.7094363438e+01    0.5304416    0.3279223 -36.56   0.00248487    2.214    0.548
        63 -10.8209     71.3001    219.6460   1.0269115862e+02   1.8484825066e+01    0.3931228    0.3102533  68.29 0.0007898247    1.259    0.206
        64 -14.6677      5.6741    227.2749   1.1833379196e+02   2.4207998038e+01    0.7613773    0.5206764 -58.96   0.00446403    1.663    0.399
        65 -10.5175    230.5784    222.2358   6.7926025180e+01  -5.3232740210e+00    0.2330071     0.105424 -42.74  0.001148436    2.132    0.531
        66 -10.4890    115.8829    222.3282   9.2290147861e+01   1.1375981415e+01    0.2010794    0.1672125  30.23 0.0005783352    1.116    0.104
        67 -11.0833    118.6207    229.5340   9.2682692755e+01   9.4374592880e+00    0.2408838    0.1991554 -55.85  0.000955936    1.336    0.252
        68 -10.6869    197.6538    218.3378   7.3469994697e+01  -3.1287112923e-01    0.4032144    0.1947114 -25.02  0.001687727    2.633    0.620
        69 -10.8257    234.7510    214.5782   6.5860367746e+01  -4.6265746383e+00    0.3485871    0.1876906  36.89  0.001893702    2.130    0.531
        70  -9.7984    222.3450    216.5846   6.8431221984e+01  -3.3755041269e+00    0.3753895    0.1930092  10.10  0.001650201    2.859    0.650
        71 -11.3574    117.0381    216.2829   9.1112943114e+01   1.2507500769e+01    0.4179231    0.2953362 -10.67  0.001982096    1.924    0.480
        72  -9.0872     81.4886    216.5229   9.9829366822e+01   1.7790479145e+01    0.1380801    0.1281559  53.74 0.0001015381    1.014    0.014
        73 -12.5173    122.3162    200.0852   8.7222357569e+01   1.5280387426e+01    0.7760631    0.3517043  46.54   0.00125925    2.404    0.584
        74 -15.2091    150.2759    176.6068   7.6008105475e+01   1.5751185312e+01     2.546668     1.605978  -6.34  0.008832833    2.721    0.632
        75 -10.5478    139.9647    217.1700   8.5810468021e+01   8.6992023042e+00    0.3179015    0.2052291  55.13  0.001469171    1.980    0.495
        76 -11.8136     78.2996    204.9971   9.9123852349e+01   2.0954505206e+01    0.6229009    0.4262357  27.07  0.002534097    1.516    0.340
        77  -9.2142    221.6736    209.6771   6.7330614994e+01  -2.1399789438e+00    0.1344234   0.08579595 -10.39 0.0007048419    1.689    0.408
        78  -8.7982    169.6849    207.6436   7.7434883443e+01   5.8978849820e+00    0.1492368    0.1020118 -11.09  0.000704475    1.745    0.427
        79 -10.5636    241.9288    203.6433   6.2700900490e+01  -3.7703231041e+00     0.394912    0.2258012  -5.73  0.001977925    2.330    0.571
        80 -10.3667     62.2730    204.8898   1.0318115935e+02   2.3174171620e+01    0.2526565    0.2149845  31.64 0.0008598792    1.219    0.180
        81 -11.1871    234.8233    202.7776   6.3754348315e+01  -2.7252075013e+00    0.3553283    0.2262478 -15.58  0.001203844    1.586    0.369
        82  -9.9615    190.7235    203.6888   7.2247451471e+01   3.3723846326e+00    0.2375268    0.1849618 -12.27  0.000649745    1.243    0.195
        83  -9.1907    176.8451    214.1349   7.7035403706e+01   3.5252379175e+00    0.1854694     0.145262  -6.87 0.0003618175    1.262    0.208
        84  -9.8663    161.3708    201.1176   7.8107850033e+01   8.5605395252e+00      0.25601     0.187869  17.94 0.0007622594    1.407    0.289
        85 -10.3340    156.9578    199.0373   7.8733246431e+01   9.7245161050e+00    0.2189513    0.2019261  -1.14 0.0003853322    1.011    0.011
        86  -9.5752    183.9848    198.0346   7.2599244140e+01   5.5059569169e+00    0.2051881    0.1807512 -10.30 0.0003185558    1.023    0.023
        87 -10.5889    149.5450    197.0853   8.0097532641e+01   1.1383076383e+01    0.2636428    0.2450592 -86.20 0.0005202897    1.295    0.228
        88 -11.7776     75.8471    193.8186   9.8217958483e+01   2.4027229124e+01     0.665955      0.25328 -62.36  0.002452083    2.617    0.618
        89 -11.7894     73.2712    190.0905   9.8370723302e+01   2.5319891798e+01     0.505169    0.3237366  29.54  0.002384649    1.603    0.376
        90 -11.1684    211.3473    193.7260   6.6328008259e+01   2.0972734033e+00    0.4388755    0.3544501 -22.42  0.002290416    1.075    0.070
        91 -10.2533    189.9424    196.0032   7.0978910931e+01   4.9533692415e+00    0.4117306    0.2012385 -33.80  0.001733878    2.117    0.528
        92  -9.7689    230.6135    195.9154   6.3238814807e+01  -1.0208193307e+00     0.205283     0.160144  -0.49 0.0005943514    1.251    0.201
        93  -9.0706    204.2963    193.6185   6.7658014264e+01   3.1757690512e+00     0.127955     0.108093 -73.86 0.0001007752    1.761    0.432
        94 -10.0989    166.4857    213.2584   7.9130038544e+01   5.2976973304e+00    0.3661141    0.1335787 -47.50   0.00138122    2.801    0.643
        95 -10.5944    247.3021    190.4166   5.9443170208e+01  -2.3072880649e+00    0.2179197    0.1778852 -32.38 0.0002968354    1.148    0.129
        96 -10.5213    242.4099    190.3389   6.0222894620e+01  -1.6604771146e+00    0.3371813    0.2095915 -23.64   0.00105087    1.500    0.333
        97 -11.2642     66.9670    188.9321   9.9896961391e+01   2.6485941147e+01    0.3740185    0.2438713  57.74  0.001108984    1.643    0.391
        98  -9.6102     29.4260    181.3659   1.0905450080e+02   3.2878024031e+01    0.2957444    0.1945437  45.35   0.00137616    1.511    0.338
        99 -10.9794     30.5180    186.0282   1.0925484000e+02   3.1589592596e+01    0.2454525    0.2103962 -77.37  0.000426212    1.085    0.078
       100  -9.5519     26.6899    186.3232   1.1028398238e+02   3.1902476448e+01    0.2071489    0.1286472  35.60 0.0007977011    1.630    0.387
       101  -8.8721    227.7218    186.6862   6.2032014633e+01   9.6786205369e-01    0.1308819   0.08810804 -15.34  0.000193424    1.567    0.362
       102  -9.1974      2.1284    186.6252   1.1652307105e+02   3.3995094237e+01    0.1567447    0.1169834 -11.65 0.0009106952    1.873    0.466
       103  -9.8260    180.5254    185.3809   7.0913637651e+01   8.5824002395e+00    0.3668484    0.1837583  29.81  0.001518885    2.234    0.552
       104 -11.5735    157.7128    183.8297   7.5684903134e+01   1.2838859576e+01    0.3634346    0.2717653 -41.84  0.001819327    1.312    0.238
       105 -11.8034     62.7858    183.7032   1.0030179450e+02   2.8371008765e+01    0.3702337    0.3340697 -22.29  0.001195272    1.285    0.222
       106 -10.9592     70.7610    183.4157   9.8078890307e+01   2.7353136717e+01    0.2779698    0.2286868 -45.83 0.0008256345    1.289    0.224
       107  -9.6006     40.7533    183.5382   1.0626257592e+02   3.1118671105e+01    0.3048762    0.1924315 -81.89  0.001124842    1.567    0.362
       108  -9.3346    203.8072    183.6369   6.5843435543e+01   5.1160639311e+00    0.1806904    0.1271882  45.09 0.0006936353    1.674    0.403
       109 -10.5425    190.8950    183.0313   6.8290738568e+01   7.3210856940e+00    0.2556913    0.1979982  23.93 0.0003283478    1.338    0.253
       110 -10.4181    214.8257    181.8893   6.3428857319e+01   3.7272048949e+00    0.2445425      0.19842 -68.90 0.0009259792    1.765    0.433
       111 -10.3985     36.1797    180.2786   1.0711922609e+02   3.2450656444e+01    0.4112379    0.2117818 -62.20  0.001889457    1.767    0.434
       112  -8.9031      8.0120    182.0141   1.1469845647e+02   3.4662292707e+01    0.3760203    0.1165557 -75.81  0.001441773    2.821    0.646
       113 -12.4525     30.8598    154.3231   1.0542205304e+02   3.9702092895e+01     1.219039          nan -59.65  0.003055706    5.575    0.821
       114 -13.7442     26.4798    144.7060   1.0545200069e+02   4.2615608558e+01    0.9721625    0.6226689  21.78  0.004935924    1.760    0.432
       115 -11.4661     26.2447    165.5765   1.0817557770e+02   3.7229612403e+01    0.5517894    0.3571647 -10.18  0.002656148    2.210    0.547
       116 -10.6859     19.1266    159.8287   1.0955178867e+02   3.9352928864e+01    0.2697556    0.2256795 -84.48 0.0006694459    1.068    0.064
       117 -12.8057     24.5442    155.3823   1.0744356811e+02   4.0022971881e+01    0.7772602     0.454057 -45.87  0.003759444    1.763    0.433
       118 -11.8211     17.7946    173.5438   1.1137186885e+02   3.5961572290e+01    0.8198966    0.5347226 -17.21  0.002710989    2.207    0.547
       119 -10.5876     44.8504    180.0491   1.0472993092e+02   3.1540686901e+01    0.3361718    0.2595834 -26.41  0.001767953    1.628    0.386
       120  -9.1890     41.7739    178.0338   1.0532525481e+02   3.2408739067e+01    0.2054074    0.1786555  74.71   0.00052336    1.098    0.089
       121 -10.7598    104.1550    213.6864   9.3865698410e+01   1.5083348810e+01    0.2761393    0.2254859  62.54 0.0005945583    1.312    0.238
       122  -9.2248     18.4495    180.9304   1.1191139648e+02   3.4038088934e+01    0.1995304    0.1152727 -73.36  0.001003488    1.527    0.345
       123  -8.8548    181.3046    180.2564   6.9739122088e+01   9.4884738507e+00    0.1405998    0.1061803  -4.83 0.0002670035    1.512    0.339
       124  -9.3936    202.1153    178.9522   6.5256391636e+01   6.2764306291e+00    0.1953222    0.1470109 -20.72  0.001051142    1.312    0.238
       125 -10.2145    206.6846    176.3066   6.3860252860e+01   6.0423042176e+00    0.2584052    0.1931522 -11.38 0.0001973177    1.446    0.308
       126 -11.8765     61.7956    175.5794   9.9412173795e+01   3.0581216365e+01    0.4938048    0.2907589  84.08  0.002009876    2.325    0.570
       127  -9.1015    194.1841    175.3698   6.6108805158e+01   8.2798727096e+00    0.1882773    0.1316736  48.16 0.0009256135    1.686    0.407
       128 -10.7744     40.6111    172.9852   1.0501892759e+02   3.3837536181e+01    0.4070509    0.2082899  53.00 0.0008434306    2.163    0.538
       129 -11.1065    165.9931    172.0462   7.1432462376e+01   1.3903373821e+01     0.226691    0.2125161 -23.88 0.0004153682    1.016    0.016
       130 -10.2155     30.5429    175.1650   1.0807398436e+02   3.4344613707e+01    0.3097796    0.1841957  38.82  0.001504034    1.696    0.410
       131 -13.2309    145.5392    168.0915   7.5421628841e+01   1.8538822021e+01    0.7358574    0.4338997 -53.72  0.003113977    1.773    0.436
       132 -12.1979    151.5187    166.0435   7.3550924786e+01   1.7887853703e+01    0.4316735    0.3090126 -59.98  0.001354789    1.574    0.365
       133 -11.7217    152.8218    161.1711   7.2211643213e+01   1.8734984724e+01    0.3765043    0.2360024 -38.78 0.0007525905    1.610    0.379
       134  -9.8574      7.7916    171.0121   1.1381663102e+02   3.7427814980e+01     0.168875    0.1414464  78.22  0.001044537    1.099    0.090
       135  -9.9744    211.7362    169.0735   6.1487856041e+01   6.5901848526e+00    0.1927092     0.156542 -35.69 0.0004101218    1.088    0.081
       136 -13.2507     48.2763    159.4140   1.0092659800e+02   3.6485288712e+01    0.7957115    0.3623715  33.38  0.003279199    2.208    0.547
       137 -10.7604     47.2161    169.2017   1.0264523191e+02   3.4060820731e+01    0.3104072    0.2184755 -32.97  0.001518585    1.721    0.419
       138 -10.7115     45.8282    166.1660   1.0262411581e+02   3.5012078754e+01    0.2505629    0.2016818  19.88  0.001346413    1.399    0.285
       139 -10.4448     42.4942    164.4857   1.0335994340e+02   3.5830495375e+01     0.243604    0.1311004 -67.94 0.0007078473    1.717    0.418
       140  -8.6498      1.4797    167.4741   1.1519240974e+02   3.8781818407e+01    0.1980517     0.105461  87.91 0.0009618067    1.788    0.441
       141 -10.1950      4.8307    165.7691   1.1414461621e+02   3.8970369526e+01    0.1768287    0.1684239 -18.36 0.0003860696    1.278    0.217
       142 -10.3579     13.2490    167.0251   1.1196479914e+02   3.8002817787e+01    0.3728285    0.1482723 -75.04  0.001557974    2.226    0.551
       143 -10.7386      9.3095    166.4206   1.1298607397e+02   3.8469343190e+01    0.3550514    0.2568411 -39.46  0.001608768    1.586    0.370
       144  -9.9190    241.4889    168.4727   5.6307208013e+01   2.1582744202e+00    0.1293374     0.103971 -28.28 0.0002741159    1.046    0.044
       145 -14.2069     87.2284    187.1075   9.4175780077e+01   2.4008770797e+01     1.391072      1.09535  59.78  0.006479659    1.335    0.251
       146  -9.4696    216.3007    212.6152   6.8848993402e+01  -1.9123913108e+00    0.1635132    0.1527602 -69.92 0.0005141401    1.617    0.382
       147 -11.0221    238.1304    173.8600   5.7862859767e+01   1.7107476710e+00    0.3825308    0.2398321  -3.40  0.001899204    2.316    0.568
       148  -9.3994    201.5300    166.1315   6.2807688390e+01   8.8447652710e+00    0.2194526    0.1808896  -0.81 0.0007849644    1.311    0.237
       149 -12.4564     38.2984    162.4999   1.0431427501e+02   3.6808870293e+01    0.8034765    0.2999958 -59.16  0.003129401    2.298    0.565
       150 -11.4020     36.3023    153.0104   1.0359564650e+02   3.9494083179e+01    0.4832713    0.2222176 -80.84  0.001824637    2.625    0.619
       151 -11.2669    170.1253    169.1865   6.9920623593e+01   1.3764789185e+01    0.2322867    0.1983258  -9.62 0.0006809674    1.222    0.182
       152 -15.4962    121.6630    154.9800   7.8782243769e+01   2.6089248723e+01     2.724765     1.945966 -89.03   0.01135723    2.097    0.523
       153  -9.1185    169.3122    248.3417   8.4215994175e+01  -1.5313765121e+00    0.1339426   0.08874306  -6.18 0.0002703718    1.700    0.412
       154 -10.0800    189.9826    162.5030   6.4330734973e+01   1.1570539075e+01    0.2270346     0.175762 -40.94 0.0003657728    1.194    0.163
       155 -10.3127    226.4129    162.0250   5.7518310001e+01   5.5497351971e+00    0.2576312    0.1938245  36.65 0.0004349134    1.530    0.346
       156 -11.1051    207.1482    158.3074   6.0157854462e+01   9.3968059815e+00    0.3578185    0.1972246 -38.44 0.0003806285    1.643    0.391
       157 -12.5839     11.2646    139.1926   1.0948403034e+02   4.5274426756e+01    0.6259566    0.4153949  -7.38  0.002889914    1.914    0.478
       158 -11.3610      3.3020    136.3647   1.1163269192e+02   4.6524230616e+01     0.555077    0.2558627 -46.17  0.002567486    2.093    0.522
       159 -11.1243      6.1232    128.4346   1.0978435593e+02   4.8354247659e+01     0.517161    0.2174497 -49.91  0.001591698    2.078    0.519
       160 -10.7843     11.2742    126.1683   1.0778517959e+02   4.8588757065e+01    0.3733508    0.2225089 -39.36  0.001899704    1.694    0.410
       161 -11.2993      4.8388    147.8804   1.1241715334e+02   4.3502807764e+01    0.4503489    0.3111443   5.67  0.001751037    1.805    0.446
       162 -12.6632     11.0823    146.0080   1.1034908005e+02   4.3543448100e+01    0.9307092    0.4888766  54.82  0.003763736    2.210    0.548
       163 -12.9303    173.1335    155.0552   6.6274906630e+01   1.6208344163e+01    0.6988245    0.3742623 -35.05  0.001963129    1.992    0.498
       164 -10.4402    227.1240    154.0437   5.5824016839e+01   6.8786728984e+00    0.3627119    0.2161836 -23.23  0.001186801    2.022    0.505
       165  -9.6291    226.8238    149.7789   5.5023912598e+01   7.6980025065e+00    0.1962304    0.1656352 -59.70 0.0003472026    1.305    0.234
       166 -14.0381     72.7385    179.1944   9.6897222672e+01   2.8145979744e+01     1.675707    0.7584145  60.35    0.0052127    3.909    0.744
       167 -11.6857      9.9529    158.7094   1.1205221167e+02   4.0379936598e+01    0.8636242    0.3753392  88.47  0.003448422    2.691    0.628
       168 -11.9701    156.2505    153.6951   6.9785802322e+01   1.9743954543e+01    0.3869328    0.2601724 -14.01  0.001278685    2.182    0.542
       169 -11.1879     47.5073    150.5046   9.9778994557e+01   3.8905671560e+01    0.2388981    0.1455281  25.53 0.0009720824    1.788    0.441
       170  -8.7697      2.6742    153.3406   1.1359195607e+02   4.2261556311e+01     0.138857   0.08529237  65.77 0.0007051298    1.731    0.422
       171 -13.2135     54.8632    150.3342   9.7475435268e+01   3.8050791018e+01    0.7102377     0.433515  63.60  0.003021466    2.131    0.531
       172 -16.1841     80.3631    157.5007   9.1026017813e+01   3.2587927143e+01      4.36447     2.818431  20.65   0.01909893    1.807    0.447
       173 -10.8290    192.5169    149.9944   6.1193434452e+01   1.3623525578e+01    0.2312817    0.1317769 -43.21  0.001038378    1.608    0.378
       174 -11.7335    149.0849    149.3070   7.0521012078e+01   2.2124924080e+01    0.3221799    0.2316413 -54.47  0.001485479    1.433    0.302
       175 -11.4651     50.9863    143.2169   9.7469789542e+01   4.0390775280e+01     0.292125    0.1993085 -56.56 0.0006518019    1.346    0.257
       176  -8.8978    234.2884    149.3214   5.3744762045e+01   6.5834671310e+00    0.1291038    0.0930365 -16.87 0.0002059186    1.601    0.376
       177 -11.7939     43.8532    151.1614   1.0100988951e+02   3.9156053219e+01    0.3616777    0.2192528 -67.30  0.001570884    1.533    0.348
       178 -11.6052    133.7421    142.7567   7.2877705204e+01   2.6658819027e+01    0.3126529    0.2464058  89.99  0.001422042    1.682    0.405
       179 -12.8977    138.6890    157.2890   7.4842443239e+01   2.2315793283e+01    0.6543287    0.3983611 -70.75  0.002206877    2.574    0.612
       180 -10.1059    246.6640    155.2577   5.3008922030e+01   3.6725251310e+00    0.2717714     0.198764 -77.05   0.00124825    2.255    0.557
       181 -12.5141    143.2444    143.5374   7.0648809605e+01   2.4588816247e+01    0.4648968    0.3539326  23.80  0.001361871    1.492    0.330
       182 -11.1323    142.3113    138.9810   6.9831038736e+01   2.5809825764e+01    0.2835896    0.1962027 -54.48 0.0008695982    1.491    0.329
       183 -11.1832     20.3687    166.5762   1.0994373064e+02   3.7511485387e+01    0.4505228     0.212405 -53.63  0.001082332    2.011    0.503
       184 -15.2186    119.1356    175.9563   8.3699777137e+01   2.1483498748e+01     2.660457     1.080621  30.53  0.008989418    2.783    0.641
       185 -13.3982     94.6617    209.0914   9.5557550884e+01   1.7582983622e+01     2.503364    0.6816292  28.38  0.006971925    4.648    0.785
       186 -11.6024     10.3429    176.7951   1.1365497996e+02   3.5773029098e+01    0.3451189    0.2038554  78.03 0.0004136329    1.686    0.407
       187 -11.3949     41.0076    139.9603   1.0011423885e+02   4.2394561005e+01    0.3246818    0.1931311 -66.06 0.0007715066    1.553    0.356
       188 -11.2378     40.3338    134.8832   9.9477226477e+01   4.3784534741e+01    0.2695788    0.2055238  82.23 0.0009544706    1.500    0.333
       189 -12.4234     46.4780    136.5638   9.7753476910e+01   4.2658155169e+01    0.4959614     0.342534  61.82  0.002364645    1.755    0.430
       190 -13.2669    133.3755    133.6124   7.0837893911e+01   2.8841647647e+01    0.6698188    0.5198846  49.30  0.002282885    1.339    0.253
       191 -12.8692    129.2554    207.5965   8.6778709212e+01   1.2463594804e+01    0.7155164    0.5193231 -20.19  0.001870853    1.680    0.405
       192 -11.4327     67.0447    134.7272   9.0692600496e+01   4.0446836681e+01    0.3440715    0.2128688  36.09  0.001536519    1.667    0.400
       193 -10.4829     61.7457    132.7666   9.2019405875e+01   4.1695773260e+01    0.4153798    0.2930135 -88.61  0.001885078    1.820    0.450
       194 -14.0331     92.6810    200.5222   9.4806398756e+01   1.9904826049e+01     2.447318    0.8388084  30.95  0.008334114    2.964    0.663
       195 -12.5483    126.5592    128.7054   7.1453786839e+01   3.1348973738e+01    0.5340922    0.4634649  16.79  0.002670122    1.266    0.210
       196 -12.6972    156.5412    130.0133   6.4318015894e+01   2.4871858074e+01    0.4956965    0.4174925  20.49  0.001485943    1.354    0.262
       197 -12.0929     98.3866    128.9321   7.9543999774e+01   3.6752366229e+01    0.5254509    0.3368941 -24.37  0.001348743    2.149    0.535
       198  -9.5737    111.0482    213.0231   9.2075668218e+01   1.4165239589e+01    0.1653039    0.1630639  37.43 0.0004051426    1.050    0.047
       199 -12.2842     20.3432    127.3771   1.0492257218e+02   4.7604571273e+01    0.4928611    0.3011735 -67.03  0.001791465    1.434    0.303
       200 -12.1483     18.9816    120.3536   1.0429324555e+02   4.9493441570e+01    0.4807292    0.2488266 -53.18  0.001184012    1.635    0.388
       201 -11.5612    147.6053    126.4164   6.5554034076e+01   2.7511503582e+01    0.4126913    0.1908454 -52.86  0.001478464    2.374    0.579
       202 -14.6689    123.5739    187.7471   8.4746311031e+01   1.7917399226e+01     1.724165     1.115092  17.84  0.005812459    1.877    0.467
       203 -11.0740    168.6403    124.0930   6.0246668085e+01   2.3599606915e+01    0.3155359    0.1298996 -50.46  0.001101407    2.564    0.610
       204 -11.7504     39.5972    124.0554   9.7781186178e+01   4.6643430503e+01    0.3769481    0.2399004 -42.17  0.001340255    1.528    0.346
       205 -12.8242     30.8794    128.1488   1.0149005583e+02   4.6480983075e+01    0.5599475    0.3799528  13.69  0.002862032    1.695    0.410
       206  -9.3253    243.4711    130.3095   4.8664169800e+01   8.4302680458e+00    0.2977125    0.1190197  56.80  0.001232347    3.663    0.727
       207 -10.7747     93.5059    122.3565   7.9455983092e+01   3.9225547644e+01    0.2775604     0.249282 -48.39 0.0005912147    1.094    0.086
       208  -9.6974    248.8612    122.6603   4.6455801436e+01   8.8587977936e+00    0.2178216    0.1117401  41.96  0.001091013    2.610    0.617
       209  -9.6000    221.9755    122.0283   5.0131039634e+01   1.3536823767e+01    0.2011709    0.1586766  -9.69 0.0005637639    1.666    0.400
       210 -10.7635    207.9001    122.1245   5.2398314771e+01   1.6122722002e+01    0.2096675    0.1757853 -65.64            0    1.229    0.186
       211 -11.0374    157.8322    121.0728   6.1883982906e+01   2.6496544287e+01    0.2330236    0.2041743 -75.25 0.0004633474    1.242    0.195
       212 -10.9427    129.8793    120.0977   6.8444550262e+01   3.2611791320e+01    0.2532823    0.2503007  87.13    0.0013616    1.030    0.030
       213  -9.9256     61.5405    121.4609   8.9697618299e+01   4.4586387929e+01    0.1473761     0.139357 -44.98 0.0004419844    1.013    0.013
       214  -9.2808      3.1985    121.6280   1.0987870632e+02   5.0239871170e+01    0.1758843    0.1175732 -13.22 0.0009560247    1.777    0.437
       215 -12.1532     80.7287    136.4007   8.6684179300e+01   3.7931897549e+01     0.535288    0.2776298  29.64  0.002109404    2.073    0.518
       216  -8.7780    236.6810    119.2507   4.7425097054e+01   1.1445475511e+01    0.1220051   0.09100752 -70.19   0.00017028    1.530    0.347
       217 -11.3226    233.0859    209.4887   6.5254597407e+01  -3.5991437595e+00    0.3101212    0.2012287 -18.55  0.001472008    1.431    0.301
       218 -11.1275    149.1422    117.3254   6.2960798099e+01   2.9133911202e+01    0.2750278    0.2042717 -35.71  0.000891813    1.392    0.282
       219 -10.3971     10.7820    117.8588   1.0676017940e+02   5.0712480143e+01    0.3452075    0.1431474  41.12  0.001445629    2.858    0.650
       220 -12.1969     39.8278    113.3048   9.5583373759e+01   4.9322001604e+01    0.5754825    0.2860301  43.54  0.002415828    2.383    0.580
       221 -12.3125     28.1104    112.7372   9.9720692058e+01   5.0632280612e+01    0.4362095    0.3005098  67.16   0.00166369    1.923    0.480
       222  -9.9222    113.2746    113.1833   7.1223423821e+01   3.7571001243e+01    0.2567876    0.2000567 -25.05  0.001202696    1.454    0.312
       223 -10.7247     51.9594    128.2489   9.4370279612e+01   4.4136766599e+01    0.4028361    0.1400993 -50.73  0.001421651    2.548    0.607
       224 -10.5600    194.7871    113.9228   5.2831771738e+01   2.0219557508e+01    0.2664754    0.1843467  89.40  0.001157534    2.088    0.521
       225 -10.2810      7.8045    109.9902   1.0661903651e+02   5.2854716089e+01    0.4570433      0.14454 -54.81   0.00123452    2.341    0.573
       226 -10.2547      9.8560    104.3699   1.0495610846e+02   5.4101541883e+01     0.279791    0.2112069  37.93  0.001154002    1.555    0.357
       227  -9.8497    163.6645    110.3007   5.7983667626e+01   2.7447079348e+01    0.1523068    0.1162966 -83.51 0.0005118757    1.658    0.397
       228 -10.2397     52.7861    109.6027   9.0085947655e+01   4.8690238982e+01    0.2043873    0.1306784  39.11 0.0007038601    1.690    0.408
       229  -9.5956     96.5877    108.1689   7.4880635763e+01   4.1973621652e+01    0.2322395    0.1370196 -36.40 0.0009470264    1.850    0.460
       230 -10.6060    187.6783    105.5371   5.2171491102e+01   2.3244432222e+01    0.2529765    0.1232849 -42.43  0.000736755    1.913    0.477
       231 -10.7122    111.7502    105.4290   6.9605143347e+01   3.9593147568e+01    0.2896502    0.2423611 -25.00 0.0006115838    1.288    0.224
       232 -11.9828     69.3535    201.3507   1.0093297978e+02   2.3085478095e+01     1.150581    0.4362703 -73.20  0.003317325    3.509    0.715
       233 -11.2220    140.5219    105.4368   6.1993394632e+01   3.3471937054e+01     0.369597    0.1981129  55.56  0.001457173    2.069    0.517
       234 -10.7071    132.8665    104.3102   6.3594103532e+01   3.5369571687e+01    0.2822845    0.2079901 -56.95  0.001319491    1.459    0.315
       235  -9.5022    100.4168    104.1898   7.2630622622e+01   4.2128836424e+01    0.2215889    0.1460019 -59.05 0.0009542443    1.747    0.427
       236 -10.5504     18.5975    103.5236   1.0151585418e+02   5.3694523925e+01    0.3282368    0.2323204  51.08   0.00176848    1.752    0.429
       237  -9.3873    233.1603    100.8734   4.4204999716e+01   1.5165463794e+01    0.1635145    0.1393758 -33.13 0.0003926597    1.269    0.212
       238 -10.3554    120.3753    100.6039   6.5879394764e+01   3.8822437619e+01    0.2742145    0.2256474  52.47 0.0006749097    1.237    0.191
       239  -9.4514     21.6647     98.2770   9.9310596199e+01   5.4716601387e+01    0.1276154    0.1006312  60.89 0.0003611984    1.608    0.378
       240 -10.8961     91.8109     96.2913   7.3136351803e+01   4.5505233609e+01    0.2577497     0.239265 -25.37 0.0002596614    1.062    0.059
       241  -9.1008    114.6604     94.3058   6.5711293891e+01   4.1331182478e+01    0.1530309    0.1210886  86.04  0.000704135    1.679    0.405
       242  -9.2655     29.2907     94.3291   9.5462435639e+01   5.4980865385e+01    0.1458614   0.08853418 -33.56 0.0002555968    1.622    0.384
       243 -11.1034    174.8511     91.5365   5.1159416377e+01   2.8556289105e+01     0.236682    0.1877215 -66.83 0.0005861265    1.298    0.230
       244 -10.9064     91.5280     91.2721   7.1791335773e+01   4.6625759973e+01    0.4056596    0.2374274  51.15   0.00171649    1.937    0.484
       245 -11.0971    152.4648     85.4889   5.4031677673e+01   3.4653273340e+01    0.2682084    0.2187524 -53.22 0.0009914058    1.228    0.186
       246  -9.9017     57.5052     88.9814   8.3080287541e+01   5.2846321082e+01    0.2114821    0.1047817 -32.27 0.0001246719    2.467    0.595
       247  -9.5196    107.3056     87.2819   6.5796017731e+01   4.4284680819e+01    0.1476561    0.1162855   7.04 0.0001978783    1.558    0.358
       248  -9.9990     18.8258     85.5742   9.7724624750e+01   5.7916338123e+01    0.3163467    0.1171373  23.08  0.001323753    2.810    0.644
       249 -10.2065    184.0119     90.6599   4.9317791811e+01   2.6714479235e+01    0.1922286     0.176553  75.49 0.0004365342    1.106    0.096
       250  -9.7525    119.7740     81.9896   6.0790408694e+01   4.2632890579e+01    0.1963215    0.1224487 -40.80 0.0006847546    1.654    0.395
       251 -10.0897     44.8201     80.4296   8.5645735341e+01   5.6416811641e+01    0.1871303    0.1266143   8.15 0.0005148172    1.612    0.380
       252  -9.4595    129.7964     78.3678   5.7204045297e+01   4.1065575410e+01    0.2105082    0.1299776  42.62 0.0005924004    1.644    0.392
       253  -9.6426     11.5301     78.0461   9.9110298014e+01   6.0150194716e+01    0.1891928    0.1097118 -57.49 0.0003400117    1.499    0.333
       254 -10.2947    155.8399     77.1139   5.1127572499e+01   3.5352176318e+01    0.2224489    0.1856243 -78.89 0.0004044848    1.264    0.209
       255  -9.3297     68.6673     75.6857   7.4946452337e+01   5.3906098713e+01    0.1482438    0.1056491  -6.07 0.0005400699    1.683    0.406
       256  -9.7116     36.3282     75.3304   8.7714446256e+01   5.8517168661e+01     0.145793   0.09054021 -23.40 0.0002466429    1.711    0.416
       257  -9.2594    128.5370     73.4607   5.6095333506e+01   4.2210244395e+01    0.1439929    0.1368288  42.74 9.779484e-05    1.053    0.050
       258 -10.5134    147.6810     71.4700   5.1261501927e+01   3.8170157320e+01     0.252368    0.1306758 -38.78  0.001080029    1.994    0.498
       259  -9.9256     33.8409     70.8493   8.7484084060e+01   5.9735337844e+01    0.2014657    0.1603197 -19.57  0.000437738    1.137    0.121
       260  -9.3856    114.4777     71.5126   5.9086270738e+01   4.5681511456e+01    0.1435213    0.1372396  59.33 0.0008095462    1.054    0.051
       261  -9.6537    179.0848     67.9488   4.4659668428e+01   3.1575829603e+01    0.2003612     0.181991 -80.29 0.0003481724    1.014    0.014
       262  -9.9429     24.5124     67.5321   9.0650030218e+01   6.1375293595e+01    0.1312055    0.1100556 -25.38 0.0002314366    1.003    0.003
       263  -9.4138     55.6989     73.6941   7.9270013941e+01   5.6340924877e+01     0.142595   0.09991077 -13.36 0.0002243992    1.595    0.373
       264  -9.8904     63.1304     65.1822   7.3622394352e+01   5.6835909679e+01    0.1742115    0.1662457  60.10 0.0004033588    1.317    0.241
       265  -8.9047     93.2945     64.3044   6.2899857547e+01   5.1415477010e+01    0.1420432    0.1070052  10.40  0.000385732    1.579    0.367
       266  -9.8956    103.8873     59.6719   5.8276778100e+01   4.9958602178e+01    0.2137657    0.1901908  -8.88 0.0003288523    1.207    0.171
       267  -9.2694     92.6953     59.2860   6.1428577122e+01   5.2373978531e+01    0.1317754    0.1115702  85.93 0.0001626651    1.563    0.360
       268  -9.0880    119.3067     56.7005   5.3314614355e+01   4.7013260971e+01    0.1377668    0.1084264 -83.21 0.0002615813    1.593    0.372
       269  -9.6662     30.4953     55.5290   8.4185122679e+01   6.3146508751e+01    0.1312413     0.107299 -15.21 -1.550939e-05    1.037    0.036
       270 -10.1176    156.4035     52.7020   4.4527888837e+01   3.9031074738e+01    0.1727752    0.1339775 -24.74 0.0009420023    1.554    0.357
       271  -9.5006      2.1778     51.8545   9.6866070592e+01   6.6264393853e+01    0.1604653    0.1448633 -29.07 0.0004768082    1.193    0.162
       272  -9.8886    111.0172     49.0642   5.2955166845e+01   4.9993289151e+01    0.2045617    0.1872273  43.86 0.0004069801    1.023    0.023
       273  -9.6266    106.7191     48.9934   5.4034516828e+01   5.0955502736e+01    0.1799642     0.175935  18.36 0.0002300117    1.086    0.079
       274 -12.2031    113.0409    245.6370   9.6121641547e+01   7.0101363820e+00    0.5767357    0.4708645 -24.77  0.001986617    1.439    0.305
       275 -10.2285     36.0317     42.7839   7.7038950424e+01   6.4744272460e+01    0.1618625    0.1423483 -55.15 0.0007762309    1.584    0.369
       276  -9.4293      8.4819     43.5081   9.1058175066e+01   6.7446953318e+01    0.1217341   0.09656565 -22.42 0.0008103213    1.014    0.014
       277  -8.9621    206.2990     42.2829   3.5168190219e+01   2.9318168803e+01    0.1087774   0.09489723  44.54  0.000262379    1.547    0.353
       278  -8.9504    187.7425     40.3457   3.6865101850e+01   3.3571804464e+01    0.1319409   0.08274606 -65.54 0.0002959014    1.593    0.372
       279  -9.2545    192.2106     34.3948   3.4980737189e+01   3.3340321855e+01    0.1675438     0.104737  85.16 0.0002860761    1.525    0.344
       280  -9.7865    120.5095     32.9784   4.5641333852e+01   4.9922417024e+01    0.1760102    0.1326923 -30.58 -0.0001295193    1.505    0.336
       281  -9.4571    100.5341     42.9924   5.3673493932e+01   5.3139859207e+01    0.1775669     0.111145 -58.90 0.0004264732    2.377    0.579
       282 -10.8466    199.2019     28.9033   3.3019229199e+01   3.2495112180e+01     0.197445    0.1582896  87.06 0.0002550932    1.104    0.094
       283  -9.1848     67.5030     24.5008   5.6816143651e+01   6.2202597371e+01    0.1260187    0.1080111  30.79 0.0008101232    1.053    0.050
       284  -9.4539     45.7584     24.4038   6.5112203335e+01   6.6035638722e+01    0.1735451   0.09853742  29.95 0.0009412378    1.578    0.366
       285  -8.9471    114.7464     20.9764   4.3006202863e+01   5.2546444209e+01    0.1411475     0.112533 -24.07 0.0003054009    1.472    0.321
       286  -8.8939     35.6813     21.3219   6.8262693986e+01   6.7967802393e+01    0.1033151   0.09715903  55.50 0.0007043686    1.668    0.400
       287 -10.5027     79.9945     21.7704   5.1774503300e+01   6.0033297588e+01    0.1705743    0.1385988 -53.02  0.001043822    1.624    0.384
       288  -9.2563     28.7531     19.9800   7.1011115195e+01   6.9109035359e+01    0.1624234    0.1293121  -8.69  0.000481082    1.131    0.116
       289 -10.4683     14.2758     18.9792   7.8269135653e+01   7.0983912749e+01    0.3083342    0.1947092   1.74  0.001937928    1.431    0.301
       290  -9.2694     66.1974     18.8425   5.4941843393e+01   6.3078535171e+01    0.1731118    0.1226987  25.81 0.0003930086    1.301    0.231
       291  -8.9612     15.4407     14.4728   7.5514345536e+01   7.1484860007e+01    0.1169678   0.08756611  -1.44 0.0002450061    1.027    0.027
       292  -8.8084      8.3296     13.6866   7.9274810991e+01   7.2343140878e+01   0.09684335   0.08643039  29.49 0.0007044034    1.674    0.403
       293 -12.0361    119.0274    244.4249   9.4621202996e+01   6.3815433061e+00    0.4985985    0.3594283  54.55   0.00276365    1.520    0.342
       294  -9.7185    156.5481    247.1748   8.6746849382e+01   4.5459465780e-01    0.2211757    0.1381294  25.35  0.001183322    1.432    0.302
