#   1 NUMBER                 Running object number                                     
#   2 MAG_AUTO               Kron-like elliptical aperture magnitude                    [mag]
#   3 X_IMAGE                Object position along x                                    [pixel]
#   4 Y_IMAGE                Object position along y                                    [pixel]
#   5 X_WORLD                Barycenter position along world x axis                     [deg]
#   6 Y_WORLD                Barycenter position along world y axis                     [deg]
#   7 A_WORLD                Profile RMS along major axis (world units)                 [deg]
#   8 B_WORLD                Profile RMS along minor axis (world units)                 [deg]
#   9 THETA_WORLD            Position angle (CCW/world-x)                               [deg]
#  10 FWHM_WORLD             FWHM assuming a gaussian core                              [deg]
#  11 ELONGATION             A_IMAGE/B_IMAGE                                           
#  12 ELLIPTICITY            1 - B_IMAGE/A_IMAGE                                       
         1  -9.2092     12.8408     21.3768   1.1424403535e+02   6.8761289055e+01    0.1451137   0.08519314   2.90 0.0009467959    1.705    0.413
         2 -12.3186    166.4394    248.3847   1.2194647099e+02  -9.4778946252e-01    0.4339345     0.270517  38.09  0.001377803    1.377    0.274
         3  -9.7615    107.7051    248.9449   1.3318145083e+02   8.8329817904e+00    0.1702074    0.1430949  73.45  0.000822322    1.103    0.093
         4 -11.6763    167.8248    242.6535   1.2084297942e+02  -2.6094557740e-01    0.2830425    0.1885194  40.39   0.00108154    1.276    0.216
         5 -10.9910    160.5885    235.1999   1.2114469293e+02   2.2631819375e+00    0.2422498    0.1779629  21.03 0.0009735891    1.602    0.376
         6 -10.4111    170.0868    232.7319   1.1888610879e+02   9.9822214331e-01    0.1970818    0.1559038  38.84 0.0007081026    1.105    0.095
         7  -9.3641    114.7539    229.0113   1.2941488165e+02   1.1426901842e+01    0.1619582    0.1095983 -64.09 0.0005836011    1.601    0.375
         8 -11.8504    164.0877    226.4722   1.1909513654e+02   3.1687642429e+00    0.5993965    0.3603406  33.70  0.002656261    1.645    0.392
         9 -10.6820     98.3965    227.0362   1.3242586439e+02   1.4522506338e+01    0.2710324     0.165847  26.24  0.001284056    2.483    0.597
        10  -9.9653    108.8241    222.2297   1.2972385249e+02   1.3777000220e+01    0.1698913    0.1608314  24.19  0.001073081    1.369    0.270
        11  -9.0463    157.6770    221.6988   1.1963452920e+02   5.2062370436e+00     0.133094    0.1050726  10.20 0.0007027672    1.631    0.387
        12  -9.3679    148.7680    220.9348   1.2134017958e+02   6.9812771486e+00    0.1690191    0.1151734 -51.14 0.0006932874    1.641    0.391
        13 -10.8213    126.0427    220.7948   1.2600018517e+02   1.1098136526e+01    0.2899902    0.1947343  58.28 0.0007976669    1.406    0.289
        14 -10.5278     99.6408    219.3321   1.3121852259e+02   1.5892657225e+01    0.2227862    0.1399907  72.24  0.001129017    1.715    0.417
        15  -9.3275    143.6250    216.2623   1.2167249536e+02   8.8242516688e+00    0.1824294    0.1297908 -42.75 0.0009479247    1.650    0.394
        16  -9.7249    131.1089    215.2372   1.2412952533e+02   1.1306821805e+01    0.2300112    0.1856756 -47.78  0.001298906    1.430    0.301
        17 -10.3622    112.4686    214.3318   1.2789971545e+02   1.4778969564e+01    0.2793263    0.2198005 -23.18  0.001477845    2.015    0.504
        18  -9.6138    202.6607    208.6945   1.0827740950e+02  -7.7925861943e-01    0.1413199    0.1014864   7.95 0.0007041072    1.678    0.404
        19  -9.1542    123.9912    206.0076   1.2422751948e+02   1.4492392928e+01    0.1612708    0.1422692  63.50 0.0009293132    1.014    0.014
        20  -9.4307    185.6974    213.5408   1.1254807989e+02   1.5013040956e+00    0.2421075    0.1257375 -44.46  0.001093669    2.104    0.525
        21  -9.9193    164.4061    200.3393   1.1459183040e+02   8.0317695409e+00    0.3974176      0.13088 -42.18  0.001307626    3.594    0.722
        22  -9.1067    126.7900    196.9566   1.2217107864e+02   1.5912956366e+01    0.1829787     0.113736 -55.80 0.0008573341    1.678    0.404
        23 -10.1474    172.9109    195.6598   1.1192360150e+02   7.2934788099e+00    0.2468993    0.2366645 -87.72 0.0006857966    1.126    0.112
        24  -9.4113    173.5370    191.5439   1.1100897757e+02   7.9838526980e+00    0.2024137    0.1398742 -59.28 1.584296e-05    1.698    0.411
        25  -9.8559    211.4337    182.8056   1.0148579410e+02   2.1788118004e+00    0.3413156    0.2520421   4.23  0.001689299    1.662    0.398
        26  -9.2839    173.8581    182.0767   1.0908544491e+02   9.8273920118e+00    0.3509696    0.1026332 -46.23  0.001078913    3.552    0.719
        27  -9.6064    204.9449    176.3967   1.0144633094e+02   4.6489537880e+00    0.2728971    0.1794848 -29.14  0.001268369    1.653    0.395
        28  -8.7620    218.5054    174.4608   9.8382247249e+01   2.3380358309e+00    0.1428638    0.1318932  -3.69 1.274512e-05    1.036    0.035
        29  -9.8384     77.6220    176.2515   1.3006978258e+02   2.8965991997e+01    0.3858137    0.1220965  52.19  0.001221213    4.086    0.755
        30  -9.3148     55.6270    170.3163   1.3434101382e+02   3.3421711482e+01    0.1434564   0.08794159  72.01 0.0002111024    1.793    0.442
        31  -9.7032     80.4983    164.8273   1.2759646277e+02   3.1235425077e+01     0.353256     0.179705  79.16  0.001103788    4.381    0.772
        32  -9.7085    250.3129    160.3213   8.9656313539e+01  -1.1287312901e+00    0.1388625    0.1012899  -2.92 0.0007038829    1.653    0.395
        33  -9.9170     82.7102    155.7102   1.2549584290e+02   3.3076176626e+01    0.3001439    0.1497805  58.03  0.001177983    2.574    0.612
        34 -10.3745     50.2531    155.7208   1.3357543035e+02   3.7539058391e+01     0.316048    0.1619195  62.99  0.001386262    2.522    0.603
        35 -11.1175     56.7589    146.2809   1.3048937804e+02   3.8988724496e+01    0.5206083    0.2766759  68.53  0.002142424    2.839    0.648
        36 -10.2139     39.5947    147.8115   1.3506833817e+02   4.0620747000e+01    0.3403461     0.183882  67.38  0.001582017    2.407    0.585
        37  -9.9606    107.8532    145.9620   1.1720645361e+02   3.1153785156e+01    0.5050837    0.2566032  69.48  0.001349195    5.377    0.814
        38  -9.3106     13.3217    146.6583   1.4131477842e+02   4.3348223857e+01    0.1257709   0.07652283  75.69 0.0005870551    1.724    0.420
        39  -9.9048     88.8180    144.5664   1.2185186946e+02   3.4780785412e+01    0.2824006    0.1818637  81.73  0.001200032    2.209    0.547
        40 -11.4735    247.4093    143.2542   8.6492961552e+01   2.3917575175e+00    0.2819516    0.1251409 -35.13  0.001141816    2.147    0.534
        41 -10.2856     69.8338    141.2194   1.2620498413e+02   3.8461770277e+01    0.2459791    0.1400722  75.41 0.0009573969    2.898    0.655
        42 -10.5412     23.4170    138.2969   1.3780471130e+02   4.4421206528e+01    0.3890193    0.1841864  70.30  0.001616182    3.372    0.703
        43 -10.1796     39.2127    136.1613   1.3342597164e+02   4.3405122782e+01    0.2416008    0.1462346  63.41  0.001046868    2.027    0.507
        44 -11.8539    248.9147    132.5531   8.3919645669e+01   3.9979009020e+00    0.5528694    0.1220912 -39.44  0.001627702    4.005    0.750
        45 -10.6874     83.8388    132.3141   1.2069665588e+02   3.8505302121e+01    0.4309351    0.2748145  68.71  0.001572388    2.179    0.541
        46 -10.4771    100.1265    129.0411   1.1555896844e+02   3.6551328690e+01    0.5081553    0.3125906  76.29  0.001896772    2.894    0.654
        47 -10.7750     73.4726    129.9925   1.2305737075e+02   4.0622572807e+01    0.2699523    0.1906897  59.60  0.001363966    1.646    0.392
        48  -9.9164     13.0710    129.8459   1.3931208245e+02   4.7204727313e+01    0.2703556    0.1459449  71.97  0.001367269    2.407    0.585
        49 -11.1889     60.1860    125.0995   1.2577413352e+02   4.3588478132e+01    0.6303106    0.3620529  76.69    0.0024889    3.180    0.686
        50 -11.1814     44.4262    123.5449   1.2989620306e+02   4.5809410240e+01    0.6856993    0.3812541  81.32  0.002832668    3.110    0.678
        51 -11.0982     28.5522    122.5635   1.3413109538e+02   4.7602269335e+01    0.6491519    0.3139511  78.22  0.002293422    4.670    0.786
        52 -10.1748     71.9246    120.7194   1.2155289843e+02   4.3029555261e+01    0.3617284    0.2153628  63.52  0.001546067    2.495    0.599
        53 -10.8028    248.8752    118.8339   8.0911798626e+01   6.4346799148e+00    0.3530849     0.195411 -15.85  0.001217325    3.802    0.737
        54 -10.2488      3.4726    118.1272   1.4027131408e+02   5.0503626462e+01    0.2957481    0.1427862  73.90  0.001346629    3.220    0.689
        55 -10.1510    110.0434    115.0929   1.0951988942e+02   3.7938304114e+01    0.4428079    0.2826748  86.79  0.001584466    3.138    0.681
        56 -11.0377     79.9252    113.6442   1.1766286925e+02   4.3483054088e+01    0.5385489    0.3568253  79.07  0.002319224    2.471    0.595
        57 -10.8340     94.2213    113.6528   1.1356631294e+02   4.1148246548e+01    0.6271499    0.2827896  50.51  0.002326804    2.749    0.636
        58 -11.3542     67.3000    111.4849   1.2085638264e+02   4.5812416164e+01    0.3978175    0.2591854  64.45  0.001729297    2.194    0.544
        59  -9.0906    142.7980    120.6080   1.0240338742e+02   2.9909737022e+01    0.2224253    0.1472029  59.11 0.0004531966    1.689    0.408
        60 -11.0843     14.2888    110.3256   1.3616173244e+02   5.1522190470e+01    0.4116692     0.245797 -88.20  0.001898004    1.905    0.475
        61 -11.7860     46.2127    103.0680   1.2533332170e+02   5.0305436155e+01    0.7283986    0.4187759  74.00   0.00285272    3.840    0.740
        62 -11.3833     23.3172    103.0674   1.3228472003e+02   5.2456859541e+01    0.6579285    0.3532042  73.68  0.002762177    3.747    0.733
        63 -10.3755      7.3922    103.7037   1.3709406201e+02   5.3447859059e+01    0.2406677    0.1487309  58.37  0.001382138    2.153    0.536
        64 -10.9482    110.9610    100.4433   1.0542375432e+02   4.0981943252e+01    0.7910074    0.4091133  63.77  0.002511828    3.898    0.743
        65 -10.3782     82.6853    100.8858   1.1371153092e+02   4.5918650904e+01    0.3745387    0.2579341  72.85  0.001682086    2.313    0.568
        66 -11.5629     64.9491     97.1444   1.1816685929e+02   4.9343336095e+01    0.5754008    0.3698748  66.08  0.002558256    2.595    0.615
        67 -10.3368     96.5612     97.9392   1.0883577112e+02   4.4216186775e+01     0.518899    0.2310953  45.76  0.002015698    2.450    0.592
        68 -10.7621      7.9869     93.1294   1.3515516134e+02   5.5705031158e+01    0.4826062    0.1532123  31.08  0.002256566    3.624    0.724
        69 -10.0343    125.8826     92.1412   9.9065565171e+01   3.9639949843e+01    0.4187411    0.2252344  59.94   0.00157528    2.452    0.592
        70 -11.2842     35.3600     90.4373   1.2595930646e+02   5.4176005358e+01    0.4192959     0.265349 -87.45  0.001925048    2.501    0.600
        71 -11.2731     88.0513     87.9248   1.0858454387e+02   4.7799928342e+01    0.5925127      0.35282  62.99  0.002362457    2.947    0.661
        72 -11.0855     50.2376     85.9712   1.2004424353e+02   5.3575483561e+01    0.6007521    0.3515075  62.53  0.002519627    3.529    0.717
        73 -10.6651    106.7139     84.9731   1.0223859693e+02   4.5000788218e+01    0.5633131    0.3520663  69.70  0.002194689    2.858    0.650
        74 -10.7187     25.7947     81.7378   1.2713148073e+02   5.6858018423e+01    0.4381712    0.2521248  52.58  0.002253126    2.742    0.635
        75 -10.4252     75.3366     81.6363   1.1073272476e+02   5.1123434353e+01    0.2823419    0.2290411  89.05  0.001454239    1.797    0.443
        76 -10.6127     11.2033     81.9676   1.3202649274e+02   5.7866801174e+01    0.3927854     0.106469  35.62  0.001620801    4.578    0.782
        77  -9.1456    120.9862     81.6692   9.7319310743e+01   4.2739521164e+01    0.2384089    0.1232413  67.24 0.0007046881    4.288    0.767
        78 -10.3786     62.2662     77.2336   1.1371040013e+02   5.3875668894e+01    0.3094711    0.2032104 -71.00  0.001469349    2.365    0.577
        79  -9.6130    128.9654     76.4710   9.3680113837e+01   4.1980659444e+01    0.3934445     0.242304 -86.36  0.001209687    4.519    0.779
        80 -10.8101     83.5828     73.8240   1.0580530365e+02   5.1344098996e+01    0.4761309    0.3357271  74.90  0.002107505    2.664    0.625
        81  -9.5390      9.6661     74.3224   1.3094632091e+02   5.9535930367e+01    0.1825759    0.1289955  61.54  0.001076811    2.132    0.531
        82  -9.5325    106.5586     72.6849   9.8570952626e+01   4.7373539850e+01    0.2388286    0.1788275  66.97  0.001106181    1.764    0.433
        83 -10.1274     96.1299     72.4069   1.0152555359e+02   4.9413732699e+01    0.3379957    0.2484881 -70.14  0.001625571    2.033    0.508
        84  -9.6144     43.8012     73.5749   1.1893933935e+02   5.6831068091e+01    0.2675346    0.1014605  38.65  0.001147156    3.176    0.685
        85 -10.5864     52.7222     71.1136   1.1516867877e+02   5.6298482459e+01    0.4457666    0.3242537  66.61  0.002354403    2.369    0.578
        86 -10.8463     18.0523     70.9940   1.2727979091e+02   5.9648468203e+01    0.3236498    0.1695487  36.31  0.001810583    2.437    0.590
        87 -10.3768     38.5938     65.3157   1.1846100419e+02   5.8989406910e+01    0.3269645    0.2218128  59.38  0.001734088    2.629    0.620
        88  -9.6276    110.6441     64.3345   9.4791970776e+01   4.8027048885e+01    0.2121041    0.1738246 -82.18 0.0009208673    1.702    0.413
        89  -9.7072    101.2395     61.6613   9.6593579846e+01   5.0351938568e+01    0.3131523    0.2078174 -82.39  0.001142331    3.961    0.748
        90 -10.6215     75.1771     60.6687   1.0433278656e+02   5.5109027530e+01    0.5640472    0.2669674  49.73  0.002365572    2.882    0.653
        91  -9.9360     26.3063     60.2293   1.2150097148e+02   6.1100951997e+01    0.3007683    0.1318745  42.80  0.001372735    3.617    0.723
        92 -10.8531      8.7711     58.4826   1.2757160097e+02   6.2710055956e+01    0.3895358    0.1942277  39.35  0.002151106    2.895    0.655
        93  -9.4532    120.5005     57.0177   8.9809340285e+01   4.7149481069e+01    0.2817535    0.1816709 -88.57  0.001034853    3.520    0.716
        94  -9.9859     44.6381     56.1050   1.1348458547e+02   6.0051884351e+01    0.3136058    0.2271945 -86.86  0.001547379    3.179    0.685
        95 -10.2258     63.9335     55.5763   1.0643193649e+02   5.7679942021e+01    0.3346786    0.2345235  55.09  0.001796655    2.136    0.532
        96 -10.1003     54.8052     55.1721   1.0950322883e+02   5.8988158471e+01    0.3272721    0.2178124 -67.19  0.001598819    2.746    0.636
        97  -9.7837    100.4439     53.9933   9.4286705707e+01   5.1758881088e+01    0.2061608    0.1846815  48.70 0.0004674862    1.217    0.178
        98 -10.3558     32.9746     52.7854   1.1679141540e+02   6.1867609995e+01    0.4427834    0.2046103  43.95  0.002044857    3.506    0.715
        99  -9.7266     21.8811     53.4455   1.2122806865e+02   6.2727145425e+01    0.3094787    0.1138195  35.73  0.001451175    3.477    0.712
       100 -10.2663     93.2321     51.5132   9.5566726207e+01   5.3520311713e+01    0.3400966     0.261751 -73.46  0.001740307    2.149    0.535
       101  -9.4256     82.1689     47.1759   9.7474198994e+01   5.6172474225e+01    0.1654835    0.1588596 -50.47  0.000588688    1.328    0.247
       102 -10.1825     18.0533     45.7122   1.2040726047e+02   6.4413298803e+01     0.281434    0.1509447  36.31  0.001631458    2.477    0.596
       103 -10.3302      5.7249     42.6916   1.2447290117e+02   6.5789432859e+01    0.3004565    0.2148049 -87.38  0.001832087    2.684    0.627
       104  -9.8856     70.5884     42.4484   9.9575962223e+01   5.8797948730e+01    0.3003458      0.21523  72.86  0.001429322    3.130    0.681
       105  -9.3162    106.4921     41.9978   8.8510208174e+01   5.2325661610e+01    0.1824124    0.1106676 -54.58 0.0007657447    2.472    0.595
       106  -9.6462     37.5020     41.4982   1.1131488862e+02   6.3337209207e+01    0.1876402    0.1031657  39.33  0.001031237    2.303    0.566
       107  -9.7830     58.7707     43.2023   1.0395796583e+02   6.0437365918e+01    0.1808851     0.142277 -84.12 0.0009514924    2.772    0.639
       108  -9.2880     26.4954     36.9856   1.1412476925e+02   6.5171685498e+01    0.1384464   0.09852864 -65.61 0.0008086974    2.410    0.585
       109  -9.6571     61.1764     33.3850   9.9462326245e+01   6.1546657325e+01    0.1613308    0.1103144  44.63 0.0009439571    1.734    0.423
       110  -9.7593     13.1804     31.2017   1.1767951280e+02   6.7220624813e+01    0.1383637    0.1182949 -40.43 0.0006410748    1.370    0.270
       111  -9.3681     63.9550     21.4610   9.3812730458e+01   6.2673105781e+01    0.1486601    0.1074407  65.15 0.0008091953    2.550    0.608
