#   1 NUMBER                 Running object number                                     
#   2 MAG_AUTO               Kron-like elliptical aperture magnitude                    [mag]
#   3 X_IMAGE                Object position along x                                    [pixel]
#   4 Y_IMAGE                Object position along y                                    [pixel]
#   5 X_WORLD                Barycenter position along world x axis                     [deg]
#   6 Y_WORLD                Barycenter position along world y axis                     [deg]
#   7 A_WORLD                Profile RMS along major axis (world units)                 [deg]
#   8 B_WORLD                Profile RMS along minor axis (world units)                 [deg]
#   9 THETA_WORLD            Position angle (CCW/world-x)                               [deg]
#  10 FWHM_WORLD             FWHM assuming a gaussian core                              [deg]
#  11 ELONGATION             A_IMAGE/B_IMAGE                                           
#  12 ELLIPTICITY            1 - B_IMAGE/A_IMAGE                                       
         1 -14.1459    240.3040     79.4998   6.8070708239e+01   1.4918020875e+01     1.961113     1.012701 -45.35  0.008294522    2.204    0.546
         2 -14.3335    241.5209     48.4349   5.9712573359e+01   1.8552217096e+01     2.390939    0.7873564 -27.75  0.008609388    2.675    0.626
         3 -14.3833    235.3105     26.5049   5.4438041628e+01   2.2579574369e+01      2.30541      0.95943 -17.51  0.008704606    2.634    0.620
         4 -12.7291    248.1045     37.6928   5.6094402341e+01   1.8256351813e+01     1.481169    0.4509981 -27.09  0.005286701    2.826    0.646
         5 -12.7857    249.2620     61.0256   6.2089720894e+01   1.5230787570e+01     1.755056    0.4834848 -23.93  0.005521698    3.651    0.726
         6 -13.8444    246.9920     16.3027   5.0535127477e+01   2.0824776759e+01     2.225144    0.9236556 -29.60  0.009455306    2.089    0.521
         7  -9.9150    166.3910     28.1243   6.4461231710e+01   4.0331252329e+01    0.2263909    0.1268926 -38.45  0.000879597    1.801    0.445
         8 -12.6846    222.6912     19.8043   5.3909507377e+01   2.6464704846e+01    0.7133502    0.3474644 -36.30  0.003050102    1.898    0.473
         9 -10.4539    155.8987     16.2872   6.2069220346e+01   4.4494705110e+01    0.3356368    0.1894374 -31.83  0.001455631    1.753    0.430
        10 -10.1457    140.5091     17.0048   6.5254200081e+01   4.8377158968e+01    0.2266967    0.1425546 -22.64  0.001032696    1.589    0.371
        11 -10.2294    126.0000     12.0183   6.6312042071e+01   5.2550523517e+01     0.234558   0.07981079 -23.93 0.0007986896    2.917    0.657
        12  -9.8699    155.0000      9.9153   5.9853602990e+01   4.5416802283e+01    0.2379287   0.08315928 -21.22 0.0007989228    2.918    0.657
        13 -11.2956    218.2407      5.4206   5.0200510356e+01   2.9050837559e+01    0.3681041     0.266009 -17.57   0.00190528    1.420    0.296
        14  -9.8276    175.5943      4.7709   5.4886637427e+01   4.0432903172e+01    0.2097013    0.1265465 -34.20 0.0008238906    1.663    0.399
        15  -9.7381     50.8581      3.8342   8.5801278184e+01   6.8480931532e+01    0.1855754    0.1382507 -11.26 0.0003701467    1.214    0.176
        16  -9.6425      1.9893      7.0413   1.1155648231e+02   7.2819688577e+01      0.13955   0.09386288 -50.71 0.0005660585    1.096    0.088
        17  -9.7858    159.1589      2.2004   5.6314892739e+01   4.5066598907e+01    0.2036625    0.1686098 -58.43  0.001069796    1.338    0.253
        18  -9.1254     14.6801      2.2616   1.0262763869e+02   7.2832223409e+01   0.09363941   0.08524009 -73.04 0.0001762147    1.549    0.355
        19  -9.7059    158.3349    231.6749   1.1139538992e+02   9.8380173284e+00    0.1085298   0.07091203  62.87 0.0007051264    1.715    0.417
        20 -10.4227    210.5070    248.4749   1.0523184298e+02   2.5161564428e-01    0.1918515     0.167403  25.42  0.001675927    1.291    0.226
        21 -11.0999    193.6251    249.4662   1.0789536453e+02   2.6184626747e+00     0.229958    0.1682825  51.65  0.001798507    1.395    0.283
        22 -10.0443    211.8965    228.1168   1.0239289461e+02   1.9730445156e+00    0.1607809    0.1266544  44.07 0.0008315988    1.284    0.221
        23 -10.8928    198.9664    227.2866   1.0431981385e+02   4.0586734048e+00    0.1930878    0.1605102 -65.74  0.001268408    1.951    0.487
        24 -10.6319    247.4249    226.8637   9.6794505623e+01  -3.2498336863e+00    0.2842014    0.1361887  47.05  0.001376284    2.048    0.512
        25 -11.0345    240.1704    222.0663   9.7175083903e+01  -1.7597696084e+00    0.3156168    0.1749387  51.38  0.001884409    2.153    0.536
        26 -10.0037    223.2326    227.2040   1.0050651033e+02   3.2778813674e-01    0.1382113    0.1121921  43.09 0.0007549652    1.353    0.261
        27 -10.4157    206.0400    226.0222   1.0302877292e+02   3.0905238830e+00    0.2044275    0.1618682 -44.07  0.001188892    1.805    0.446
        28  -9.8818    190.5943    226.7803   1.0559093397e+02   5.4188443375e+00    0.1232706     0.107097 -57.57 0.0009491779    1.671    0.402
        29 -11.2821    217.3314    223.5363   1.0090741723e+02   1.5889722383e+00    0.2742997    0.2394022  72.59  0.001400257    1.822    0.451
        30 -10.6932    228.8223    222.3955   9.8957944373e+01  -7.0205607090e-02    0.3355263    0.1335325  47.54  0.001743395    2.329    0.571
        31 -10.4545    207.0359    237.4186   1.0437643244e+02   1.7983550044e+00    0.2605968    0.1513319  57.00  0.001577532    2.274    0.560
        32 -11.3840    248.2663    218.2880   9.5386164388e+01  -2.6360871177e+00    0.2887912    0.2668635  17.55  0.001719358    1.486    0.327
        33 -10.6318    193.5508    219.5835   1.0415717731e+02   5.7522020965e+00    0.2270577    0.1613937  72.83  0.001376947    2.402    0.584
        34  -9.8943    211.0007    219.0524   1.0127160463e+02   3.0358680498e+00     0.159639     0.128114  60.58  0.001129025    1.673    0.402
        35  -9.6051    154.4799    219.5304   1.1062482875e+02   1.1962318283e+01    0.1136278   0.08684633  47.83  5.20817e-05    1.031    0.030
        36  -9.8935    212.5470    212.0191   1.0000120110e+02   3.5328213973e+00    0.1896928    0.1706474 -22.23 0.0009321615    1.418    0.295
        37 -11.8855    217.0886    212.6232   9.9361938150e+01   2.7390164952e+00    0.4152437    0.3438332 -78.07   0.00278754    2.292    0.564
        38  -9.4467    205.6620    218.3070   1.0202049304e+02   3.9616173795e+00    0.1049096   0.08048493  59.91 0.0007042005    1.679    0.404
        39  -9.6232    179.6680    217.3302   1.0613702900e+02   8.2381935199e+00     0.109996   0.07952797  64.46 0.0007051973    1.721    0.419
        40 -10.6755    233.0584    213.7656   9.7017315562e+01   9.9562675815e-02    0.2256947    0.2155674  33.78  0.001137553    1.501    0.334
        41 -11.2806    240.8356    208.9339   9.5063997543e+01  -6.4907761217e-01    0.3624429    0.2641112 -55.30  0.002218331    2.846    0.649
        42 -10.9631    235.1518    203.4887   9.5080558667e+01   7.8021340977e-01    0.2820694    0.2384269 -56.23  0.001307884    2.041    0.510
        43 -10.2870    231.6084    199.7889   9.5041555771e+01   1.7299175852e+00    0.2231747    0.1732291 -39.13  0.001059898    1.774    0.436
        44 -10.1495    177.3266    211.6586   1.0576910598e+02   9.3124916122e+00     0.111927   0.08190689  66.63 0.0007051281    1.736    0.424
        45  -9.8455    193.1512    210.2021   1.0291352634e+02   6.8968032888e+00    0.1502022    0.1251094  55.32 0.0006584066    1.352    0.260
        46 -10.8978    229.5049    207.5572   9.6614644311e+01   1.2734794229e+00     0.237496    0.1729073 -40.44  0.001153253    1.933    0.483
        47 -10.5312    247.3386    207.6841   9.3869143175e+01  -1.5389867418e+00    0.2112983    0.1880494 -48.32  0.001204856    1.907    0.476
        48 -10.7348    243.5402    201.8402   9.3506320245e+01  -3.9167836270e-01    0.2456997    0.2373377  30.27  0.001368692    1.541    0.351
        49 -10.0620    206.2053    208.2325   1.0046883009e+02   4.9798735743e+00    0.1521683    0.1251165  51.81  0.001073484    1.377    0.274
        50  -9.9296    210.3727    201.1918   9.8707364884e+01   5.0861326997e+00    0.1412612    0.1096701 -43.16  0.000942349    1.736    0.424
        51  -9.3061    202.3091    204.6737   1.0057781401e+02   6.0300521879e+00     0.107102   0.08706679  65.47 0.0007038669    1.656    0.396
        52  -9.4928    172.7147    204.3180   1.0554607037e+02   1.1013014444e+01    0.1101147   0.08392025  67.17 0.0004992771    1.589    0.370
        53 -10.4218    250.1438    201.4946   9.2436014581e+01  -1.3951659466e+00    0.1931458    0.1510601 -15.05  0.001078735    1.404    0.288
        54  -9.9491    223.5837    201.7872   9.6647343469e+01   2.8318549007e+00    0.1337061    0.1092319 -35.39 0.0008941063    1.610    0.379
        55  -9.6486    237.2513    199.3808   9.4083066840e+01   8.5666476051e-01    0.1562621    0.0940211  46.59 0.0006060625    1.620    0.383
        56  -9.8045    215.4989    198.0097   9.7358822448e+01   4.5884736530e+00    0.1562527    0.1144472 -28.19   0.00103053    1.600    0.375
        57 -10.0623    202.2826    197.8343   9.9530968791e+01   6.8417329375e+00    0.1606902    0.1524914 -86.35  0.001037797    1.479    0.324
        58  -9.5169    191.3772    198.1931   1.0143844456e+02   8.6539896942e+00    0.1435571    0.1133652 -51.73  0.000838799    1.711    0.416
        59  -9.6632    176.5072    198.4903   1.0405429512e+02   1.1146408279e+01    0.1205017   0.09749805  42.88 0.0001402363    1.040    0.039
        60 -11.5679    247.0107    194.0266   9.1665934753e+01  -1.7867881718e-01    0.3282536     0.284018  78.90  0.001582366    2.161    0.537
        61 -10.6918    243.9610    188.9329   9.1265041948e+01   8.2969057418e-01    0.2334246    0.2294677  48.45  0.001266148    1.561    0.359
        62 -10.3503    231.0844    194.2645   9.4213645242e+01   2.3972686383e+00    0.2209073    0.1623496 -25.52  0.001033938    1.550    0.355
        63  -9.6342    219.6115    194.8088   9.6164050735e+01   4.2570148749e+00    0.1430226    0.1102104 -39.56 0.0009401731    1.701    0.412
        64 -10.9337    224.4585    193.1492   9.5097631875e+01   3.6254756401e+00    0.2467653    0.2051362 -51.41  0.001220509    1.829    0.453
        65  -9.7012    215.2035    192.2020   9.6462424779e+01   5.3028380064e+00    0.1512246    0.1362966  50.89  0.001014786    1.371    0.271
        66 -10.9935    237.2603    187.9698   9.2155399479e+01   2.0399827781e+00    0.2458687    0.2048049 -21.66  0.001156681    1.403    0.287
        67 -10.5793    230.2884    187.7622   9.3238393348e+01   3.2355473915e+00     0.224895    0.2015706 -58.24  0.001108857    1.750    0.429
        68 -10.5454    210.4296    188.7784   9.6693094985e+01   6.5297032789e+00    0.2601754    0.1113249 -40.17  0.001253469    2.871    0.652
        69 -11.0459    210.9120    183.0919   9.5648232518e+01   7.1366870553e+00    0.2996414    0.2238183 -34.73  0.001289668    1.583    0.368
        70  -9.6428    220.3975    188.1994   9.4931134024e+01   4.8749565749e+00    0.1460364    0.1123777 -38.21 0.0007415354    1.652    0.395
        71  -9.4752    193.6290    188.3186   9.9497315314e+01   9.5245406316e+00    0.1192346   0.09196743  69.73 0.0007034402    1.794    0.443
        72 -10.0320    249.7344    185.2600   8.9722846061e+01   2.5847508218e-01    0.3502477    0.1575874 -33.50  0.001831941    2.519    0.603
        73 -11.0987    247.8084    178.5133   8.8810317964e+01   1.2751879148e+00     0.365118    0.2172245 -36.78  0.002100607    2.077    0.519
        74  -9.7893    215.4029    187.2659   9.5603421576e+01   5.8467180651e+00    0.1480736    0.1139185 -40.65   0.00094434    1.669    0.401
        75 -10.3552    224.0272    184.3273   9.3666353706e+01   4.6946808222e+00    0.2269173    0.1656427 -38.02 0.0009779728    1.716    0.417
        76  -9.9872    203.5983    183.8770   9.7034005331e+01   8.3337325005e+00    0.2120698     0.155606 -49.98   0.00128022    1.869    0.465
        77 -10.9763    183.6422    183.0354   1.0040140504e+02   1.2001638515e+01    0.2870661    0.2112618 -57.73   0.00118969    1.868    0.465
        78 -11.1585    182.4234    176.6853   9.9566722582e+01   1.3112827530e+01    0.2876775    0.2191497 -57.79  0.001379312    1.746    0.427
        79 -10.6709    235.5634    181.4949   9.1288555089e+01   3.0284914807e+00    0.2016786    0.2002132  38.39  0.001075379    1.474    0.322
        80  -9.5456    225.5475    179.5090   9.2566851925e+01   4.9881195875e+00      0.12394    0.1007129  24.22 0.0001667917    1.009    0.009
        81 -11.1143    241.5771    181.2055   9.0276932695e+01   2.0379180285e+00    0.3707551    0.2366367 -41.90  0.001913258    2.180    0.541
        82 -10.2374    150.5010    178.9870   1.0587450466e+02   1.8471527309e+01    0.1633655    0.1069231 -81.02 0.0008103203    2.547    0.607
        83  -9.7487    219.1560    178.1791   9.3394379765e+01   6.2740416571e+00    0.1522785    0.1493394  48.74  0.001071258    1.367    0.268
        84  -9.7808    205.3581    177.2095   9.5579187817e+01   8.8709324989e+00    0.1593487    0.1157436 -43.50 0.0009449762    1.722    0.419
        85  -9.6431    210.5042    176.0246   9.4480431362e+01   8.0917477236e+00    0.1722195    0.1219835 -31.03  0.001028608    1.591    0.371
        86  -9.8866    232.8117    175.0369   9.0566322734e+01   4.2315125269e+00     0.172381    0.1623669  21.76  0.001187434    1.298    0.229
        87 -10.2237    223.3594    173.5363   9.1850908042e+01   6.0842356689e+00    0.2160427    0.1485552 -33.09 0.0009717296    1.651    0.394
        88 -10.1993    234.1124    164.4902   8.8372607268e+01   5.2306284369e+00    0.2330718    0.1543698 -43.48  0.001062678    2.009    0.502
        89 -10.1048    241.4115    173.2110   8.8843722336e+01   2.9386408446e+00    0.1550155    0.1096622 -33.99 0.0009418619    1.675    0.403
        90 -11.0112    237.5275    169.8990   8.8847239045e+01   3.9905964695e+00    0.3411258    0.2187895 -39.99  0.001297217    1.976    0.494
        91 -10.3501    227.9339    171.4752   9.0709967854e+01   5.5118934810e+00    0.2112505    0.1699569 -40.81  0.001088009    1.607    0.378
        92 -10.9685    246.0539    169.3844   8.7390560851e+01   2.5577307946e+00      0.26501    0.2424139   5.38  0.001430742    1.262    0.208
        93 -10.7758    218.6945    168.5907   9.1722406760e+01   7.5384404368e+00    0.3083468     0.243569 -46.29  0.001327411    1.675    0.403
        94 -10.1289    205.4488    169.7894   9.4232372042e+01   9.8257394697e+00    0.2232819    0.1825354 -64.83  0.001106567    1.829    0.453
        95  -9.6193    212.2642    169.6379   9.3018470647e+01   8.5867029688e+00    0.1128714      0.10131 -80.13 0.0003577399    1.640    0.390
        96  -9.8771    229.0169    166.5191   8.9599256142e+01   5.9105364384e+00    0.1890253    0.1570311  -4.64 0.0007041247    1.181    0.153
        97 -10.0543    199.4660    165.3766   9.4479403132e+01   1.1542258594e+01    0.2384546    0.1272123 -36.14  0.001186628    2.097    0.523
        98  -9.5090    191.4957    166.0026   9.6034721381e+01   1.2957201160e+01    0.1674223    0.1128782 -64.76  0.000810427    2.545    0.607
        99 -10.1298    240.0500    164.3223   8.7378140817e+01   4.1839927031e+00    0.1947425    0.1763958 -46.38 0.0009614197    1.563    0.360
       100 -11.0141    212.8899    163.1568   9.1693477391e+01   9.3139371415e+00    0.3452232    0.1806471 -34.78  0.001688724    2.096    0.523
       101 -10.1478    247.0020    163.0068   8.6018046718e+01   3.1013203219e+00    0.2278646    0.1724383 -29.38  0.000995417    1.482    0.325
       102 -10.8335    245.8641    157.8270   8.5179921960e+01   3.8918474404e+00    0.3194935    0.2113725 -29.24     0.001256    1.589    0.371
       103 -10.5335    241.8647    153.6125   8.4971897658e+01   5.1097097304e+00    0.3200497    0.2387169 -45.51  0.001187343    1.826    0.452
       104 -11.1741    244.0729    149.2261   8.3726124621e+01   5.2245523906e+00    0.3789847    0.2484245 -36.52  0.001694405    1.734    0.423
       105 -10.7109    221.8682    161.7776   8.9887651618e+01   7.8116417148e+00    0.3247689    0.2887813  76.92   0.00203893    1.615    0.381
       106  -9.7101    222.3736    157.2171   8.8909451438e+01   8.2988670769e+00    0.1712172     0.117103 -38.48 0.0008383268    1.695    0.410
       107 -11.1862    205.4407    161.4344   9.2671606313e+01   1.0953254005e+01    0.4426361    0.2689842 -42.20  0.002158406    1.947    0.486
       108 -10.7566    205.4572    154.9039   9.1399540452e+01   1.1852842111e+01    0.2647631    0.2457782   3.70  0.001082597    1.118    0.105
       109 -10.2827    233.4576    154.3157   8.6477428674e+01   6.5812218085e+00    0.2630078    0.2165317 -44.24  0.001190784    1.587    0.370
       110  -9.7307    231.4828    159.9232   8.7917117401e+01   6.2599820915e+00    0.1811258    0.1200224 -26.15 0.0006594434    1.570    0.363
       111  -9.6691    250.6815    159.2201   8.4700593416e+01   2.8772356394e+00    0.1708453    0.1029687 -13.09 0.0009322369    1.682    0.405
       112 -10.3312    196.9804    157.7003   9.3475138252e+01   1.3099839488e+01    0.2237367    0.1711803 -49.81  0.001272608    1.633    0.388
       113  -9.5706    216.4436    156.9251   8.9867973314e+01   9.4626999207e+00    0.1646045    0.1105106 -56.27 0.0008060229    2.416    0.586
       114  -9.8195    187.5796    155.7168   9.4827738458e+01   1.5216332204e+01    0.2380642    0.1304021 -32.23  0.001136252    2.096    0.523
       115 -10.1437    250.6746    153.6311   8.3586204424e+01   3.5093501366e+00    0.3080232     0.110418 -25.92  0.001293113    2.868    0.651
       116 -10.7404    237.7049    158.9530   8.6708415114e+01   5.2361669337e+00    0.2700424    0.2328977 -34.23  0.001064654    1.434    0.302
       117  -9.8003    221.5441    152.7435   8.8156639354e+01   9.0366638247e+00    0.1691307    0.1219047 -39.32 0.0007391865    1.618    0.382
       118  -9.6563    228.1638    152.0894   8.6905434817e+01   7.8569845450e+00    0.1604711    0.1551608 -20.91 0.0006048714    1.297    0.229
       119 -10.4184    157.4863    153.4819   1.0024273585e+02   2.1385946030e+01    0.2277782    0.1257182 -57.73   0.00103154    2.399    0.583
       120 -10.1346    196.8327    150.3108   9.2047890974e+01   1.4202927066e+01    0.2206941    0.1821143 -40.74  0.001122101    1.381    0.276
       121 -11.5689    235.2366    147.4698   8.4787578627e+01   7.0948808801e+00    0.3987131    0.3230061 -37.31  0.001495421    1.467    0.318
       122 -10.8512    235.0111    123.4817   7.9605992416e+01   1.0224673476e+01    0.3946702    0.1999138 -35.16  0.001805483    1.994    0.498
       123 -10.6131    247.3294    144.0578   8.2139858975e+01   5.2360964823e+00    0.5492863    0.2457546 -45.47  0.002160296    3.681    0.728
       124 -10.9057    247.5994    112.6890   7.5147012186e+01   9.0559317963e+00    0.3630351    0.2200435 -37.34 0.0008800561    1.716    0.417
       125 -10.3224    241.9234     93.2974   7.1325631382e+01   1.2753900164e+01    0.3096108    0.1927435 -26.91 0.0009919483    1.500    0.333
       126 -11.3218    248.7784    135.7086   8.0138072180e+01   5.9661585697e+00    0.7235242    0.2167042 -40.35  0.002424214    4.448    0.775
       127 -11.2599    247.9470    129.9844   7.9018068821e+01   6.8238904392e+00    0.3967924    0.3235478 -34.49  0.001354019    1.382    0.276
       128 -11.0113    243.7393    140.2932   8.1910515111e+01   6.3657551878e+00    0.3972339    0.2235167 -28.05   0.00137034    1.753    0.429
       129 -10.8439    242.1090    134.1595   8.0847944439e+01   7.4380566289e+00    0.3634258    0.2222901 -30.67  0.001173081    1.635    0.388
       130 -12.8182    241.0638    122.4133   7.8396682346e+01   9.1363870528e+00      1.31937    0.4763667 -27.51  0.005130356    2.743    0.635
       131 -12.9672    241.0045    104.3489   7.4169964433e+01   1.1500558415e+01     1.105282    0.4427826 -33.00  0.004477962    2.333    0.571
       132 -11.3612    247.9741    118.9761   7.6542120694e+01   8.1872236084e+00    0.4702942    0.2573841 -33.90  0.001453678    1.808    0.447
       133 -10.2822    223.5277    146.7188   8.6584763836e+01   9.4446383818e+00     0.238689    0.2253449 -42.75  0.001249313    1.340    0.254
       134  -9.8423    207.7835    145.0296   8.8980487368e+01   1.2786975258e+01    0.1755086    0.1081379 -32.02 0.0008787263    1.719    0.418
       135  -9.5200    200.3148    145.6613   9.0462819882e+01   1.4191972537e+01    0.1290412     0.109005 -85.33 0.0005180118    1.699    0.411
       136  -9.4202    218.4982    144.5036   8.6985231511e+01   1.0728415033e+01    0.1342847    0.1184142  20.51  -9.7165e-05    1.024    0.023
       137  -9.6619    194.5769    143.8282   9.1143245739e+01   1.5620755909e+01    0.1832756    0.1275774 -48.04 0.0009431929    1.722    0.419
       138 -11.2121    162.6669    142.9381   9.7181454377e+01   2.2178411469e+01    0.4031904    0.2377151 -66.50  0.001660505    2.949    0.661
       139  -9.5684    182.3028    142.6386   9.3227551958e+01   1.8290672712e+01    0.1344145    0.1091473 -85.81  0.000515365    1.726    0.421
       140 -10.2854    233.7141    129.4147   8.1153881017e+01   9.7064413372e+00    0.2760453    0.1689998 -36.26    0.0013886    1.724    0.420
       141 -10.2346    238.6667    140.5849   8.2783610463e+01   7.2994954130e+00    0.2375795    0.1929905 -39.90 0.0007637426    1.490    0.329
       142 -11.4088    234.8592    135.7522   8.2361906777e+01   8.6541565843e+00    0.5005941    0.2691936 -39.88  0.001935117    2.112    0.527
       143 -10.6411    224.0813    140.2291   8.5123179336e+01   1.0198305355e+01    0.3028191    0.1934281 -24.56 0.0009730791    1.602    0.376
       144 -10.4118    166.4639    140.9574   9.6014645882e+01   2.1760665974e+01    0.1874561    0.1190859 -67.41 0.0008093206    2.541    0.606
       145 -10.6001    218.9278    138.1970   8.5570253007e+01   1.1505208900e+01    0.2807339    0.2199654 -31.91  0.001601022    1.357    0.263
       146 -10.2432    208.1740    137.7213   8.7362224061e+01   1.3756560814e+01    0.2333192    0.1852034 -40.63  0.001162168    1.422    0.297
       147  -9.7891    198.9773    136.9673   8.8875131580e+01   1.5757698701e+01    0.2063041    0.1738654 -80.17  0.001126195    1.667    0.400
       148  -9.5729    192.6332    137.2106   9.0112738832e+01   1.7030114346e+01     0.187692    0.1293954 -22.04 0.0009446428    1.632    0.387
       149  -9.7845    214.4086    142.7136   8.7321205644e+01   1.1787608458e+01    0.2395183    0.1240933 -37.30  0.001092415    2.069    0.517
       150 -10.7563    229.9881    141.1902   8.4334929419e+01   8.9067910290e+00    0.3084409    0.1869667 -32.62  0.001318722    1.708    0.415
       151 -10.4974    224.6177    133.8703   8.3654141399e+01   1.0947481543e+01    0.3446734    0.2158727  48.64  0.001751917    1.575    0.365
       152 -10.8661    220.9420    129.0810   8.3217527145e+01   1.2356479242e+01    0.3357734    0.1855882 -42.47  0.001537294    2.089    0.521
       153  -9.9069    186.1795    129.1759   8.9591816217e+01   1.9649520093e+01    0.1887942    0.1709668 -78.26 0.0008185373    1.352    0.261
       154 -10.4811    199.9996    126.4995   8.6368532814e+01   1.7134634838e+01    0.2659898    0.1936146 -50.55 0.0008942378    1.668    0.401
       155 -10.3432    227.3941    125.3638   8.1285962597e+01   1.1535745153e+01    0.2428355    0.2234802 -51.53 0.0008140485    1.358    0.263
       156 -11.9950    221.1833    122.3267   8.1639324129e+01   1.3250752079e+01    0.6566241    0.4221244 -69.87  0.002524711    3.635    0.725
       157 -10.7425    180.1723    124.4877   8.9715523612e+01   2.1695846262e+01    0.3760556    0.2407979 -41.46  0.001641504    1.654    0.395
       158  -9.7733    187.9969    123.4928   8.7953851821e+01   2.0179788137e+01    0.2474783    0.1494789 -44.04 0.0009571584    1.813    0.448
       159 -10.8373    212.9569    117.3882   8.1911974434e+01   1.5716306764e+01    0.3955423    0.1521175 -45.83  0.001329856    3.592    0.722
       160  -9.5699    203.2835    121.6533   8.4649514406e+01   1.7170201174e+01    0.1368228    0.1126517 -68.26 0.0005858392    1.646    0.392
       161 -10.6599    230.6950    115.1844   7.8384771098e+01   1.2232323991e+01    0.4235817    0.1542855 -40.90  0.001531282    3.119    0.679
       162 -10.5250    212.6678    122.4926   8.3156720136e+01   1.5032023182e+01    0.3243916    0.1267248 -29.66  0.001218131    2.721    0.632
       163 -10.5988    234.8262    112.0679   7.6981867007e+01   1.1781831070e+01    0.2690503    0.1876018  86.20  0.001197908    2.658    0.624
       164 -12.6761    248.4403     94.9272   7.0776892520e+01   1.1145039937e+01     1.991938    0.2028116 -30.58  0.004829725    6.385    0.843
       165  -9.9839    224.6471    248.9340   1.0318548847e+02  -1.8224612598e+00    0.1370092    0.1054793  26.19 0.0007354805    1.141    0.123
       166 -10.1313    219.0708    248.8983   1.0400646644e+02  -1.0216791972e+00    0.1554847    0.1133976  44.25  0.001224862    1.341    0.254
       167 -11.2545    176.4919    247.8842   1.1033342697e+02   5.2902129488e+00    0.2657764    0.2084286  74.03  0.002070921    1.784    0.440
       168  -9.6633    183.0000    108.9899   8.5473529291e+01   2.3662486185e+01    0.2382036   0.08313201 -36.07 0.0008017003    2.937    0.660
       169  -9.8510    133.5048    109.4937   9.6336775101e+01   3.4201498766e+01    0.1416245    0.1353429  83.00 0.0008102992    1.041    0.039
       170 -10.8505    249.3038    124.0480   7.7488739073e+01   7.2921402338e+00    0.2987939    0.2196501 -19.09 0.0009157662    1.272    0.214
       171 -10.0150    222.3952    104.7894   7.7247919163e+01   1.5470417943e+01     0.272494    0.1271827 -33.78  0.001124328    2.079    0.519
       172  -9.5111    205.5260    105.4905   8.0344043617e+01   1.9138696873e+01    0.1428625    0.1378252   6.51 0.0006432239    1.064    0.060
       173  -9.4819    213.3400    104.6834   7.8761877628e+01   1.7501527091e+01    0.1427841    0.1148209 -69.72 0.0007048534    1.706    0.414
       174 -10.1236    229.5842    228.7828   9.9754975826e+01  -7.7811013636e-01    0.1731948    0.1516328  55.37 0.0009055049    1.659    0.397
       175 -10.1476    166.8962    100.8625   8.6717672351e+01   2.8685809875e+01    0.2810465    0.2000888 -43.39  0.001351287    1.448    0.309
       176  -9.5219    218.5170    109.5056   7.9056988568e+01   1.5650017224e+01    0.1429112    0.1308824   9.64 0.0008104221    1.004    0.004
       177 -11.0022    215.5597     94.2913   7.5747864930e+01   1.8522090112e+01    0.4114742    0.1309084 -32.77 0.0008677032    2.964    0.663
       178 -10.5395    216.5131     99.5003   7.6916629017e+01   1.7546033111e+01    0.2504818    0.2166837  -5.67 0.0008953932    1.118    0.106
       179 -10.2802    213.5059     97.5069   7.6923075786e+01   1.8521683417e+01    0.2992865    0.2071584 -63.74  0.001333658    2.149    0.535
       180 -10.3662    210.6912     92.0073   7.5984874792e+01   1.9983670494e+01     0.450793    0.1902821 -46.57  0.001557574    3.048    0.672
       181  -9.7317    202.7609     98.0093   7.8944126448e+01   2.0915621004e+01     0.198802     0.121389 -30.77 0.0008870626    1.631    0.387
       182 -11.5531    226.0624     87.4938   7.2274056661e+01   1.7078459459e+01      0.46764    0.2783845 -24.16  0.001668752    1.644    0.392
       183 -12.3804    224.4478     82.4882   7.1218891896e+01   1.8147015581e+01    0.7078751    0.3963684  51.04  0.003160682    1.785    0.440
       184  -9.6802    195.2885     97.6421   8.0222058560e+01   2.2702854869e+01    0.1491561    0.1155516 -64.65 0.0006300872    1.683    0.406
       185 -10.6388    188.8980     93.1215   8.0241694329e+01   2.4919303381e+01    0.3846842    0.2307632 -39.69  0.001473405    1.693    0.409
       186  -9.9649    188.3463     87.2357   7.8758361515e+01   2.5999818880e+01      0.26735    0.1839869 -41.53 0.0008219221    1.495    0.331
       187 -10.2515    236.5026     90.0548   7.1321768198e+01   1.4373308450e+01    0.3710527    0.2422691 -28.54  0.001835554    1.442    0.306
       188 -10.6579    175.8406     88.3275   8.1519147624e+01   2.8790314634e+01     0.286759    0.2019249 -50.33  0.001091328    1.582    0.368
       189  -9.7393    124.6773     88.3476   9.3179691168e+01   4.0167046869e+01     0.150232    0.1142484 -83.51 0.0007049456    1.741    0.426
       190  -9.2987    197.6755     87.3136   7.7040707845e+01   2.3762854038e+01    0.1501412    0.1177589 -68.58 0.0007041562    1.662    0.398
       191  -9.6934    205.9727     85.0003   7.4939394006e+01   2.2139311304e+01    0.2319523    0.1762161 -57.79 0.0009697381    1.609    0.378
       192 -10.3636    158.9789     82.2425   8.3369082147e+01   3.3805427729e+01    0.3499422    0.2004681 -44.53  0.001470727    1.801    0.445
       193  -9.7005    214.6513     80.1738   7.2170529083e+01   2.0780459073e+01    0.2112773    0.1352907 -16.37 0.0009403063    1.674    0.403
       194  -9.8109    150.5822     79.7871   8.4538331075e+01   3.6187041854e+01    0.2191331    0.1377384 -47.92 0.0009512569    1.680    0.405
       195 -11.7213    235.1959     95.2056   7.2815337833e+01   1.3971043236e+01    0.3713972    0.2844566 -44.23  0.001423236    1.445    0.308
       196  -9.5242    206.5187     78.5032   7.3073714789e+01   2.2974708879e+01     0.255404    0.1427896 -30.02 0.0007425076    1.742    0.426
       197  -9.8402    206.1502     74.1742   7.1935150835e+01   2.3700348679e+01    0.3173006    0.1772432 -42.65  0.001018218    1.872    0.466
       198  -9.6600    174.5109     78.0482   7.8892157785e+01   3.0829651624e+01    0.2375443    0.1476684 -34.46  0.001032708    1.596    0.374
       199 -10.4731    130.3642     78.1904   8.8904354940e+01   4.0968906704e+01    0.2158561    0.1325657 -49.88  0.000947147    1.690    0.408
       200  -9.8805    200.8539     77.9921   7.3911613302e+01   2.4423913313e+01     0.255843    0.1549859 -50.79 0.0009167828    1.984    0.496
       201 -10.3955    157.5292     76.2258   8.1939567525e+01   3.5203995026e+01    0.2936571    0.1420167 -40.32  0.001132849    2.049    0.512
       202  -9.6847    232.9799    247.5049   1.0177717067e+02  -2.8870481453e+00    0.1560676   0.07423529  41.03 0.0009771702    1.540    0.350
       203 -12.2882    228.9981    105.1819   7.6260162978e+01   1.3967387412e+01     0.687548    0.3545515 -25.92  0.003016567    1.918    0.479
       204 -11.8772    231.1398     90.7291   7.2311990024e+01   1.5480352361e+01     0.408707    0.2957081 -38.31  0.001112604    1.409    0.290
       205 -10.8753    193.7029     68.0086   7.2328165779e+01   2.7687320897e+01    0.2879418    0.1993572 -40.24 0.0009329585    1.459    0.314
       206 -10.1558    163.3176     71.6104   7.9312161876e+01   3.4615303614e+01    0.3119653    0.1898099 -31.77  0.001340567    1.654    0.395
       207  -9.8390    222.2670     71.0205   6.8480269334e+01   2.0245624521e+01    0.2280186    0.1899998 -44.26  0.000691785    1.253    0.202
       208 -11.8472    223.4229     66.5519   6.7083734520e+01   2.0575082569e+01    0.5463573    0.2516724 -13.94     0.001906    2.937    0.660
       209  -9.4251    170.5052     70.5106   7.7486772990e+01   3.3049038454e+01    0.1510443    0.1480869   1.00 0.0008105343    1.015    0.014
       210 -10.6877    187.4197     68.7109   7.3670621762e+01   2.9147468356e+01    0.2945204    0.1370587 -35.88  0.001118723    2.078    0.519
       211  -9.2417    218.2910     68.5969   6.8424126690e+01   2.1536906480e+01    0.1581962    0.1067538 -55.37 0.0006992431    1.805    0.446
       212  -9.9828    203.2762     66.6766   7.0293747051e+01   2.5498394845e+01    0.2890928    0.1680707 -39.60  0.001179402    1.718    0.418
       213  -9.9331    163.8201     65.5036   7.7342865782e+01   3.5510904422e+01    0.2645903    0.1777373 -37.10  0.001193544    1.472    0.321
       214  -9.2289    197.2977     64.6168   7.0709632039e+01   2.7290589686e+01    0.1611652    0.1126457 -58.76  0.000701951    1.770    0.435
       215 -10.1920    111.5300     64.4889   8.9693130222e+01   4.7494131219e+01    0.1435948    0.1361874 -42.07  0.000809665    1.027    0.027
       216 -10.4199    157.9858     62.0071   7.7487099826e+01   3.7514629626e+01    0.3682472    0.2106851 -41.42  0.001315502    1.761    0.432
       217  -9.3229    182.3148     62.6280   7.2799800453e+01   3.1358706798e+01    0.1628364    0.1158639 -62.26 0.0007033763    1.786    0.440
       218 -10.3430    153.1549     59.7109   7.7805482226e+01   3.9069710707e+01     0.280151    0.1969591 -42.55  0.000980516    1.443    0.307
       219  -8.8663    206.3435     59.3120   6.7664874279e+01   2.5775223696e+01     0.160326    0.1104681  25.09 0.0004353903    1.704    0.413
       220  -8.9403    182.6407     58.3099   7.1420073826e+01   3.1928029614e+01    0.1598398    0.1180402 -67.92 0.0007041787    1.739    0.425
       221 -11.5628    224.4468     53.5236   6.3319672207e+01   2.2041862662e+01    0.2684371    0.2456346 -15.50 0.0006383031    1.047    0.045
       222 -13.0624    226.8144     51.6510   6.2472196244e+01   2.1699460459e+01    0.9381394    0.2461317 -36.50  0.002981566    3.280    0.695
       223 -10.3957    192.5523     55.2940   6.8744199274e+01   2.9839484351e+01    0.2945575    0.1377098 -33.25  0.001127402    2.039    0.510
       224 -10.6651    153.0212     52.7814   7.5564783672e+01   4.0228275414e+01     0.288148    0.1844545 -45.34  0.001107952    1.651    0.394
       225 -10.0705    207.9951     47.9874   6.4086853901e+01   2.6886509167e+01    0.2839487    0.2017532 -27.23   0.00078403    1.364    0.267
       226  -9.9188    207.4586     44.4710   6.3121505555e+01   2.7480446706e+01    0.2299719     0.126984 -37.07 0.0009664533    1.746    0.427
       227  -8.9696    238.3270    245.6565   1.0075312673e+02  -3.4920200928e+00   0.09023812    0.0730374  51.57 0.0004495256    1.742    0.426
       228 -11.1246    169.0505     43.9095   6.9350482422e+01   3.7519625960e+01    0.5108545    0.1826668 -32.09  0.001731941    2.635    0.621
       229  -9.8195    191.9624     40.9446   6.4408934515e+01   3.1956912043e+01    0.2481634    0.1737455 -57.43 0.0008072259    1.663    0.399
       230 -10.0716    173.3724     40.1990   6.7319782630e+01   3.6917564574e+01    0.2243842    0.1317842 -37.97 0.0009444731    1.695    0.410
       231  -9.4506    165.1990     40.1982   6.8836875435e+01   3.9037944067e+01    0.2494327   0.09735651 -37.84 0.0008604918    2.495    0.599
       232 -10.3460     93.2153     35.1227   8.4691780051e+01   5.6417403308e+01    0.2091063     0.173192  -8.85 0.0004056083    1.220    0.180
       233 -10.2836    222.2884     33.6494   5.7948614249e+01   2.5022824227e+01    0.1548734    0.1015358 -53.74 0.0007024722    1.665    0.400
       234  -9.4444    164.2794     33.6100   6.6751127638e+01   4.0175580242e+01     0.161327    0.1105631 -55.82 0.0005690494    1.739    0.425
       235  -9.5481    125.5091     30.4981   7.3895877989e+01   5.0262562208e+01    0.1460444      0.13834  -1.12 0.0008105736    1.016    0.015
       236 -10.2016    225.4466    244.0090   1.0243704712e+02  -1.5179314935e+00    0.1988476    0.1184442  48.39  0.001365393    1.665    0.400
       237 -11.3512    207.0098     22.8586   5.6655041276e+01   3.0190967151e+01    0.3488439    0.1415597 -47.94  0.001213196    2.856    0.650
       238 -10.5659    202.2959    242.8103   1.0578099186e+02   1.9845884598e+00    0.2023403    0.1650447  67.50  0.001415111    1.799    0.444
       239  -9.9081     83.7850     19.1912   8.0997017185e+01   6.0745659005e+01    0.1831981    0.1441505   1.05 0.0004274973    1.283    0.221
       240 -10.3030    242.0677    242.4535   9.9778805222e+01  -3.7627322054e+00    0.2044687    0.1627683  57.41  0.001565372    2.006    0.502
       241  -9.4931    248.8118    240.6519   9.8550994416e+01  -4.5677038394e+00    0.1403887   0.07465758  43.73 0.0006646202    1.651    0.394
       242 -11.1958    192.1744    237.2855   1.0666673863e+02   4.0544300270e+00    0.4534726    0.2709444  66.03  0.002466765    3.194    0.687
       243  -9.4539     91.9785     15.9338   7.6929293206e+01   5.9633370268e+01    0.1674041    0.1397789 -16.38 0.0004770328    1.092    0.084
       244  -9.4195    237.4524    236.4542   9.9640279390e+01  -2.6102661288e+00    0.1050653    0.0764318  30.78  0.000179314    1.093    0.085
       245 -10.9847    216.9234    234.8305   1.0251886417e+02   5.6141408893e-01    0.3041047    0.1954383  49.35  0.001696244    1.570    0.363
       246 -10.5310    230.6946    237.6023   1.0080501399e+02  -1.7263818591e+00    0.2242744    0.1586474  64.28  0.001439939    2.660    0.624
       247  -9.8952    240.7619    232.5579   9.8604516743e+01  -2.7609748344e+00    0.1358441    0.1344863 -41.28 0.0009905827    1.755    0.430
       248  -9.3088    245.5137    231.5479   9.7755952783e+01  -3.3649304637e+00     0.106592   0.07665581  27.94 0.0001927157    1.060    0.057
       249 -10.4857    235.4485    229.9514   9.9031536047e+01  -1.7563836838e+00    0.1969496    0.1690026  14.29  0.001086791    1.287    0.223
