#   1 NUMBER                 Running object number                                     
#   2 MAG_AUTO               Kron-like elliptical aperture magnitude                    [mag]
#   3 X_IMAGE                Object position along x                                    [pixel]
#   4 Y_IMAGE                Object position along y                                    [pixel]
#   5 X_WORLD                Barycenter position along world x axis                     [deg]
#   6 Y_WORLD                Barycenter position along world y axis                     [deg]
#   7 A_WORLD                Profile RMS along major axis (world units)                 [deg]
#   8 B_WORLD                Profile RMS along minor axis (world units)                 [deg]
#   9 THETA_WORLD            Position angle (CCW/world-x)                               [deg]
#  10 FWHM_WORLD             FWHM assuming a gaussian core                              [deg]
#  11 ELONGATION             A_IMAGE/B_IMAGE                                           
#  12 ELLIPTICITY            1 - B_IMAGE/A_IMAGE                                       
         1 -10.6075     33.0000     47.5623   9.8369186167e+01   6.3581922855e+01     1.632053     0.135868 -54.43  0.002297095   23.040    0.957
         2 -10.5353     33.0000     17.5095   8.6451386477e+01   6.8924334143e+01    0.7558525    0.1337446 -44.25  0.002297824    5.866    0.830
         3 -11.4178    209.8860     29.6811   4.5716323927e+01   2.8996891008e+01    0.8131484    0.6323079 -36.92  0.004511539    1.283    0.221
         4 -11.0895    217.3565     23.3487   4.3234975191e+01   2.7945255176e+01    0.5868493    0.4277517  15.52  0.001709867    2.047    0.511
         5 -11.5398    231.3408      8.8449   3.8372495942e+01   2.6287268163e+01    0.7167475    0.5408682 -61.99    0.0027957    1.155    0.134
         6  -9.2096     32.7910      5.2085   8.0405225572e+01   7.0708274215e+01    0.4157987    0.1040369 -37.36   0.00165211    3.645    0.726
         7  -8.7080     77.4519    243.4945   1.1843509943e+02   1.4935177404e+01    0.1151133   0.08865056  61.95 0.0002424747    1.023    0.023
         8 -10.1169    134.6873    248.3932   1.0850838923e+02   5.6883756176e+00    0.2952011    0.1399875 -49.13  0.001567241    2.667    0.625
         9 -10.6672    114.5352    248.7906   1.1223762881e+02   8.7075989990e+00    0.3041023    0.2264897 -62.56  0.002074903    1.628    0.386
        10 -11.6300    126.7753    246.3548   1.0973437173e+02   7.2324941740e+00    0.4974236    0.3761476 -41.22  0.003282584    1.792    0.442
        11 -10.6243     83.2746    245.5592   1.1757098668e+02   1.3776747583e+01    0.3596401    0.2046477 -70.58  0.002218957    1.948    0.487
        12  -9.9016     77.8423    249.2865   1.1884043522e+02   1.3885451079e+01    0.2879338   0.09922519  45.80  0.001445007    2.175    0.540
        13 -12.0656     30.7247    212.8988   1.2461132140e+02   2.6491260235e+01    0.7422692    0.4616264 -69.90  0.001299242    1.606    0.377
        14 -13.9035     40.5443    202.2566   1.2195813282e+02   2.7558417577e+01     2.253475     1.140928  66.65   0.01233202    1.840    0.457
        15 -11.1268     82.6093    223.1688   1.1563183909e+02   1.7921536359e+01     0.563397    0.2252922  53.73  0.002624813    2.300    0.565
        16  -9.4239    163.3644    239.3140   1.0202965390e+02   2.5095066674e+00    0.1921583    0.1372302  12.40  0.001127383    1.737    0.424
        17 -10.5643     72.9451    219.1248   1.1710969260e+02   2.0051761997e+01    0.4219944    0.2073432  79.70  0.001959709    2.705    0.630
        18 -15.0082      6.9535    238.5983   1.3006635517e+02   2.4086629716e+01     12.38628     1.908361 -78.83   0.04642222    5.910    0.831
        19 -10.5066     95.4023    225.2036   1.1336372364e+02   1.5673358595e+01    0.4102118    0.1394722  41.90   0.00180051    2.440    0.590
        20  -9.6389     63.3970    208.3098   1.1796237334e+02   2.3493134631e+01    0.2801994    0.1508258  77.39  0.001444156    2.014    0.503
        21 -10.1690     65.5416    242.5957   1.2047320752e+02   1.6681785436e+01    0.2352847    0.1732487  64.34 0.0007862223    1.020    0.020
        22 -10.0201     58.9763    183.7941   1.1639244250e+02   2.9290477638e+01    0.3716226    0.2283684 -57.19  0.001593177    1.730    0.422
        23  -8.5466    178.6682    241.6731   9.9503090349e+01  -2.9112513672e-01    0.1233941   0.08406612  13.43 0.0007051334    1.712    0.416
        24  -9.8363     64.9619    177.5965   1.1434974107e+02   2.9894639145e+01    0.2764772    0.2495929 -76.17 0.0007095936    1.198    0.165
        25  -9.5193     32.9480    168.8903   1.2061478375e+02   3.5661229960e+01    0.6510347    0.1145875 -72.68  0.001925879    5.474    0.817
        26  -9.6635     74.7201    166.9437   1.1069464292e+02   3.0987848733e+01    0.3388164    0.2052641 -69.05  0.000484312    1.560    0.359
        27 -11.3599     61.7251    163.8753   1.1337995027e+02   3.3470632046e+01    0.5028998    0.2889617 -46.32  0.001319945    2.138    0.532
        28 -10.6311     82.2074    160.3817   1.0791113213e+02   3.1422256272e+01    0.5364818    0.3993952 -47.23  0.001733779    1.506    0.336
        29 -10.0136     33.0000    155.9548   1.1928564283e+02   3.8631089843e+01    0.6096644    0.1401989 -73.45  0.001977765    4.305    0.768
        30  -9.4746     73.9641    155.9746   1.0927204768e+02   3.3666060779e+01    0.2340805    0.1516972  76.23  0.001136216    1.765    0.433
        31  -9.7154     21.7916    147.9335   1.2112668313e+02   4.1556413185e+01    0.2975543    0.1406473 -81.95  0.001487761    1.859    0.462
        32 -10.2959     32.8998    125.2633   1.1551408557e+02   4.5924494097e+01    0.7188036    0.1328337 -68.50  0.002120022    4.723    0.788
        33  -9.8649     33.0000    139.0128   1.1732051056e+02   4.2624819335e+01     0.758397    0.1249262 -70.87  0.001967038    6.331    0.842
        34 -11.0933     68.0064    144.0606   1.0892315793e+02   3.7343631458e+01    0.6268644    0.4031197  62.42   0.00290268    1.719    0.418
        35  -8.8253     96.3931    145.2151   1.0171475795e+02   3.2761054400e+01    0.2116795    0.1329056 -70.78 0.0009476069    1.726    0.421
        36 -10.1692     84.7268    144.0522   1.0454128428e+02   3.4915647041e+01    0.3116392    0.2379572 -51.60 0.0004110193    1.316    0.240
        37  -8.7614     95.6442    129.3643   9.8733951421e+01   3.6674450290e+01    0.2705157     0.241649 -32.97  0.001416806    1.243    0.195
        38  -8.9662    108.4082    132.3695   9.5933275490e+01   3.3707132373e+01    0.3696674    0.1344595  44.16  0.001257785    2.816    0.645
        39 -12.1056    116.2537    229.6687   1.0981748690e+02   1.1666938414e+01    0.6062519    0.4706384  69.40   0.00390462    1.259    0.206
        40 -10.6224     83.1942    232.0524   1.1637518907e+02   1.6181936330e+01    0.3637013    0.1561835 -71.44  0.001797687    2.684    0.627
        41 -10.3500     32.9216    104.6026   1.1225072719e+02   5.0874026702e+01     1.052199    0.1460378 -66.89   0.00228286    8.609    0.884
        42 -11.3397    126.6068    229.7520   1.0781910535e+02   1.0007808276e+01    0.4353958    0.3006685  68.82  0.002537708    1.616    0.381
        43  -9.9865     32.8946     78.5990   1.0702824599e+02   5.6947218309e+01    0.6628265   0.07798695 -61.07  0.001595104    7.027    0.858
        44  -8.0578     58.5350     77.9511   9.7748187069e+01   5.4315891392e+01    0.2121063   0.09194835 -37.22 0.0008094801    2.624    0.619
        45 -12.4368     10.3162    206.8962   1.2796892990e+02   2.9764814904e+01    0.9353868    0.7278076  24.40  0.004532158    1.912    0.477
        46 -10.1210    142.4877    245.0080   1.0666763260e+02   4.9879071284e+00    0.2687883    0.1360513  28.22  0.001285914    2.423    0.587
        47 -11.0218     99.3684    247.8103   1.1488721633e+02   1.1109451644e+01    0.3267921     0.280984   8.63  0.002278923    1.781    0.438
        48 -10.4669     94.4738    249.3467   1.1590689565e+02   1.1558892804e+01    0.2683304    0.1766735  47.33  0.001488525    1.217    0.178
        49 -10.3251    109.2400    229.6118   1.1116721570e+02   1.2769089670e+01     0.261569    0.1988594  40.10  0.001665049    1.259    0.206
        50 -10.9786    100.0645    229.1913   1.1288834723e+02   1.4242790909e+01    0.5548371    0.1568777  42.34  0.002262649    2.829    0.646
        51 -10.8256     58.2980    241.0766   1.2163029372e+02   1.7882528210e+01    0.7789924     0.192984 -76.34  0.002626969    6.570    0.848
        52 -10.3987     71.1563    243.7210   1.1957102506e+02   1.5743911340e+01    0.3384941    0.1797093  84.48  0.001922336    2.137    0.532
        53 -10.3131    202.6289     35.0452   4.8063047807e+01   3.0116889408e+01    0.3580796    0.2615459  42.55  0.001827649    1.581    0.368
        54 -10.9800    114.6706    241.5172   1.1144737917e+02   9.8794078136e+00    0.3032186    0.2149798  77.04  0.001909808    1.566    0.361
