#   1 NUMBER                 Running object number                                     
#   2 MAG_AUTO               Kron-like elliptical aperture magnitude                    [mag]
#   3 X_IMAGE                Object position along x                                    [pixel]
#   4 Y_IMAGE                Object position along y                                    [pixel]
#   5 X_WORLD                Barycenter position along world x axis                     [deg]
#   6 Y_WORLD                Barycenter position along world y axis                     [deg]
#   7 A_WORLD                Profile RMS along major axis (world units)                 [deg]
#   8 B_WORLD                Profile RMS along minor axis (world units)                 [deg]
#   9 THETA_WORLD            Position angle (CCW/world-x)                               [deg]
#  10 FWHM_WORLD             FWHM assuming a gaussian core                              [deg]
#  11 ELONGATION             A_IMAGE/B_IMAGE                                           
#  12 ELLIPTICITY            1 - B_IMAGE/A_IMAGE                                       
         1 -14.3423    148.2523     60.1797   2.9043679471e+02   6.2173137146e+00   0.06274981   0.03625051 -50.36  0.001102006    1.684    0.406
         2 -14.8112    159.2368     45.0543   2.9022119843e+02   6.3283346314e+00   0.06317636   0.04330403 -60.00   0.00384214    1.414    0.293
         3 -14.7244    171.6092     13.2783   2.8989013888e+02   6.6232871010e+00   0.05901913   0.04806495 -35.62  0.004267057    1.285    0.222
         4 -13.3462    188.9415     13.4182   2.8969340317e+02   6.5211347954e+00   0.03159842   0.01963588  58.58  0.002735996    1.988    0.497
         5 -11.3445     53.9977      7.3317   2.9119725999e+02   7.3719008036e+00    0.0107269   0.00541164  -2.65 0.0007051814    4.358    0.771
         6 -11.1513    150.9848    239.3405   2.9147236406e+02   4.1307067744e+00   0.01272964  0.009915901 -52.26 0.0009343966    1.251    0.200
         7 -19.8417     91.9038    226.7371   2.9207000418e+02   4.6172484266e+00    0.4498564    0.4027056  38.14   0.05275738    1.134    0.118
         8 -12.4996    230.4214    167.4614   2.9014126106e+02   4.5021077105e+00   0.02129127   0.01161298 -84.94  0.001765652    2.739    0.635
         9 -10.4273     23.9805    216.8776   2.9278522056e+02   5.1221769363e+00   0.00707088  0.006594871 -59.79 0.0002916152    1.048    0.046
        10 -11.9831    192.1062    158.0287   2.9052088843e+02   4.8329849368e+00   0.01678081   0.01215518 -27.85  0.001609905    1.591    0.371
        11 -12.8680    159.7347    151.1724   2.9084856831e+02   5.0995262475e+00   0.01786164   0.01184453 -58.42  0.001618904    1.453    0.312
        12 -12.2867    134.5974    109.0550   2.9088404854e+02   5.7316809543e+00   0.05090128  0.007259463 -63.73  0.002290774    8.126    0.877
        13 -14.5322    134.2256    146.9922   2.9111424543e+02   5.2953066516e+00   0.08054093   0.02820644 -73.70  0.004673523    5.318    0.812
        14 -15.2193    143.0992    144.5865   2.9099883079e+02   5.2718376578e+00   0.05484615   0.03610058 -74.32  0.004658802    1.656    0.396
        15 -12.8869     11.9657    205.8937   2.9285713338e+02   5.3182890810e+00   0.03463595   0.01678725  16.87  0.002919932    2.563    0.610
        16 -11.0316     31.2240    205.3767   2.9263462282e+02   5.2136244081e+00   0.01152537  0.008720146 -34.21 0.0008869996    1.426    0.299
        17 -10.9284     28.2606    237.4653   2.9285823208e+02   4.8593653517e+00  0.008307374  0.007355467 -60.37 0.0002790727    1.103    0.094
        18 -11.1603     17.6194    154.1790   2.9248636318e+02   5.8841596425e+00   0.01181281  0.009837104 -19.21  0.000304339    1.326    0.246
        19 -11.3820     18.5548    149.2671   2.9244656277e+02   5.9356057319e+00   0.01793047   0.01391141  60.44  0.002008881    1.433    0.302
        20 -13.3114    163.7621    156.2761   2.9083309944e+02   5.0172396651e+00   0.02013984   0.01706471 -88.19  0.001087253    1.268    0.211
        21 -14.4366    135.5284    129.2296   2.9099363903e+02   5.4931193670e+00   0.08193589   0.02059867 -66.00  0.004823353    4.852    0.794
        22 -13.0281    139.9010    200.1799   2.9136592877e+02   4.6475267356e+00   0.02546524   0.01566592  29.45 0.0009098605    1.634    0.388
        23 -12.8401    173.7867    148.6816   2.9067372680e+02   5.0470319815e+00   0.01828633   0.01625709  56.74  0.001502613    1.175    0.149
        24 -12.2322     27.5674    145.4709   2.9232123207e+02   5.9277154213e+00   0.01958619    0.0174321 -16.33  0.000934195    1.200    0.167
        25 -10.8040     26.2798    138.9162   2.9229702338e+02   6.0109361456e+00   0.01182313   0.01034655 -18.63 0.0005720708    1.228    0.186
        26 -12.0761     21.7140    235.4270   2.9292073541e+02   4.9205629813e+00   0.01197695  0.008098302 -60.30  0.001265811    1.432    0.302
        27 -10.2612     13.3741    236.2681   2.9302068642e+02   4.9587288721e+00  0.006222226  0.005676961  -5.44 0.0002368913    1.161    0.139
        28 -12.9081    160.6243    128.2407   2.9070182171e+02   5.3594304951e+00   0.01942895   0.01600616 -85.52  0.001650347    1.311    0.237
        29 -13.2106     39.3694    123.5898   2.9205666361e+02   6.1129107499e+00   0.02027144   0.01587694  -0.03  0.001359444    1.463    0.316
        30 -11.7304    141.2017    121.1544   2.9088088120e+02   5.5536616497e+00   0.01789424  0.008328618  53.23  0.001402632    2.945    0.660
        31 -11.0299    167.6776    112.6708   2.9052865248e+02   5.4985352269e+00   0.01387742  0.008744596  63.11  0.001321474    2.049    0.512
        32 -13.2936    144.9926    189.3160   2.9124339159e+02   4.7437422992e+00   0.02778229   0.01762063  20.05  0.001632472    1.706    0.414
        33 -10.8063    205.5088    110.1936   2.9008308659e+02   5.3080222232e+00   0.01175051  0.009279296  24.94 0.0006236103    1.300    0.231
        34 -19.1821     75.4167     95.6158   2.9147895234e+02   6.2287085740e+00    0.8962381   0.03849077 -62.78   0.02595714   19.647    0.949
        35 -12.1053     26.2676    106.2283   2.9210303263e+02   6.3890298490e+00   0.02041114   0.01293977   6.04  0.001396323    2.002    0.501
        36 -12.2621     40.6872     94.0511   2.9186602631e+02   6.4468620256e+00   0.02661453   0.01994226 -15.82  0.002152014    1.591    0.372
        37 -12.1009     48.9019     92.2379   2.9176146466e+02   6.4205334278e+00   0.01952253   0.01265762   4.70   0.00192037    1.952    0.488
        38 -12.3782    161.0240    237.8212   2.9134914482e+02   4.0903071675e+00   0.01565105   0.01132628  75.41  0.001478149    1.696    0.410
        39 -11.6618      5.9762     89.1495   2.9223322316e+02   6.7030970556e+00   0.02944217   0.01417558   4.15  0.002034067    4.116    0.757
        40  -9.9797    104.1898     82.1239   2.9107027944e+02   6.2185953509e+00  0.008735967  0.007361216  56.30 0.0005000787    1.259    0.206
        41 -10.7408    142.9520     80.9817   2.9062139457e+02   6.0077331552e+00  0.009967409  0.009700985 -68.18 0.0004445899    1.015    0.015
        42 -10.7691      4.8155    233.5331   2.9310200156e+02   5.0395106722e+00  0.006807033  0.006235853  57.07 0.0002829271    1.130    0.115
        43 -11.3872    218.4702    220.4110   2.9059244738e+02   3.9594963500e+00   0.01830181  0.006902975 -68.53  0.001343147    3.118    0.679
        44 -13.1647    162.9351     36.3667   2.9012711034e+02   6.4071806251e+00   0.01940706   0.01855356 -73.65 0.0007862387    1.041    0.040
        45 -11.0611     13.3946     59.8658   2.9197434505e+02   6.9989197372e+00   0.01069079   0.00881841  44.49 0.0004504327    1.244    0.196
        46 -11.7479    149.6192     35.8877   2.9027609057e+02   6.4898420387e+00   0.02734475   0.01006182  42.60   0.00210627    2.883    0.653
        47 -12.0601    165.1874    171.7169   2.9090879510e+02   4.8305052460e+00   0.01313774   0.00948246  55.36  0.001407885    1.540    0.351
        48 -11.7605     12.8749    240.6329   2.9305216227e+02   4.9110897709e+00   0.01317036  0.008006634 -44.03  0.001304084    1.700    0.412
