#   1 NUMBER                 Running object number                                     
#   2 MAG_AUTO               Kron-like elliptical aperture magnitude                    [mag]
#   3 X_IMAGE                Object position along x                                    [pixel]
#   4 Y_IMAGE                Object position along y                                    [pixel]
#   5 X_WORLD                Barycenter position along world x axis                     [deg]
#   6 Y_WORLD                Barycenter position along world y axis                     [deg]
#   7 A_WORLD                Profile RMS along major axis (world units)                 [deg]
#   8 B_WORLD                Profile RMS along minor axis (world units)                 [deg]
#   9 THETA_WORLD            Position angle (CCW/world-x)                               [deg]
#  10 FWHM_WORLD             FWHM assuming a gaussian core                              [deg]
#  11 ELONGATION             A_IMAGE/B_IMAGE                                           
#  12 ELLIPTICITY            1 - B_IMAGE/A_IMAGE                                       
         1 -10.9970     20.8226     29.0432   1.1328812185e+02   6.6947337825e+01    0.9291019    0.4511583 -10.29  0.004721039    2.655    0.623
         2 -11.3723     39.9668      3.2264   9.4285146752e+01   6.8161673083e+01    0.8195519    0.4472005   1.34  0.004237045    1.948    0.487
         3 -11.5657      9.0348      3.4349   1.0840630376e+02   7.1520963547e+01    0.7373136    0.2443642  26.29  0.003978266    2.959    0.662
         4 -11.1295      6.2999     17.6122   1.1562313646e+02   6.9803597317e+01    0.8667457    0.3997424 -25.27  0.005176571    1.902    0.474
         5 -10.3791     10.5000     10.2402   1.1064518343e+02   7.0518796104e+01    0.3241336    0.2116088 -13.02 0.0007224631    1.170    0.145
         6 -10.7089     16.8578      9.9958   1.0751159329e+02   6.9997352889e+01    0.3027545    0.1901923 -10.28 0.0003662806    1.294    0.227
         7 -11.1013     19.7744     15.1335   1.0832865342e+02   6.9048734073e+01    0.5967939    0.3202711  -4.88  0.003552113    1.962    0.490
         8 -10.9102     26.5800     15.2886   1.0532150971e+02   6.8353781296e+01    0.5278363    0.3644353 -29.22  0.002029303    1.347    0.257
         9 -11.6820     25.5855      5.5849   1.0153425145e+02   6.9656401349e+01    0.6978329    0.5768527  42.40  0.003462882    2.079    0.519
        10 -10.0711     75.0751     18.1592   8.7925795125e+01   6.1159314204e+01    0.3715046    0.1621923 -17.84  0.001670066    2.810    0.644
        11 -12.0935     68.8699     11.7537   8.7368536914e+01   6.2901600777e+01    0.3726076    0.2426434  34.93 0.0002725659    1.298    0.230
        12  -8.5764    161.7696     10.0603   6.5806550645e+01   4.3011461175e+01    0.3243301    0.1228829  46.66  0.001307335    2.710    0.631
        13  -8.8585     48.7731     10.0511   9.3825809827e+01   6.6227928290e+01    0.1902178    0.1382859  20.54 0.0004830381    1.144    0.126
        14 -11.2917     81.1098      6.1372   8.1320149572e+01   6.1235087356e+01    0.6163257    0.3465942  47.86  0.001280405    1.527    0.345
        15  -8.7499    144.5885      4.4153   6.6855993242e+01   4.7638017771e+01      0.28236    0.1805329  30.88  0.001527397    1.813    0.448
        16  -8.4281    249.2628      1.9895   5.4826905768e+01   2.3426656509e+01    0.1985013   0.09916295  46.52 0.0009067196    3.594    0.722
        17  -8.7613    112.3597      2.3147   7.2154469050e+01   5.5171919018e+01    0.1382834   0.07420625  36.78 0.0007043001    1.752    0.429
        18  -9.5028    158.2646      1.4302   6.3944348586e+01   4.4626243826e+01    0.3682338    0.1064285  67.86  0.001135459    2.867    0.651
        19  -8.7111     56.1901      1.5754   8.7383468730e+01   6.5950342736e+01     0.204601   0.09920855  47.18  0.001126199    2.030    0.507
        20  -8.0539     50.4896      1.4878   8.9408460093e+01   6.6836650096e+01    0.1157097   0.08646219  14.29 0.0008104455    1.013    0.012
        21 -10.8615    234.0475    243.5395   1.0690327482e+02  -1.1731218311e+01    0.2747205    0.2140744   5.58 0.0003637273    1.104    0.094
        22  -8.8996    249.9803    250.5327   1.0519862662e+02  -1.4935517327e+01    0.1651106   0.09685698  30.63 0.0003714867    1.470    0.320
        23  -9.3585    202.6113    250.0431   1.1392461405e+02  -7.6813609106e+00    0.3476131    0.1880611  29.74 0.0009141064    1.675    0.403
        24  -9.0659    198.0010    250.6089   1.1490258415e+02  -7.0070444286e+00    0.1874209    0.1028774  38.29 0.0003443129    1.519    0.342
        25  -8.5836    190.3253    249.8302   1.1626870968e+02  -5.6173547176e+00    0.3220186    0.1416557  28.49  0.001074304    2.617    0.618
        26  -8.4827    183.1101    250.6422   1.1780074862e+02  -4.5247514867e+00    0.1843386     0.102227  38.97 0.0003452985    1.490    0.329
        27  -8.7283    166.3303    250.1059   1.2101539857e+02  -1.5744600557e+00    0.2185481    0.1564799  59.10  0.001242921    1.552    0.356
        28  -8.3213    150.1264    249.8787   1.2418122485e+02   1.2586967741e+00    0.4529959    0.1515362  44.13   0.00148261    2.452    0.592
        29  -8.8063    147.7376    245.2687   1.2401754631e+02   2.4556139547e+00    0.2916934    0.1849753 -60.81  0.001561054    1.988    0.497
        30 -10.2847    157.2283    246.0842   1.2223865136e+02   6.6172054032e-01    0.4104535    0.2977564  -5.23 0.0003581248    2.121    0.528
        31  -9.3918    151.8889    244.6086   1.2309440526e+02   1.8440272487e+00    0.2705176    0.2134709 -65.68 0.0004062604    1.563    0.360
        32  -8.3959    136.2493    250.4262   1.2698752104e+02   3.5486134989e+00    0.2452685    0.1083119  38.71 0.0009707127    1.995    0.499
        33 -10.2155    124.9703    248.6577   1.2897652521e+02   5.7730980213e+00    0.2577658    0.2208537 -83.42 0.0004791509    1.299    0.230
        34  -9.6790     71.7020    250.0735   1.3925251841e+02   1.3907904136e+01    0.3130765    0.1718113  59.67 0.0005743077    1.533    0.348
        35 -10.3295     61.8099    248.9498   1.4094368071e+02   1.5517295918e+01    0.2239893    0.2001757  74.21  0.000427292    1.305    0.234
        36 -10.5472     47.4037    250.3072   1.4359386715e+02   1.7187347045e+01    0.3526328    0.1371002  40.37  0.001794213    2.389    0.581
        37 -10.1391     16.3952    249.1391   1.4870440539e+02   2.1118894545e+01     0.233192    0.1916981  44.35 0.0006154556    1.616    0.381
        38  -9.8846      8.8964    248.5650   1.4986975979e+02   2.2033903491e+01    0.2081278    0.1616259  71.77 0.0005916999    1.213    0.176
        39  -8.0240      1.7039    250.6701   1.5109948183e+02   2.2387478297e+01    0.1390872    0.0699428  52.51   0.00063526    1.593    0.372
        40  -8.6314    236.5673    239.2549   1.0569883708e+02  -1.1533512908e+01    0.1915105    0.1113742 -31.89 0.0005712878    1.778    0.438
        41  -9.3310    163.4444    244.6092   1.2078283472e+02  -1.7823912707e-01    0.2295835    0.1968311  50.52 0.0005260484    1.128    0.114
        42  -8.5378    133.7893    245.1590   1.2678558619e+02   4.8930096685e+00    0.1871995    0.1517936  60.67  0.000345907    1.141    0.123
        43  -9.6165    113.9073    244.2297   1.3060875634e+02   8.4319648954e+00     0.195859    0.1790481 -81.88 0.0002881033    1.243    0.196
        44  -9.7681     81.2082    244.4862   1.3695760589e+02   1.3573508654e+01    0.2099596    0.1836147  71.47 0.0003914574    1.175    0.149
        45  -7.8232     66.7144    245.6911   1.3976975524e+02   1.5455053737e+01   0.09900591     0.095278 -55.63 0.0003666847    1.571    0.363
        46  -8.5829     47.9226    244.2043   1.4303440414e+02   1.8289132757e+01    0.1976759    0.1367315 -52.61  0.001018273    2.084    0.520
        47  -9.8371     41.1749    244.4666   1.4424080426e+02   1.9097668412e+01    0.2129871    0.1702667  62.50 0.0005662733    1.212    0.175
        48  -8.7018    219.8446    243.9455   1.0963221796e+02  -9.5910040062e+00    0.2197601    0.1512548  54.83  0.001205635    2.059    0.514
        49  -9.1695     19.6861    243.9462   1.4785921388e+02   2.1738200328e+01    0.1643046     0.130281  59.72 0.0006066217    1.309    0.236
        50  -8.4879    177.0228    243.0385   1.1783443844e+02  -2.2921733744e+00    0.2034784    0.1671047  31.75 0.0005675827    1.050    0.047
        51  -9.9417    170.3907    240.0760   1.1870450168e+02  -6.4560687424e-01    0.2937837    0.2564032  39.95  0.001602138    1.051    0.049
        52 -10.2754    104.2457    241.2282   1.3215619604e+02   1.0587373142e+01    0.2633119    0.2208811  67.82 0.0005597034    1.058    0.055
        53  -9.6153    214.9055    238.9837   1.0973578423e+02  -8.0891685384e+00    0.2224245    0.1899831 -31.32  0.000381914    1.355    0.262
        54 -10.3133    221.9382    225.7404   1.0606459408e+02  -7.2728795406e+00    0.7510657    0.3689678  19.05  0.002980965    3.091    0.676
        55 -10.6919    201.3987    238.8670   1.1233813255e+02  -5.8290017845e+00    0.6200157    0.4720504 -69.15 0.0008719407    2.213    0.548
        56 -11.5089    207.4558    232.4450   1.1006089913e+02  -5.8702800268e+00    0.9359733    0.4935718  29.17  0.002668352    1.850    0.459
        57 -10.1573    233.3457    203.0963   9.9646078777e+01  -5.6366610002e+00    0.5811961    0.3543358  25.54  0.002935453    1.696    0.411
        58 -10.3610    239.3065    217.6761   1.0130498620e+02  -8.8810797295e+00     0.327846    0.2185475  31.65 0.0003738138    1.398    0.284
        59 -11.4261    227.4083    215.7626   1.0318654263e+02  -6.6463480393e+00     0.820098    0.6350898  25.79  0.004393275    1.169    0.145
        60 -10.5168    233.5679    210.4432   1.0101583241e+02  -6.8419729640e+00    0.4161118    0.3404552  -2.51  0.001207764    1.110    0.099
        61  -8.1292    155.3681    241.2009   1.2190347568e+02   1.8175956690e+00    0.1556768    0.1265433 -70.64 0.0003620444    1.534    0.348
        62  -9.6223    126.5005    240.5410   1.2763711129e+02   6.9839377680e+00    0.2324061    0.2037279  57.72 0.0005006265    1.061    0.058
        63  -9.8916     69.0913    240.1537   1.3881968923e+02   1.6194135586e+01    0.2131403    0.1796056  51.94 0.0003874465    1.284    0.221
        64 -10.2482     25.3008    239.4861   1.4663107847e+02   2.1966423520e+01    0.2114158    0.1787917 -80.80 0.0006136415    1.413    0.292
        65  -9.0986    118.4249    239.3778   1.2910975205e+02   8.5795406992e+00    0.2060355    0.1813862  62.88 0.0002616609    1.075    0.070
        66  -9.3910     61.9482    239.7705   1.4011767485e+02   1.7276151508e+01    0.1936654    0.1621365  82.40 0.0003935674    1.162    0.140
        67  -9.2723     35.4617    240.0493   1.4491476010e+02   2.0660715997e+01    0.1953179    0.1425202  56.10 0.0004656148    1.250    0.200
        68 -10.6790     35.4120    232.3419   1.4435174947e+02   2.2196451445e+01    0.5006711    0.2232067 -61.90  0.002685368    2.340    0.573
        69  -9.4518    135.8618    239.3294   1.2558487265e+02   5.5826243710e+00    0.3766802    0.2193211  58.14  0.001861101    1.782    0.439
        70 -10.3384     10.5013    239.0660   1.4908451424e+02   2.3667741245e+01    0.2233541    0.1767096  77.26 0.0004758004    1.201    0.168
        71 -10.0945    247.8179    238.6423   1.0353828874e+02  -1.3115750540e+01     0.265996    0.1773498  28.68 0.0008531029    1.328    0.247
        72  -9.1632    243.4331    234.5924   1.0361977661e+02  -1.1929886311e+01    0.2877463    0.2423469  81.59  0.000711803    2.463    0.594
        73  -8.9844    240.7246    239.0475   1.0489823116e+02  -1.2128972650e+01    0.1892185    0.1452616  19.57 0.0004300232    1.097    0.089
        74  -9.5358    220.5042    238.0638   1.0850712235e+02  -8.8617691327e+00    0.2264074    0.1703116  31.65 0.0004334724    1.181    0.154
        75  -9.6212    149.3503    238.0683   1.2266594449e+02   3.4311990557e+00    0.3114862    0.2296869 -52.66  0.001036367    1.596    0.373
        76  -8.9569    112.3184    237.4674   1.3009623762e+02   9.9715959181e+00    0.2846879     0.164227 -55.10 0.0009722582    1.991    0.498
        77  -8.0278     48.4282    238.5283   1.4249011402e+02   1.9335219784e+01    0.1189874    0.0909216  74.22 8.552785e-05    1.024    0.023
        78  -9.6787     41.7498    236.7365   1.4355160257e+02   2.0540844075e+01    0.2459453    0.1684228  89.44  0.001288009    1.233    0.189
        79  -8.5547    183.8131    237.1719   1.1554717560e+02  -2.5312903301e+00    0.1886734    0.1632203  47.00 0.0005293333    1.189    0.159
        80 -10.0223     91.4587    236.3826   1.3412355346e+02   1.3575576974e+01    0.2276651    0.2122481  80.85 0.0004216514    1.243    0.195
        81 -11.0880     93.3468    228.5459   1.3284532388e+02   1.4844624494e+01    0.4052058     0.389772 -79.20   0.00165185    1.305    0.234
        82  -8.2137    225.1961    236.3133   1.0731338885e+02  -9.3603096734e+00    0.1697844    0.1379711  -9.51 0.0004641845    1.186    0.157
        83  -8.5897    129.9312    235.5053   1.2626766145e+02   7.3259169614e+00    0.1824252     0.178501 -59.56  0.001191616    1.241    0.194
        84  -9.4191      3.4997    235.5525   1.5003381726e+02   2.5061240251e+01    0.1851885    0.1500823 -87.08 0.0007483793    1.340    0.254
        85  -8.2076    238.7308    234.6060   1.0448464542e+02  -1.1224373947e+01     0.180095    0.1543675 -50.76 0.0009837494    1.733    0.423
        86 -10.2193    171.8015    233.6186   1.1740455388e+02   1.9205928256e-01    0.3677702    0.2848612  39.10  0.002136165    1.108    0.098
        87  -8.6416    176.8236    232.9784   1.1627860954e+02  -5.9879352360e-01    0.1983246    0.1730405  30.02 0.0004157682    1.036    0.035
        88  -9.3756    140.3360    235.0344   1.2407047178e+02   5.5803407828e+00    0.2302574    0.1708782  40.48 0.0004182576    1.196    0.164
        89  -8.1632    119.5997    234.0840   1.2818799058e+02   9.3857306147e+00    0.2488147    0.1266264 -69.63  0.001097689    2.639    0.621
        90  -9.0722    230.6165    233.2155   1.0574863588e+02  -9.7748712907e+00    0.3085104    0.1826903  19.53 0.0008193789    1.725    0.420
        91 -10.3648    192.2210    233.2536   1.1321686297e+02  -3.3712542123e+00    0.2684762    0.2394826  21.05 0.0005070086    1.057    0.054
        92  -8.8891    108.3796    233.3019   1.3037228776e+02   1.1437613575e+01    0.1932055    0.1797509  54.49 0.0004913385    1.202    0.168
        93  -8.5240     64.9306    234.3098   1.3905333337e+02   1.7947538773e+01    0.1650737    0.1309213  62.66  0.000341111    1.101    0.092
        94 -10.0553     10.3853    231.8757   1.4868094316e+02   2.5081530132e+01    0.2296228    0.1775062 -79.61  0.000744774    1.355    0.262
        95  -7.9749    166.2570    232.9977   1.1843948852e+02   1.2958179964e+00    0.1744652     0.159356  33.39  0.000351491    1.070    0.065
        96  -8.9280    153.2637    233.1355   1.2113161664e+02   3.6133155234e+00    0.2169895    0.1659173  43.56 0.0004310894    1.120    0.107
        97 -10.0785    250.3226    231.6054   1.0183972550e+02  -1.2540490873e+01    0.2097466    0.1529298 -26.00 0.0007297698    1.348    0.258
        98  -9.5995    100.5405    231.4123   1.3172964461e+02   1.3105782560e+01    0.2158085    0.2035028  58.33  0.000244808    1.237    0.192
        99  -9.0310     85.1135    231.5795   1.3484583547e+02   1.5522054873e+01    0.2059946    0.1695036 -70.47 0.0003838395    1.330    0.248
       100  -9.2468    133.3723    230.3071   1.2483226252e+02   7.7022706819e+00    0.2369443     0.210285  87.15 0.0008188696    1.201    0.167
       101  -9.4260    123.5228    231.0579   1.2697720120e+02   9.2910367536e+00    0.2410059    0.1722813  44.96 0.0003735286    1.223    0.182
       102  -9.0349     55.4925    231.0970   1.4054532675e+02   1.9895417931e+01    0.1837641    0.1607485  46.36 0.0005891376    1.411    0.291
       103  -8.9327    245.1305    229.9396   1.0247976608e+02  -1.1544588214e+01     0.204244    0.1530518  -4.52 0.0003184958    1.197    0.164
       104  -8.4144    226.2474    230.2608   1.0604992936e+02  -8.6518769046e+00    0.1583796    0.1359782  37.08 0.0004240858    1.302    0.232
       105  -9.0956    158.9168    229.8186   1.1945202343e+02   3.1875505510e+00    0.1986938    0.1957269 -45.75 0.0003179786    1.174    0.148
       106  -9.4666    114.1919    229.2843   1.2866667997e+02   1.1247543976e+01    0.2758077    0.1876884  55.41 0.0007892772    1.294    0.227
       107  -9.9632     45.1859    229.3487   1.4232497685e+02   2.1596563222e+01    0.2545691     0.203433  39.32 0.0004977211    1.541    0.351
       108  -8.3821    144.7403    229.4063   1.2233534533e+02   5.8347655317e+00    0.2367613    0.1546284  34.95   0.00121205    1.471    0.320
       109  -9.1036     79.1793    228.9217   1.3573438020e+02   1.6966506402e+01    0.1990354    0.1587007  57.92 0.0004127903    1.115    0.103
       110  -8.8884     29.5701    229.0287   1.4515269285e+02   2.3553734965e+01    0.1683984    0.1510963  55.03 0.0003808794    1.443    0.307
       111 -10.0829      7.5154    226.4137   1.4883854064e+02   2.6456494312e+01    0.3323093    0.1972708 -65.35  0.001720856    1.776    0.437
       112 -10.4398    236.4107    226.5773   1.0347792439e+02  -9.7313823052e+00    0.2705399    0.2338377  17.16  0.001054975    1.137    0.121
       113  -8.5842    153.0135    228.0517   1.2040366509e+02   4.5843429954e+00    0.2019298     0.176788  45.33 0.0003356714    1.010    0.010
       114  -8.2019    107.4771    228.4809   1.2994726631e+02   1.2543768882e+01    0.1338619    0.1139515  61.18 0.0001583885    1.028    0.027
       115 -10.1291     19.5272    226.9190   1.4678828948e+02   2.5104542995e+01    0.2346714    0.1771492 -86.59 0.0005614634    1.195    0.163
       116 -10.0335      1.9201    226.0783   1.4976657183e+02   2.7072285721e+01    0.4879202    0.1010566 -71.56  0.002109176    3.618    0.724
       117  -8.7004    185.0574    226.2474   1.1347975013e+02  -9.3779275737e-01    0.2081994    0.1889714 -31.26 0.0004523325    1.235    0.190
       118  -8.8806    175.5960    227.2092   1.1558207862e+02   6.1217476242e-01    0.2284219    0.1661923  38.75 0.0003635328    1.199    0.166
       119  -8.1004     59.7198    227.6529   1.3941872810e+02   2.0027700147e+01    0.1092698   0.09346603 -50.72 0.0004880512    1.640    0.390
       120  -9.6575    229.4005    225.7771   1.0464831576e+02  -8.4987105130e+00    0.2202146    0.1848618   7.51  0.000375014    1.020    0.019
       121  -9.9183    200.1363    225.3650   1.1027738036e+02  -3.4823380723e+00    0.2250003    0.2006324 -14.82 0.0003389856    1.175    0.149
       122  -9.0863    160.2481    218.3669   1.1732035164e+02   5.0533071255e+00    0.4068401     0.278228 -83.63  0.001025674    2.411    0.585
       123  -9.1090    163.2467    225.2255   1.1781759438e+02   3.2265564639e+00    0.2562292    0.2444997 -67.50 0.0009860185    1.207    0.172
       124  -9.1692    160.3192    222.6652   1.1801437467e+02   4.2367292061e+00    0.2557931     0.202292  50.41 0.0006731436    1.178    0.151
       125  -9.4392    191.6304    224.1954   1.1178761948e+02  -1.7747437607e+00    0.2430065    0.2082518  -0.25 0.0005448791    1.205    0.170
       126  -8.7074    120.9154    224.9806   1.2668271169e+02   1.0939550485e+01    0.1959181    0.1719539  57.39 0.0002815391    1.039    0.037
       127  -8.3889    109.9530    224.6381   1.2893321491e+02   1.2900042782e+01    0.1934017    0.1465454  52.33 0.0003734657    1.142    0.124
       128 -10.4743    248.9722    223.1783   1.0055455872e+02  -1.1175311444e+01    0.2668341    0.2265232 -20.83 0.0004801403    1.240    0.194
       129 -10.7365    194.3719    216.7775   1.0991417377e+02  -1.0077438338e+00    0.5091766    0.3010062  27.47 0.0006544194    1.770    0.435
       130 -12.3918    201.7105    189.9620   1.0328500735e+02   2.4249858300e+00     1.433969    0.8146615  12.00  0.004947194    3.579    0.721
       131 -10.6523    206.8128    206.2252   1.0542865619e+02  -1.4616401654e+00    0.4270146    0.3096013 -15.03 0.0002099763    1.553    0.356
       132 -11.1024    199.4428    201.6472   1.0605214909e+02   7.1903260453e-01    0.5788482    0.3583467 -30.18  0.001554148    1.800    0.444
       133 -10.3343    206.4027    201.0925   1.0452494258e+02  -4.8784126943e-01    0.4015959    0.3164275   6.34  0.001444342    1.344    0.256
       134 -10.5505    194.3930    200.7583   1.0692550080e+02   1.8406939360e+00    0.4352753     0.267553 -27.60  0.001362192    1.935    0.483
       135 -11.5182    211.2344    199.0695   1.0315785174e+02  -1.0286506366e+00    0.7082067    0.3540768  34.13  0.003056722    2.022    0.505
       136 -12.6565    206.4458    194.7777   1.0327791544e+02   6.3252053629e-01     1.304968    0.6418428  28.97  0.005133902    2.482    0.597
       137  -8.3689    155.9609    224.0069   1.1914834281e+02   4.7930590810e+00    0.2000268    0.1783098  41.56            0    1.027    0.027
       138  -9.0756    129.7563    223.9565   1.2467379806e+02   9.5778518274e+00    0.2359176     0.181823  37.32  0.000333157    1.270    0.213
       139  -8.1799    104.4639    224.0253   1.2999845884e+02   1.3949793048e+01    0.1736375    0.1281373 -66.37 0.0003301201    1.443    0.307
       140  -8.4167    136.0399    223.5030   1.2327771632e+02   8.5360163586e+00    0.2064139    0.1221263  42.23 0.0003305267    1.493    0.330
       141  -8.7456     83.0373    223.0562   1.3430290580e+02   1.7591793484e+01    0.1881449    0.1619706  69.50  0.000334466    1.079    0.073
       142  -8.6923     75.2503    222.8093   1.3585589029e+02   1.8819348698e+01    0.1895994    0.1446517  70.79 0.0005677223    1.107    0.097
       143  -9.1020     59.8366    220.9480   1.3874296848e+02   2.1409939769e+01    0.1970159    0.1654373  78.34 0.0003923699    1.092    0.084
       144  -8.3873     55.5554    220.4510   1.3953841860e+02   2.2094144756e+01    0.2112407    0.1157713  36.15 9.246834e-05    2.008    0.502
       145 -10.4101     50.2894    221.4725   1.4066233159e+02   2.2572842955e+01    0.4579828    0.3380472  77.80  0.002970891    1.097    0.088
       146 -10.1784     50.3381    217.6589   1.4029663796e+02   2.3372028126e+01    0.6483449    0.2968278  73.68  0.002871448    2.698    0.629
       147  -8.8501    175.0623    221.2710   1.1469244057e+02   1.7585867424e+00    0.2806392    0.2029288 -55.90 0.0009860822    1.683    0.406
       148  -8.3581    115.4434    221.8652   1.2740338790e+02   1.2520521484e+01    0.1778078    0.1321021 -61.78 0.0003977058    1.466    0.318
       149  -8.6688     97.7674    222.0089   1.3113672240e+02   1.5472322542e+01    0.1771723    0.1681789  78.73 0.0003966566    1.209    0.173
       150  -8.1047     92.8333    222.1115   1.3217532105e+02   1.6250114930e+01    0.1565636    0.1512121 -84.89 0.0003258084    1.280    0.219
       151  -9.5654     15.8940    221.4610   1.4706050605e+02   2.6600130475e+01    0.2055122    0.1751311 -58.81 0.0007586455    1.643    0.391
       152  -9.5776    186.1452    220.1901   1.1220912703e+02  -9.3059844985e-02     0.228828    0.1998639   4.53 0.0004286473    1.176    0.150
       153  -8.6726    181.0250    221.1098   1.1342641535e+02   6.8661677075e-01    0.2067184    0.1861686  33.72 0.0005080299    1.038    0.036
       154  -8.4617    141.3743    220.5685   1.2169657273e+02   8.1363295330e+00    0.1973913    0.1652095 -22.19 0.0005493067    1.552    0.356
       155  -8.4405     68.3561    221.0659   1.3705658099e+02   2.0191164050e+01    0.1725621    0.1374064  89.74 0.0005700017    1.129    0.114
       156  -9.5605     40.3564    220.8430   1.4251147924e+02   2.3956532487e+01      0.19851    0.1701849  83.41 0.0004385012    1.199    0.166
       157  -8.2729    109.2085    219.7612   1.2843536486e+02   1.4025262477e+01    0.1608143    0.1569613  27.72 0.0003573547    1.284    0.221
       158  -7.8999     87.8052    220.4069   1.3301044608e+02   1.7405385718e+01    0.1618275    0.1195907  37.13 0.0002214969    1.476    0.322
       159  -7.8848    130.0268    219.2229   1.2391699628e+02   1.0470980746e+01    0.1850784    0.1032408  42.12  0.000408595    1.603    0.376
       160  -7.7277    104.4474    219.4084   1.2939651296e+02   1.4905129920e+01      0.13509    0.1159449  62.60 0.0001985146    1.027    0.026
       161  -7.8792    136.9817    218.4892   1.2231423841e+02   9.3518845009e+00    0.2019288    0.1251061  41.77 0.0003766692    1.448    0.309
       162  -7.6069     96.2612    218.2812   1.3097840980e+02   1.6497575510e+01    0.1136146    0.1067777 -19.39 0.0001825521    1.479    0.324
       163  -8.3610    120.0497    217.5270   1.2580709937e+02   1.2600434983e+01    0.1997569    0.1234912  43.42 0.0003487931    1.455    0.313
       164  -8.1800     72.5101    217.0672   1.3577872664e+02   2.0438448944e+01    0.1793729     0.116819 -71.14 0.0004181123    1.494    0.331
       165  -8.8537     56.0303    216.8283   1.3908926258e+02   2.2799625341e+01    0.2055871    0.1437111 -82.82 0.0007856328    1.281    0.219
       166  -8.5198     21.8680    216.8384   1.4565039160e+02   2.6919925474e+01    0.1583041    0.1310495 -85.11 0.0004441088    1.250    0.200
       167 -10.1884      7.9332    216.1588   1.4812370878e+02   2.8491609115e+01    0.2131666    0.1764291 -68.80 0.0005711628    1.484    0.326
       168  -9.5545    180.4518    216.0031   1.1265267867e+02   1.7028561451e+00    0.2216222    0.1692869  37.65 0.0004636608    1.173    0.147
       169  -7.8402    124.8530    215.9028   1.2453332986e+02   1.2077316781e+01    0.1850561    0.1461244  70.53 0.0003974252    1.276    0.217
       170  -9.6836     78.8117    236.2289   1.3657853241e+02   1.5547302876e+01    0.2291822    0.1799372  61.94 0.0003726841    1.059    0.055
       171  -9.0685     83.0401    215.9045   1.3346102146e+02   1.9103100522e+01    0.1936557    0.1669615  72.10 0.0003184854    1.056    0.053
       172  -9.4381    171.9564    214.4687   1.1416975383e+02   3.5800335488e+00    0.2321351    0.2027189 -27.30 0.0003895905    1.273    0.214
       173  -8.6370    144.0463    214.9797   1.2023797952e+02   8.7425512408e+00    0.2096441     0.186675  47.44 0.0003845388    1.024    0.024
       174  -9.8437    248.7114    212.8988   9.8688362401e+01  -9.6489583079e+00    0.3080255    0.2084066 -12.12  0.001333516    1.464    0.317
       175  -8.5492    132.8027    213.8589   1.2249798551e+02   1.1051005584e+01    0.1917586    0.1787975  41.91 0.0003168786    1.125    0.111
       176 -10.5657    187.3161    211.8901   1.1048313297e+02   1.1584966446e+00    0.4510077    0.2534017 -27.98  0.001428422    2.339    0.572
       177  -7.6744    155.3018    213.3233   1.1753356455e+02   6.9517246576e+00    0.1387811    0.1104707   3.76 0.0002787307    1.633    0.388
       178  -8.2868    118.1592    212.8983   1.2553869027e+02   1.3896086650e+01    0.1725392    0.1618512  25.46 0.0003443656    1.269    0.212
       179  -7.9358    111.5754    213.4923   1.2705471512e+02   1.4927067241e+01    0.1360991    0.1235157  63.08 0.0001452482    1.072    0.067
       180  -8.0599     74.8226    212.8516   1.3481903703e+02   2.1004742643e+01     0.175484    0.1269547  70.46            0    1.239    0.193
       181  -8.7931     41.8349    212.8664   1.4152216543e+02   2.5465870878e+01    0.1677724    0.1448873 -87.32 0.0003780283    1.216    0.178
       182  -8.6767     98.6433    211.8158   1.2961967803e+02   1.7481447738e+01    0.2168429     0.170906  39.20 0.0006465634    1.335    0.251
       183  -9.1800     25.1203    211.4135   1.4462596217e+02   2.7708081468e+01    0.2023484    0.1561195 -78.58 0.0005692608    1.239    0.193
       184  -9.8714     17.1896    210.6980   1.4606153691e+02   2.8699497049e+01     0.392927    0.1944638  88.58  0.001011733    1.784    0.439
       185  -8.2296    125.1223    211.1590   1.2375609452e+02   1.3010497138e+01    0.1956399    0.1768594  40.05 0.0003057982    1.160    0.138
       186 -11.2217    212.0063    217.3228   1.0646893679e+02  -4.2565948094e+00    0.6086442    0.5591897 -25.63  0.002604395    1.212    0.175
       187 -10.5352    193.7612    208.4615   1.0851476311e+02   5.6512664000e-01    0.3236389     0.313281  48.64 0.0007292916    1.172    0.147
       188  -7.8725    107.4620    210.4017   1.2750843271e+02   1.6295044780e+01    0.1372009    0.1217634  61.18 0.0002214912    1.057    0.054
       189  -9.5094    216.8090    220.9106   1.0618300803e+02  -5.6621019824e+00    0.2573307    0.2177308  17.61 0.0003623099    1.024    0.023
       190 -10.1030     67.3099    208.2552   1.3586464796e+02   2.3100183220e+01    0.2831844    0.2169635 -77.28 0.0008367369    1.223    0.182
       191  -7.9829    149.5573    207.9668   1.1787456906e+02   9.1054046556e+00    0.1885419    0.1430765 -50.88 0.0002865052    1.450    0.310
       192  -8.2447    114.9701    207.6956   1.2546351249e+02   1.5564402335e+01    0.1935351    0.1613419  52.24 0.0002212545    1.094    0.086
       193  -8.6700     78.9086    208.3322   1.3341365102e+02   2.1377490664e+01     0.183183    0.1536978  59.57 0.0004669284    1.118    0.106
       194  -8.4242     72.2450    208.3027   1.3482862027e+02   2.2377204315e+01    0.1842338    0.1628657  36.89 0.0007928676    1.389    0.280
       195 -10.2723    184.2360    206.5816   1.1015283163e+02   2.7094589532e+00    0.3122639    0.2346614  28.72  0.001106239    1.289    0.224
       196  -8.0197    120.2590    207.0394   1.2419351078e+02   1.4759456033e+01    0.1869107    0.1703954  77.58 0.0003406278    1.062    0.058
       197  -9.6713    124.5725    206.0665   1.2308439845e+02   1.4183533679e+01    0.3817725    0.1794556  44.30  0.001601468    1.926    0.481
       198  -8.3617     47.8330    206.2547   1.3968905575e+02   2.6155250175e+01    0.1498571    0.1382415 -76.94 0.0003946818    1.323    0.244
       199  -8.2433     39.4735    206.0344   1.4136010096e+02   2.7228919686e+01     0.172304    0.1029187 -75.54  0.000357805    1.463    0.316
       200  -9.3576    247.2310    204.7763   9.7406745188e+01  -8.1916252175e+00    0.2160113    0.1721241 -18.47 0.0003332763    1.136    0.119
       201 -10.3205    222.8471    204.1858   1.0186485215e+02  -3.9984685883e+00    0.7079553    0.3088628  49.89  0.002117648    2.891    0.654
       202  -9.3500    223.8287    200.6757   1.0099216866e+02  -3.5861132444e+00    0.2631748    0.1799974 -17.89 0.0006959379    1.580    0.367
       203  -7.6552    104.2360    205.6864   1.2754103741e+02   1.7867870113e+01    0.1364295   0.09774756  78.73 0.0001551514    1.500    0.333
       204 -10.0049      7.3422    203.8167   1.4739891633e+02   3.1120257028e+01     0.217087    0.1817952 -70.17 0.0006746041    1.405    0.288
       205  -7.9161    141.0335    204.0175   1.1908569737e+02   1.1539619271e+01    0.1721222    0.1509089  49.79 0.0003175919    1.039    0.037
       206  -8.2414     93.9324    203.7713   1.2954884316e+02   2.0013544055e+01    0.2423692    0.1368208  63.53   0.00109125    1.964    0.491
       207 -10.1687    179.4490    202.3046   1.1037156418e+02   4.4349605834e+00    0.3112541    0.2696975 -82.84  0.001281891    1.460    0.315
       208  -7.8263     43.4617    203.5206   1.4031101636e+02   2.7298688424e+01    0.1240544    0.1017535  86.71 0.0001531989    1.066    0.062
       209  -8.7691     21.4511    202.7127   1.4463101195e+02   2.9961744118e+01    0.1836038    0.1442858  57.45 0.0007453954    1.281    0.219
       210  -9.4986    187.0627    201.6989   1.0864089029e+02   3.0749846126e+00    0.2012586    0.1705354  35.28 0.0004648156    1.091    0.083
       211  -7.5400    110.4935    202.5180   1.2567852271e+02   1.7476544578e+01    0.1416603    0.1272713  66.72 -7.757553e-06    1.024    0.024
       212  -8.5608     98.7988    202.1667   1.2824220743e+02   1.9562623702e+01    0.2276439    0.1964878  38.18  0.000744124    1.282    0.220
       213  -9.8513     69.0774    200.7707   1.3460664270e+02   2.4509713765e+01    0.3820789    0.2436915  61.60  0.001724448    1.484    0.326
       214 -11.1040     64.2988    195.7256   1.3503635089e+02   2.6324744332e+01    0.5003634    0.3274961  60.00  0.001335223    1.439    0.305
       215  -8.1763    131.3312    201.6932   1.2086537890e+02   1.3863568936e+01    0.1493751    0.1396364  46.20 0.0005999936    1.095    0.087
       216  -8.4012    133.0048    199.0173   1.2003922937e+02   1.4120815583e+01    0.2079472    0.1940409  54.04  0.001182432    1.050    0.048
       217  -7.6486     34.5309    201.5218   1.4193515492e+02   2.8793832087e+01    0.1232863   0.09732955  85.04 0.0001015005    1.020    0.020
       218  -8.1970     16.7423    201.1984   1.4542230011e+02   3.0768694082e+01    0.1446148   0.09520938  19.96 0.0005024023    2.392    0.582
       219  -9.3885    250.4002    199.3088   9.5776680939e+01  -7.8546526563e+00    0.2062298    0.1494429 -27.55 0.0006412157    1.269    0.212
       220  -9.3452    243.3577    198.4139   9.6873809610e+01  -6.5669104779e+00    0.2170759    0.1947735  -5.23  0.000963426    1.087    0.080
       221  -9.8877     81.4564    200.7861   1.3190084055e+02   2.2663084206e+01    0.3193918    0.2229004  70.95  0.000864912    1.399    0.285
       222  -7.9736     42.1618    199.5823   1.4018784284e+02   2.8327357170e+01    0.1394775     0.120923  28.78 0.0001583232    1.558    0.358
       223  -8.2118    230.9248    197.8573   9.9078858645e+01  -4.3633957410e+00    0.1983003    0.1621244   0.24 0.0003612872    1.162    0.140
       224  -8.3770    140.3716    197.6733   1.1814197439e+02   1.3000513669e+01    0.3053405    0.2212623  -1.38  0.001342787    2.291    0.563
       225  -8.6689     21.8319    197.6793   1.4413853017e+02   3.1015441602e+01     0.149091    0.1435596 -83.13 0.0005355206    1.416    0.294
       226  -7.3709    150.6796    197.3093   1.1575642589e+02   1.1072721643e+01    0.1497337    0.1121638  73.80 0.0002945048    1.643    0.392
       227  -8.0209     89.5932    197.2790   1.2961021727e+02   2.2170592672e+01    0.1758016     0.124242 -55.65 0.0003603471    1.505    0.336
       228  -9.1688    238.0669    196.0408   9.7380327818e+01  -5.2957530942e+00     0.195858     0.172647  -1.29 0.0003308929    1.019    0.019
       229  -8.3675    113.9909    194.9887   1.2370783238e+02   1.8519754910e+01    0.1726325    0.1556315  68.14 0.0003083641    1.002    0.002
       230  -9.4738    186.7942    194.1296   1.0723847304e+02   4.5609927990e+00    0.2270005    0.1902614  -0.86 0.0002789204    1.315    0.240
       231 -11.0026    189.4267    190.8896   1.0604005097e+02   4.6629877016e+00    0.5067221    0.3808834  83.53  0.002339431    2.098    0.523
       232  -8.3552     29.0388    201.7911   1.4306042571e+02   2.9350351787e+01    0.1646386     0.129635  82.88  0.000429827    1.030    0.029
       233  -9.5109    226.4823    191.9906   9.8760485398e+01  -2.5875370292e+00    0.2168686    0.1773057  28.87  0.000612103    1.182    0.154
       234  -8.3959     26.9853    192.4730   1.4263735767e+02   3.1624569113e+01    0.1571524    0.1137638  42.89 0.0004676887    1.516    0.340
       235 -11.3126    203.6639    217.0445   1.0807993435e+02  -2.7338641430e+00    0.6254973    0.3578193 -45.94   0.00146501    2.008    0.502
       236 -10.0115    154.4935    188.2654   1.1321772241e+02   1.2217417935e+01    0.5283805    0.3316678  62.78    0.0022302    2.011    0.503
       237  -7.8507      9.4501    190.5674   1.4601110686e+02   3.3769438378e+01    0.1165906   0.08826955  89.11 8.610563e-05    1.022    0.021
       238  -8.4590     94.7670    189.0460   1.2721828477e+02   2.3201681524e+01    0.2264451    0.1737785  75.22 0.0007081607    1.300    0.231
       239  -7.9399     14.2114    188.8786   1.4492368451e+02   3.3697754641e+01    0.2460981    0.1063947  83.52  0.001143001    2.516    0.603
       240 -10.2014    222.2794    187.9194   9.8751176837e+01  -1.1136151483e+00    0.3172359    0.1883218  50.42 0.0004925595    1.933    0.483
       241  -8.1652      1.3566    187.8698   1.4739489445e+02   3.5063528256e+01     0.156478   0.07921327 -69.41 0.0004378327    1.620    0.383
       242 -10.2893    231.5096    185.9637   9.6586107879e+01  -2.4584630780e+00    0.3847945    0.2764198 -16.75  0.001290041    1.455    0.312
       243 -10.3445    229.7382    182.4242   9.6197379130e+01  -1.5234994656e+00    0.3422558    0.3010263 -74.61   0.00193576    1.557    0.358
       244  -9.9328    233.4735    181.4913   9.5303165014e+01  -2.0415934450e+00    0.3887354    0.2951747  47.29  0.002116211    1.467    0.318
       245  -8.1529    170.9513    224.0328   1.1601461014e+02   2.0231318024e+00    0.1975597    0.1552301   5.36  0.000317714    1.538    0.350
       246  -9.1799    224.3379    183.0315   9.7354096762e+01  -6.3274591916e-01    0.1977383    0.1710971 -27.27 0.0005440153    1.120    0.107
       247  -9.4556     32.4751    182.4912   1.4049965704e+02   3.3284569544e+01    0.3119476    0.2180053  36.24  0.001693209    1.655    0.396
       248  -9.6399     30.0170    180.0000   1.4077638529e+02   3.4114433377e+01    0.3690303    0.1875013  40.21  0.001975904    2.041    0.510
       249  -8.7760      8.0830    182.7534   1.4565772451e+02   3.5603375212e+01     0.158937    0.1280835  87.25 0.0006231552    1.090    0.083
       250  -7.6317    249.3439    183.2657   9.2778588483e+01  -5.1178793745e+00    0.1347376     0.095168   4.51 0.0002192322    1.604    0.377
       251 -10.1349    117.6846    179.4620   1.2019925138e+02   2.1367162483e+01    0.7307159    0.3820999  58.03   0.00284209    2.301    0.565
       252  -8.2142      3.4943    182.5575   1.4656923137e+02   3.6039100920e+01    0.1158459   0.08750218 -87.95 0.0001038935    1.032    0.031
       253  -8.6279    199.3178    181.6568   1.0208698008e+02   4.4661909242e+00    0.1452627    0.1191341 -89.45 0.0007049025    1.717    0.418
       254  -7.4849     14.4913    180.4438   1.4413835759e+02   3.5541477530e+01    0.1189075   0.09320857 -84.29 0.0004978094    1.066    0.062
       255  -9.1410     10.1790    177.0433   1.4474131760e+02   3.6685759717e+01    0.2047667    0.1048268  78.71  0.001089116    1.935    0.483
       256  -8.1821    100.8529    175.8818   1.2364090614e+02   2.5234441232e+01    0.1935303    0.1544765  73.47            0    1.271    0.213
       257  -9.6883     40.7821    171.6710   1.3742167482e+02   3.4863959065e+01    0.2447622    0.1845031 -83.46 0.0007380352    1.124    0.110
       258  -8.0159    199.2542    175.9911   1.0091791013e+02   5.5730894989e+00     0.187775    0.1260279 -40.91 0.0003566431    1.509    0.338
       259 -11.0985    186.1070    166.1262   1.0160328253e+02   1.0283086924e+01    0.5309777    0.3764616  34.71  0.001815923    1.449    0.310
       260  -7.7082     14.6404    169.6886   1.4310789134e+02   3.7947116137e+01    0.1178714    0.0791978 -48.51 0.0003101432    1.743    0.426
       261  -9.6221    148.6746    167.2000   1.1037120533e+02   1.8011404928e+01    0.3566611    0.2097666  42.67  0.001491237    1.653    0.395
       262 -10.1011    192.9883    163.3793   9.9525418931e+01   9.3798502564e+00    0.4523249    0.3104697 -10.15  0.001897181    2.119    0.528
       263 -10.3795      6.6187    163.4728   1.4428034514e+02   4.0022461287e+01    0.3669814    0.2403205 -58.57  0.002059062    1.468    0.319
       264 -10.5812    217.4487    161.4674   9.4123632337e+01   4.6673242617e+00    0.7046137    0.4298796  50.78  0.003190949    1.781    0.438
       265  -9.8955    217.5086    156.5043   9.3024324183e+01   5.5982423115e+00    0.2883435     0.251116  21.54  0.001554359    1.196    0.164
       266 -10.3004    171.6687    158.6984   1.0317754285e+02   1.4957018722e+01    0.4486713    0.2955218  71.34  0.001767367    2.257    0.557
       267  -8.2933    228.8692    156.1591   9.0797837750e+01   3.3742379866e+00    0.1930624    0.1631287   3.98  0.000375776    1.281    0.219
       268  -8.9383    123.5535    155.7654   1.1414945360e+02   2.5771538061e+01    0.3037036    0.2472639  62.90  0.001115106    1.274    0.215
       269  -8.8797     84.2935    154.6993   1.2407634599e+02   3.3054055899e+01    0.2467096    0.1765826  43.72 0.0007609219    1.440    0.306
       270  -9.1443     40.6747    162.3059   1.3627597538e+02   3.7074173053e+01    0.2334784    0.1592028  -8.85  0.001172794    2.613    0.617
       271  -9.3378    245.5843    150.0390   8.6504240610e+01   1.2512180841e+00    0.2575061    0.2023485  34.93 0.0008606489    1.386    0.278
       272  -8.0916     58.2746    150.3497   1.3012170419e+02   3.7828545146e+01    0.1375758    0.0956609 -41.56 0.0003099526    1.634    0.388
       273 -11.2356     84.4741    146.1569   1.2242982495e+02   3.5088618473e+01    0.5445749    0.5278873  45.18  0.001667983    1.131    0.116
       274  -9.8727     27.1510    148.2061   1.3777083100e+02   4.1766997842e+01    0.3441294    0.1911944 -43.00  0.001736163    2.106    0.525
       275  -9.7259     11.8159    146.6413   1.4135108632e+02   4.3437571456e+01    0.3460079    0.2249686 -65.54   0.00215499    1.247    0.198
       276  -8.5801    133.7558    148.0361   1.0989502578e+02   2.5506420922e+01    0.2218838     0.206476 -55.30 0.0004858036    1.081    0.075
       277  -8.1188    236.2395    145.6133   8.7162455542e+01   3.8527101510e+00    0.1811398    0.1335801  34.11 0.0003181379    1.501    0.334
       278  -9.8953     48.6707    143.6622   1.3157440698e+02   4.0600436375e+01    0.3531247    0.2509915  36.50  0.001332257    1.580    0.367
       279  -8.4671    200.4848    141.5212   9.3019368420e+01   1.2172476062e+01    0.1531524     0.146789  -6.16 6.603354e-05    1.069    0.065
       280  -7.5656    150.6786    141.6811   1.0423218440e+02   2.3325873709e+01    0.1608249    0.1284893  -0.08 0.0007043521    1.667    0.400
       281  -8.6811    225.0366    139.1703   8.7738166171e+01   7.3298681854e+00    0.2255085    0.1963852  11.64 0.0007991432    1.288    0.224
       282  -9.6047     98.8604    137.8130   1.1682478112e+02   3.4681372869e+01    0.3519016    0.3030477 -82.46  0.001152271    1.216    0.178
       283  -9.3489    249.0763    134.9628   8.2676523857e+01   3.2592674433e+00    0.2451782     0.190222  47.32  0.001347473    1.431    0.301
       284  -9.9934     42.0250    134.3043   1.3185693765e+02   4.3561220046e+01    0.2929295    0.2663447 -71.78  0.001010668    1.072    0.068
       285  -9.5113    173.2620    129.5933   9.6009275876e+01   2.0842243906e+01    0.3048007    0.2410187  13.37 0.0009480971    1.627    0.385
       286  -8.4127    242.4164    125.7188   8.1734654920e+01   6.2264983953e+00    0.1936087    0.1281289 -31.11 0.0006842086    1.521    0.342
       287  -8.2249    222.5740    126.4939   8.5296456727e+01   1.0249191651e+01    0.1475471    0.1378462 -45.95 -0.0003180383    1.012    0.012
       288  -8.8009    165.5061    120.4923   9.5511717598e+01   2.4579370663e+01    0.1590248    0.1544313  87.42  0.000810451    1.028    0.027
       289 -10.5290    100.8716    116.9701   1.1144450809e+02   3.9205232189e+01    0.5022629    0.3350223 -43.16 0.0007417625    1.477    0.323
       290 -10.8843     18.1743    115.2670   1.3548685831e+02   5.0126450996e+01    0.3919512    0.2698413 -77.40  0.001061717    1.348    0.258
       291  -8.3396    231.8336    116.4553   8.1396382132e+01   1.0115192073e+01    0.2596067    0.1451589  58.86   0.00112519    2.014    0.503
       292  -9.3019     33.8369    109.6006   1.2988496001e+02   5.0108240165e+01    0.3178554    0.1849271 -55.12 0.0009668646    1.405    0.288
       293  -8.4578    145.3523    106.3013   9.6646392987e+01   3.2266330545e+01    0.1622544    0.1258691  10.98 0.0007038543    1.699    0.412
       294  -8.1449    250.7419    102.9953   7.5477162910e+01   8.5314468714e+00    0.1823206    0.1081917 -40.76 0.0005515142    1.513    0.339
       295 -10.8713      8.0601     99.4023   1.3592151433e+02   5.4333554355e+01    0.3630126    0.3161165  14.32  0.001146804    1.435    0.303
       296  -9.5527      2.2657     94.4930   1.3689183779e+02   5.5722778677e+01     0.238956    0.1782082 -50.09  0.001668977    1.121    0.108
       297  -8.1152    142.1999     98.3879   9.5280349376e+01   3.4620749410e+01    0.2225095     0.147231  58.29 0.0006112111    1.632    0.387
       298  -8.2709    237.2939     95.3488   7.5747206153e+01   1.2694522314e+01    0.1364186     0.113065   2.13 0.0004608052    1.674    0.402
       299  -8.0885     54.4538     95.5283   1.2036489858e+02   5.1074866536e+01    0.1347734    0.1157285 -39.53 9.133836e-05    1.030    0.030
       300  -8.6420    242.8134     93.4120   7.4508318229e+01   1.1834347759e+01    0.1813165    0.1299122  47.85 0.0004972148    1.604    0.377
       301  -8.8561    158.3574     91.2236   8.9419850007e+01   3.2212161154e+01    0.2800803    0.2113845  50.19 0.0005894238    1.290    0.225
       302 -10.3969     17.0031     87.7564   1.3095922802e+02   5.6268479052e+01    0.4987277    0.2530884 -64.65  0.002673944    1.737    0.424
       303  -8.6990     33.9326     89.0583   1.2561040243e+02   5.4637785179e+01    0.1925905    0.1557983 -46.20 0.0004273324    1.023    0.022
       304  -9.5688    243.8619     82.8511   7.2030918645e+01   1.3383178786e+01    0.1968484    0.1483832 -70.97 0.0004835592    1.328    0.247
       305  -9.7518    154.6103     82.2875   8.7786271997e+01   3.4788984104e+01    0.3948259     0.332121  50.02  0.001166451    1.148    0.129
       306 -10.0140    156.9377     78.0371   8.6058764972e+01   3.4989053192e+01    0.3709086    0.3257537 -10.64  0.000718097    1.306    0.234
       307 -10.2582    220.7134     79.9510   7.4699604028e+01   1.9080857280e+01    0.3721732    0.2749547  75.66 0.0005175325    1.398    0.285
       308 -12.4224     80.0913     76.0017   1.0660386488e+02   5.1506148865e+01    0.3498167    0.3354793 -31.69 0.0003526406    1.144    0.126
       309 -10.7821    246.4680     75.3387   7.0048618220e+01   1.4044511420e+01    0.5336165    0.3065138  42.67  0.002442988    2.432    0.589
       310  -8.4281    184.2175     77.8439   8.0390910982e+01   2.8285205328e+01      0.20505    0.1811233  24.56  0.001060925    1.339    0.253
       311 -12.2768     22.1849     74.4849   1.2627764762e+02   5.8656175218e+01    0.4205242     0.397621  -1.04  0.003121126    1.258    0.205
       312 -10.9855    115.7179     74.2623   9.5266136770e+01   4.5142170894e+01    0.4776702    0.3953694  64.64  0.001538793    1.405    0.288
       313  -9.7933     45.1293     75.2871   1.1832784315e+02   5.6384140856e+01    0.2821986    0.2489149 -82.84  0.001004072    1.514    0.339
       314 -10.9544    227.4481     70.8624   7.1596156387e+01   1.9013052095e+01    0.4502051    0.3341777 -65.50 0.0005433909    1.309    0.236
       315  -9.5522      9.0219     72.6294   1.3052969054e+02   5.9914689748e+01    0.3419638    0.1771226 -31.63  0.001951105    1.868    0.465
       316  -8.1049    101.7291     73.3436   9.9021538375e+01   4.8146124343e+01    0.1370773    0.1153135 -76.05  0.000318136    1.614    0.380
       317 -10.5473    245.8157     66.3429   6.8188037988e+01   1.5607274817e+01    0.3699028    0.2236579  46.31  0.001807642    2.134    0.531
       318 -10.7509    143.8374     64.0949   8.4984735407e+01   4.0522370312e+01    0.5198608     0.389016 -10.73  0.001602462    1.673    0.402
       319 -10.6470    239.3864     72.3871   7.0320488829e+01   1.6066820147e+01    0.3768508     0.213526  48.20  0.001756959    2.114    0.527
       320 -10.4846    236.2561     63.9365   6.8855066191e+01   1.8097886859e+01    0.2997788    0.2388878  86.33  0.001721441    1.201    0.167
       321  -9.2692     59.2364     60.5694   1.0891428180e+02   5.7475416378e+01    0.4654136    0.2624526  -3.20  0.002005755    2.835    0.647
       322 -11.0794     80.0030     54.3764   9.9679238633e+01   5.5381341940e+01     0.738953    0.4122133  17.66    0.0012383    2.459    0.593
       323  -9.5109     14.9360     56.7457   1.2448754266e+02   6.2643179991e+01    0.3828886    0.1775852 -22.75  0.001934107    2.502    0.600
       324  -9.0699     27.4946     55.9286   1.1937477210e+02   6.1824911918e+01    0.1855962   0.09999411 -49.57  0.001038222    1.611    0.379
       325  -9.4341     33.2269     55.0155   1.1687755362e+02   6.1469303293e+01    0.1831578    0.1151707 -16.45  0.001059001    1.619    0.382
       326  -9.5974    249.5078     51.0045   6.4517841455e+01   1.7110043290e+01    0.1955523    0.1162518 -42.26 0.0005829199    1.572    0.364
       327  -8.0850    172.0098     49.9811   7.5138682089e+01   3.5746584802e+01    0.1665046    0.1532756  74.85 0.0009425401    1.015    0.015
       328  -8.7072     37.5893     50.7356   1.1383404977e+02   6.1795077842e+01    0.1600063      0.10604 -50.96 0.0008331253    1.616    0.381
       329 -10.1491    225.2934    248.0355   1.0929103081e+02  -1.1002013032e+01    0.2284592    0.2051856  18.15 0.0004260276    1.236    0.191
       330 -10.2113     13.6269     26.7953   1.1565985374e+02   6.7883117539e+01    0.7856699    0.3295592  12.19  0.004136745    2.778    0.640
       331  -8.1375    221.4685    248.4715   1.1008067033e+02  -1.0469828518e+01    0.1651609    0.1046685  41.38 3.691587e-05    1.528    0.346
       332  -8.3308    119.9036    248.8247   1.2998840480e+02   6.5936475311e+00    0.1773319    0.1527141  42.83 0.0003893468    1.194    0.162
       333  -8.0394    108.5281    249.5196   1.3227717365e+02   8.3439297627e+00    0.1271204    0.1041235  56.42 0.0004499032    1.048    0.046
       334  -8.2681     89.2328    249.5811   1.3595873835e+02   1.1388592778e+01    0.3038599   0.07646629  47.25  0.001153452    3.127    0.680
       335 -10.3827     32.9560    248.2578   1.4591839051e+02   1.9379408685e+01    0.2146316    0.1760684  76.60 0.0004251593    1.227    0.185
       336  -9.2145     24.5652    249.1374   1.4737362756e+02   2.0199843843e+01    0.1848599     0.137457  52.78 0.0005333069    1.362    0.266
       337  -9.1870    210.3366    241.7576   1.1108308344e+02  -7.7471099229e+00    0.3009644    0.1889401  54.53  0.001536824    2.172    0.540
       338 -11.1329    211.6388    246.8880   1.1168301509e+02  -8.6953976183e+00    0.2969093    0.2203982  25.00 0.0004483799    1.122    0.109
       339 -12.8197     19.9072     41.1622   1.1786599160e+02   6.5064841221e+01    0.5527087    0.2908541 -13.11  0.001225189    2.146    0.534
       340 -12.4498     13.0916     39.1514   1.2009084423e+02   6.5918532336e+01    0.6028134    0.3571652  -9.92  0.002042836    1.685    0.406
       341  -8.6935     32.4696     40.8590   1.1257290546e+02   6.3985957357e+01    0.1737776    0.0990347 -41.70  0.001016403    1.549    0.355
       342  -8.6438     45.0260     37.9873   1.0651126066e+02   6.3053461832e+01    0.2440725    0.1315052 -18.29  0.001246321    2.081    0.520
       343  -9.0689     46.0031     33.4866   1.0445184046e+02   6.3608997192e+01    0.2419301    0.1891179 -25.71 0.0008592814    1.207    0.172
       344  -9.7072     53.6686     36.3783   1.0257578586e+02   6.2183793983e+01     0.291409    0.1895549   9.45  0.001004638    1.555    0.357
       345  -9.2145     33.5036     34.5282   1.0989758810e+02   6.4887873894e+01     0.306986    0.2641899  56.73  0.002074253    2.057    0.514
       346  -9.0595    145.6047     34.5269   7.5683332248e+01   4.4302148681e+01    0.2906596    0.2145784  43.79 0.0009490652    1.285    0.222
       347  -9.5785      4.5458     32.6751   1.2172098705e+02   6.7562233478e+01    0.3058549      0.16749  21.54  0.001996914    2.049    0.512
       348  -9.3145     75.6863     32.3989   9.3227244084e+01   5.9350499624e+01    0.3471913    0.1383567  45.97  0.001483065    2.504    0.601
       349  -8.5747     79.3332     31.3200   9.1626396329e+01   5.8856096876e+01    0.1993081    0.1231737 -22.18 0.0008048409    1.647    0.393
       350  -8.3278    205.4511     31.2372   6.5265160101e+01   2.9984130428e+01    0.1860459    0.1137862 -50.82 0.0009438286    1.629    0.386
       351  -9.1598     66.6468     30.5451   9.5609829070e+01   6.1084349367e+01    0.2470337    0.2066519 -22.03 0.0005522602    1.256    0.204
       352 -10.3299     66.6265     25.4005   9.3616579837e+01   6.1744509862e+01    0.3471568     0.210204  19.56  0.001926524    1.653    0.395
       353  -9.3559     29.9952     36.5051   1.1206691478e+02   6.4933098407e+01    0.2885896    0.1634413 -19.02  0.001011598    1.733    0.423
       354  -7.9100    111.0312     29.6903   8.1912804705e+01   5.2812370974e+01     0.207983    0.1108414  75.32 0.0007044672    4.261    0.765
       355  -7.7509     91.6955     28.6670   8.6829529979e+01   5.6892774286e+01    0.1364029    0.0881632  18.25 0.0007037897    1.661    0.398
       356  -8.3514     40.3352     27.3049   1.0434511123e+02   6.5188762181e+01    0.1229841   0.07511415  -4.70 0.0004503614    1.667    0.400
       357  -9.2433    244.1497     23.6664   5.9455056329e+01   2.1979159879e+01    0.2203475    0.1529924 -28.32  0.001276175    1.866    0.464
       358  -9.5181     83.7294     19.9893   8.5944130570e+01   5.9393376025e+01     0.247363    0.1433142 -23.45  0.001347372    1.809    0.447
       359  -7.9325    206.2971    245.7044   1.1251441638e+02  -7.6590935697e+00    0.1305312    0.1057312  21.63 0.0002798884    1.032    0.031
       360  -9.7694     58.6079     18.5585   9.3726853009e+01   6.3822320987e+01    0.2564822    0.1853152   1.69 0.0006911765    1.215    0.177
       361  -9.6712    140.8004    247.2594   1.2567144604e+02   3.3151699105e+00    0.2187868    0.1993821  49.52 0.0003820091    1.112    0.100
       362  -8.0179    171.1767    246.8015   1.1956994356e+02  -1.8817763105e+00    0.1670394    0.1325596  23.89 0.0003785428    1.234    0.190
       363  -8.2757     75.8426    246.7971   1.3818729397e+02   1.3927567343e+01    0.1662528    0.1443948  64.65 0.0004685113    1.207    0.171
       364  -9.9620    243.2067    245.3522   1.0553545630e+02  -1.3323104899e+01    0.2322943     0.167264 -14.16 0.0003525332    1.312    0.238
       365  -9.2041    187.5585    245.0005   1.1605425576e+02  -4.4172989875e+00    0.3097505    0.2263254  13.46  0.001154706    1.485    0.327
       366  -9.8407    193.1778    243.4635   1.1470429643e+02  -5.1376891021e+00    0.4301628    0.3123675  74.05  0.001465255    2.464    0.594
       367 -10.1206     94.7743    245.1255   1.3443789524e+02   1.1364292475e+01     0.238047     0.186244  48.13 0.0003783955    1.201    0.167
       368  -8.3275     90.6813    245.3111   1.3524226062e+02   1.1969004527e+01    0.1781506    0.1486786  77.13 0.0005552967    1.114    0.102
       369  -7.6128    248.9923    245.4743   1.0451294343e+02  -1.4165901985e+01    0.1580201   0.09890056  28.84  5.78824e-06    1.383    0.277
