#   1 NUMBER                 Running object number                                     
#   2 MAG_AUTO               Kron-like elliptical aperture magnitude                    [mag]
#   3 X_IMAGE                Object position along x                                    [pixel]
#   4 Y_IMAGE                Object position along y                                    [pixel]
#   5 X_WORLD                Barycenter position along world x axis                     [deg]
#   6 Y_WORLD                Barycenter position along world y axis                     [deg]
#   7 A_WORLD                Profile RMS along major axis (world units)                 [deg]
#   8 B_WORLD                Profile RMS along minor axis (world units)                 [deg]
#   9 THETA_WORLD            Position angle (CCW/world-x)                               [deg]
#  10 FWHM_WORLD             FWHM assuming a gaussian core                              [deg]
#  11 ELONGATION             A_IMAGE/B_IMAGE                                           
#  12 ELLIPTICITY            1 - B_IMAGE/A_IMAGE                                       
         1 -15.8428    206.6393    127.9620   9.1171002065e+01   1.3702856898e+01     5.015675     3.255006 -89.02   0.01552478    2.815    0.645
         2 -18.3393    225.9330     29.3778   6.4486317536e+01   2.5632173467e+01     9.677238     8.018252  88.16   0.04424784    1.068    0.063
         3 -14.4167    178.0620     77.4667   8.3901049739e+01   3.0119762643e+01     2.087488     1.472395  83.07  0.009376382    1.735    0.424
         4 -12.5023    112.9128     15.2932   7.8634792203e+01   5.4176073719e+01    0.3156283    0.2712643  33.42  0.002024829    1.035    0.034
         5 -11.9530    151.9694     14.8321   7.0763298175e+01   4.5273917637e+01    0.2983959    0.2540555 -51.29 0.0006300809    1.318    0.241
         6 -12.4632    141.7927     12.2633   7.1745927055e+01   4.7942090255e+01    0.4673433    0.3042327 -20.82   0.00108378    1.790    0.441
         7  -9.4188    146.4659     11.4672   7.0685161196e+01   4.6914026861e+01     0.179669    0.1195109 -39.05 0.0007016256    1.701    0.412
         8 -10.4964    113.4310      6.7101   7.5509750285e+01   5.4856075174e+01    0.2267163    0.1144553 -28.62  0.001146337    2.190    0.543
         9 -11.3019    105.8136      4.1092   7.6282112616e+01   5.6694832008e+01    0.4361018    0.2038658 -13.74  0.002095449    2.578    0.612
        10 -10.3980    183.2458      5.8879   6.3793257315e+01   3.8566454929e+01    0.1816863    0.1526402 -82.46 0.0002540183    1.123    0.109
        11 -11.8714    154.7049      4.1368   6.7190539659e+01   4.5618903113e+01    0.5799624    0.2686594  51.72   0.00203795    1.872    0.466
        12 -11.2937    150.3812      2.1047   6.7255006398e+01   4.6821534490e+01    0.2543003    0.1884996  48.11  0.000337374    1.251    0.201
        13 -10.7157     59.9711      7.0000   9.0431235379e+01   6.4901439255e+01    0.1839205   0.05815033  45.59 0.0008057522    2.965    0.663
        14  -9.1217    177.2682      4.2852   6.4121167505e+01   4.0167705561e+01    0.1234759   0.08808048  45.52 0.0001858493    1.497    0.332
        15 -11.6661     56.5107      2.2873   8.9583820093e+01   6.5898076741e+01    0.2520948    0.1458371  31.10    0.0015599    1.478    0.323
        16 -10.9580    131.8758     95.3933   9.9460493822e+01   3.7650985851e+01    0.2821975    0.2724596 -88.16 0.0004272625    1.077    0.071
        17 -13.5419    182.4732     65.9421   7.9931878851e+01   3.0973074029e+01     0.865182    0.5218159  27.59  0.002706126    2.762    0.638
        18 -13.6222     54.7462    177.2312   1.3617706203e+02   3.1906231675e+01    0.5343056    0.4330988 -55.26  0.001416512    1.389    0.280
        19 -12.0823    190.0177    149.4310   9.9546420761e+01   1.3109221973e+01    0.6371992    0.3263785 -64.37   0.00188046    4.166    0.760
        20 -12.4441    145.0392     64.7241   8.7272249846e+01   4.0335412254e+01    0.7179979    0.3291612 -54.63  0.002381044    3.438    0.709
        21 -10.8666    119.3019     66.1822   9.4106035729e+01   4.5892892629e+01    0.3548222    0.2755163 -69.20  0.001217416    1.734    0.423
        22 -10.2970    130.9471     66.0183   9.1044488926e+01   4.3371040084e+01    0.2236581    0.2200522 -24.25 0.0008419574    1.054    0.052
        23  -9.9557    205.1711     64.8114   7.5774761047e+01   2.5534747684e+01    0.2304594    0.1817046 -75.31    0.0011895    1.295    0.228
        24 -11.3142    136.5633     64.6284   8.9237737994e+01   4.2327942078e+01    0.3147716    0.2229164 -10.81  0.001449504    1.828    0.453
        25 -13.4515    195.9730     53.8932   7.4432830592e+01   2.9494645174e+01     0.892129    0.8105655   0.17  0.004031107    1.374    0.272
        26 -11.3739    203.0287     50.4894   7.2483029141e+01   2.8254663487e+01    0.2273555    0.2019821  77.85 0.0003846299    1.063    0.060
        27  -9.0833    117.2915    151.2575   1.1685000612e+02   2.8119576726e+01    0.1389798    0.1205164  -8.77 0.0006883686    1.491    0.329
        28 -10.5718    134.0000    147.5974   1.1194076645e+02   2.5661994546e+01    0.5904227    0.1776281 -55.87  0.001553225    4.462    0.776
        29 -11.4598    145.1626     53.9772   8.3990215194e+01   4.2009805008e+01    0.2181396     0.208674  56.89 0.0006148603    1.024    0.024
        30 -11.9168    134.5544    107.6353   1.0211028841e+02   3.4505267206e+01     1.794412    0.3223277 -42.77  0.004051527    5.832    0.829
        31 -10.5597    127.8369     50.2277   8.6838294283e+01   4.6581691993e+01    0.2302343    0.1860247 -46.36 0.0005359969    1.369    0.269
        32 -11.8599    215.2742     49.1234   7.0412550896e+01   2.5468107345e+01    0.4193535    0.2501265 -89.30   0.00189013    1.989    0.497
        33 -11.5976    219.7292     45.0327   6.8847334183e+01   2.4985503017e+01    0.2793249    0.2418296 -87.38  0.000928623    1.032    0.031
        34 -12.1978    205.3513     39.1065   6.9306138923e+01   2.9287244393e+01    0.6767749    0.3987151  76.76  0.003224061    1.690    0.408
        35 -13.3737    207.7340     44.4172   7.0293671741e+01   2.7971969282e+01    0.4886351     0.358848  43.22  0.002553546    1.627    0.385
        36 -11.9714    202.7774     42.6120   7.0535722218e+01   2.9438613807e+01    0.3587469    0.2287484  85.12  0.001392902    1.668    0.401
        37 -10.8606    136.0000    129.9893   1.0740091407e+02   2.9261320555e+01    0.6935003    0.1817713 -46.72  0.001925272    3.769    0.735
        38 -11.4509    134.8048    122.9718   1.0598795393e+02   3.1092453808e+01    0.8888761    0.2332363 -44.38  0.002446499    3.862    0.741
        39 -12.0874    160.7749    128.2582   1.0099885944e+02   2.4175324529e+01    0.5041468    0.4485587  76.21  0.002178387    1.189    0.159
        40 -11.6180     74.8104     46.0985   1.0066210126e+02   5.7531457322e+01    0.5711615    0.1493854  32.66  0.001400419    7.956    0.874
        41 -10.2018    164.4933     44.7178   7.7312227550e+01   3.8653062185e+01    0.1888346    0.1423269 -35.24 0.0009744923    1.423    0.297
        42 -10.6842    152.2999    119.7891   1.0088144055e+02   2.7932772110e+01    0.4294642    0.2717567 -23.00  0.001640975    2.309    0.567
        43 -12.1567    215.5726     37.1434   6.7501184276e+01   2.7071682640e+01    0.5222603    0.3638651  59.99  0.001041438    1.423    0.297
        44  -9.7756    166.1249     40.4697   7.5793339100e+01   3.8827871885e+01    0.1972659    0.1294266  60.93 0.0002924648    1.392    0.282
        45 -13.3249    168.0984    113.6159   9.5641435300e+01   2.5581504200e+01    0.9285187    0.7409778  33.57  0.002949887    1.389    0.280
        46 -11.5502     90.8384     35.5634   9.1804977076e+01   5.6280587908e+01     0.209605    0.1521673 -31.98 0.0007687384    1.425    0.298
        47 -10.9191    203.0735     29.7510   6.7295197363e+01   3.1065387400e+01    0.1929593    0.1693539 -76.57 0.0002895173    1.066    0.062
        48 -12.1889    120.7294    103.2887   1.0456761983e+02   3.8365805048e+01    0.4233145    0.4031319 -51.33  0.002307511    1.035    0.034
        49 -10.2752    194.3611     26.3281   6.7580503106e+01   3.3623202308e+01    0.1604064    0.1197415 -50.54  0.000242062    1.364    0.267
        50 -10.3274    111.6663    103.9294   1.0720787481e+02   4.0042674682e+01    0.2173378    0.1897939 -46.51 0.0007219604    1.108    0.097
        51  -9.6094    139.5807    103.2502   9.9662561389e+01   3.4323242233e+01    0.2099521    0.1483303 -31.58 0.0007538316    1.558    0.358
        52 -14.2528     61.1625    171.6441   1.3399328109e+02   3.2365733153e+01     0.881744    0.6507728  75.64  0.002438691    1.302    0.232
        53 -10.2304    177.6591     15.8256   6.7119688106e+01   3.8921702145e+01    0.1775269    0.1589996  13.49 0.0005582519    1.389    0.280
        54 -11.4206    192.2210    194.0789   1.0848760693e+02   3.8632384617e+00    0.9520892    0.4776939 -65.40  0.002452998    7.084    0.859
        55 -12.1379     67.8044    144.5232   1.2818692687e+02   3.7880184201e+01     3.168339     1.601455  85.80  0.008199443    4.854    0.794
        56 -14.5431      8.6628    209.5039   1.4838815658e+02   2.9965586453e+01     1.456764    0.8224674  87.83  0.007048878    1.374    0.272
        57 -10.2802     53.4227     13.2666   9.5442164773e+01   6.5211870856e+01    0.1548466   0.09904053 -34.17 0.0009571977    1.703    0.413
        58 -11.2656    144.7299     98.4948   9.7091020724e+01   3.4139630348e+01    0.3078346    0.2775436  12.36 0.0005855146    1.241    0.194
        59 -11.7297    230.0502    166.6436   9.5443828053e+01   1.4699451592e+00    0.3131967    0.1922913 -52.08  0.001244944    1.914    0.477
        60 -14.2724     65.5434    165.8900   1.3215712439e+02   3.3122774798e+01    0.9660028    0.7416945  58.96  0.001805087    1.297    0.229
        61 -14.5911     41.8170    188.3165   1.4023411337e+02   3.0973708786e+01     2.030353      1.45239 -75.17   0.01276882    1.209    0.173
        62 -15.1072     28.0054    199.0717   1.4402658242e+02   3.0175149327e+01     1.009493    0.7740664  83.48  0.003719541    1.024    0.024
        63 -12.4256    153.1947     91.8000   9.3215909656e+01   3.3505242550e+01    0.5856798    0.4570754  16.64  0.002708823    1.645    0.392
        64 -11.7461    137.8320     87.8564   9.5813754737e+01   3.7828482928e+01    0.3340718     0.308793  85.98 0.0008178936    1.169    0.145
        65  -9.4988    113.4501     95.0107   1.0428370722e+02   4.1587851589e+01    0.2191033    0.1429368 -43.79  0.000335173    1.494    0.331
        66 -12.8477    150.3227     80.6885   9.0743289580e+01   3.6290781026e+01    0.3586385    0.2817806 -35.72  0.001369727    1.313    0.238
        67 -13.7604    163.4797     64.7285   8.3272384117e+01   3.5879978702e+01    0.6796674    0.4508955  -8.26  0.002013782    2.312    0.568
