#   1 NUMBER                 Running object number                                     
#   2 MAG_AUTO               Kron-like elliptical aperture magnitude                    [mag]
#   3 X_IMAGE                Object position along x                                    [pixel]
#   4 Y_IMAGE                Object position along y                                    [pixel]
#   5 X_WORLD                Barycenter position along world x axis                     [deg]
#   6 Y_WORLD                Barycenter position along world y axis                     [deg]
#   7 A_WORLD                Profile RMS along major axis (world units)                 [deg]
#   8 B_WORLD                Profile RMS along minor axis (world units)                 [deg]
#   9 THETA_WORLD            Position angle (CCW/world-x)                               [deg]
#  10 FWHM_WORLD             FWHM assuming a gaussian core                              [deg]
#  11 ELONGATION             A_IMAGE/B_IMAGE                                           
#  12 ELLIPTICITY            1 - B_IMAGE/A_IMAGE                                       
         1 -14.1201     68.1839    144.2865   1.0430454067e+02   3.7253295762e+01     4.011612     2.132758  83.43  0.005147538    4.063    0.754
         2 -13.8152    231.8356     14.1085   3.5456308753e+01   2.6712018170e+01     1.063674    0.8620406  39.07  0.002652968    1.627    0.385
         3 -13.8166    203.9623     38.5582   4.4208385165e+01   3.0093509294e+01     1.566799     1.153919  14.52  0.005762211    1.910    0.476
         4 -13.6938    211.9695     33.7363   4.2027229897e+01   2.8853649831e+01     1.372679    0.9303411 -27.04  0.006427292    1.544    0.352
         5 -12.7391    219.0249     26.7244   3.9549448199e+01   2.8100451396e+01    0.5990672    0.4404404  43.11  0.001410124    1.671    0.401
         6 -10.3886      2.3940      7.2071   9.0554255859e+01   7.3176840890e+01    0.1509667   0.09051115 -45.68   0.00095865    1.705    0.414
         7  -9.5960    121.5791      2.8784   4.5499082717e+01   5.3382482022e+01    0.2553848    0.1646396 -89.48  0.001293454    2.038    0.509
         8  -9.4536     34.6290    238.1156   1.2216817038e+02   2.0359348858e+01     0.181207    0.1121648  57.12 0.0004465769    1.314    0.239
         9  -9.2235    174.0043    249.9980   9.7185635920e+01  -5.9554268421e-01    0.1770015    0.1380625  57.56  0.000813668    1.698    0.411
        10 -14.3083     76.1112    247.7642   1.1541667516e+02   1.3673457659e+01     4.186498    0.9038442  32.72   0.01256547    6.694    0.851
        11 -14.5480      8.0653    239.0125   1.2677381260e+02   2.2856277213e+01     1.992299      1.19949 -77.75   0.01427614    1.526    0.345
        12 -14.3422    121.0647    228.6617   1.0463289065e+02   1.0861271832e+01     5.682571     1.381546  34.82   0.01850832    4.290    0.767
        13  -9.6540     73.1547    230.3467   1.1437827127e+02   1.7287084765e+01    0.2467972    0.1473745  25.16  0.001023642    2.146    0.534
        14  -9.5207     33.7325    226.8580   1.2157028126e+02   2.2625250438e+01    0.1584091    0.1336009  87.93 0.0005799501    1.171    0.146
        15  -9.7435     37.0504    223.6070   1.2071982551e+02   2.2913870387e+01    0.1914319     0.138284  87.16 0.0005243034    1.186    0.157
        16  -9.9963     40.8769    247.3036   1.2167453059e+02   1.7976768922e+01     0.363539    0.2188352 -55.97  0.001799405    2.121    0.529
        17 -11.3530     30.4554    219.2299   1.2164326888e+02   2.4493916688e+01    0.4619192    0.2379723 -85.87  0.002659786    1.795    0.443
        18  -9.9666     93.5900    220.2341   1.0920406866e+02   1.6499638615e+01    0.2193148    0.1810105  58.53 0.0006139069    1.089    0.082
        19 -11.9401     30.6080    249.3259   1.2355322668e+02   1.8724462362e+01    0.5804814    0.4563835  15.00  0.003467633    2.046    0.511
        20 -11.0005    183.2951    215.5837   8.9992148747e+01   3.3090459971e+00    0.2939851    0.2206047  60.90   0.00158827    1.957    0.489
        21  -8.5468    113.2742    207.6900   1.0340986818e+02   1.6100484761e+01    0.1303288    0.0970566  71.54 0.0002649502    1.552    0.356
        22 -13.1207     85.4425    226.5523   1.1156878705e+02   1.6391714262e+01     1.468626    0.6963933  60.01  0.003400711    2.525    0.604
        23 -10.7609    193.0392    193.9160   8.4074976179e+01   5.3828688452e+00    0.8354193    0.4211368 -56.01  0.003124311    3.550    0.718
        24 -10.6497     28.5217    245.9784   1.2371096827e+02   1.9549825951e+01    0.2583496    0.2389904 -64.11  0.001194582    1.538    0.350
        25  -8.8344     65.2838    192.6202   1.1200272438e+02   2.6175292516e+01    0.1376583    0.0872286  74.08 0.0007012145    1.724    0.420
        26 -11.9736     58.4071    180.3811   1.1209304181e+02   2.9817492050e+01    0.4168844    0.2679516 -39.48   0.00133513    2.050    0.512
        27 -11.9948     64.0073    174.6681   1.1004125500e+02   3.0455186664e+01    0.3733077    0.2509793 -55.29 0.0006445237    1.458    0.314
        28  -8.9566     99.3401    180.9526   1.0253515725e+02   2.4014422550e+01    0.1875569    0.1721204 -67.18 0.0005048038    1.075    0.069
        29 -12.5160     74.8804    135.8634   1.0088676914e+02   3.8417152191e+01     1.112821    0.5775093  66.38  0.003634107    4.137    0.758
        30 -11.6377     74.2517    164.7146   1.0609370006e+02   3.1471495127e+01    0.3320508    0.2893305 -72.36 0.0004155949    1.051    0.049
        31 -13.0448     81.2708    158.0908   1.0323015457e+02   3.2080680853e+01     1.297526    0.9140422  64.38  0.001190533    1.636    0.389
        32 -10.8879     61.5444    235.0296   1.1702239678e+02   1.7849434541e+01    0.2686798    0.1819825  73.15  0.000488304    1.367    0.269
        33 -13.4411     61.1872    160.9186   1.0881119245e+02   3.4085814004e+01    0.5400124     0.326674 -42.61  0.001541144    1.909    0.476
        34  -9.1256    157.4122    160.2168   8.4824789549e+01   1.8415328734e+01      0.20406    0.1413548 -56.15 0.0005349453    1.632    0.387
        35 -13.2518     29.5809    208.5483   1.2102531814e+02   2.6788104915e+01    0.5985262    0.3812897 -44.20   0.00235052    2.274    0.560
        36 -15.7759     37.0331    192.7636   1.1817682663e+02   2.9427288230e+01     8.778522     3.286614  84.65   0.02725001    5.645    0.823
        37 -12.8633     18.5177    219.0152   1.2384957619e+02   2.5732277785e+01    0.4209402    0.3307371 -84.24  0.001700209    1.201    0.168
        38 -10.3222    134.0000    146.9646   8.7486801364e+01   2.5814039930e+01    0.6201859    0.1780825 -53.85  0.001611637    4.605    0.783
        39  -9.1165    137.5645    146.0326   8.6393282831e+01   2.5341503533e+01    0.2326284    0.1466084 -50.01  0.001006425    1.570    0.363
        40 -10.7337     96.5036    143.8391   9.6540666954e+01   3.3200351351e+01       0.3792    0.3130187 -28.52 0.0008431151    1.344    0.256
        41  -9.5265     99.9086    140.0914   9.4839519511e+01   3.3544561191e+01    0.3852738     0.229248 -22.71  0.001425661    2.861    0.651
        42 -11.4441     29.6286    143.6501   1.1457195388e+02   4.1675936346e+01    0.3334588     0.301589  -6.51  0.001396763    1.420    0.296
        43 -12.2446     84.5433    142.2495   9.9461766819e+01   3.5450323277e+01    0.3124052    0.2526628 -50.42 0.0005282415    1.162    0.140
        44  -9.8764    159.1081    135.3073   7.8674659549e+01   2.3381225370e+01    0.2906337    0.2178356 -52.65 0.0006936248    1.410    0.291
        45 -10.9441    107.2173    131.6390   9.0969633934e+01   3.4313522050e+01    0.4655681    0.3894568  44.68  0.001646701    1.278    0.217
        46 -11.4966     18.9908    130.8899   1.1578049503e+02   4.5667736852e+01    0.4293668    0.1776492  43.43  0.001968739    2.776    0.640
        47 -11.2494     35.8985    171.1900   1.1627231133e+02   3.4474928754e+01    0.2808662    0.2545901 -63.23  0.001260551    1.228    0.186
        48 -10.6858     95.8335    128.0084   9.3294587649e+01   3.7128233220e+01    0.3510853    0.2593437 -22.50  0.001654127    1.644    0.392
        49  -9.4573    137.4863    170.5375   9.1608812893e+01   1.9916488298e+01    0.1450292     0.140064  -5.06 0.0001207259    1.031    0.030
        50  -9.9977    239.4988    126.5245   6.0850487274e+01   8.8110602462e+00    0.1417145    0.1200071 -25.58 6.622747e-06    1.016    0.015
        51  -9.7873    115.3254    125.3748   8.7260400488e+01   3.4315633582e+01    0.2412824    0.1824846 -11.16  0.001035995    1.682    0.405
        52  -9.7345    105.9438    120.1044   8.8547789450e+01   3.7262441987e+01    0.2200301    0.2040111 -30.72 0.0002827967    1.049    0.047
        53 -10.2515     23.7033    116.9495   1.1244252384e+02   4.8695796569e+01    0.1886897    0.1401694 -67.38 0.0003007854    1.092    0.084
        54  -9.6894    168.1528    113.3208   7.0981721861e+01   2.6018569157e+01    0.2932754    0.2354779 -80.02  0.001094619    1.684    0.406
        55 -14.3261      9.6785    206.8732   1.2474145759e+02   2.9035339809e+01    0.8953719    0.7805418  21.92  0.002742995    1.624    0.384
        56 -10.2066    205.0186    110.6873   6.2885280260e+01   1.8478860545e+01    0.3628408    0.2567372  30.45  0.001169467    1.661    0.398
        57 -11.4187    244.8672    109.1325   5.6031731868e+01   1.0688997600e+01    0.2211823    0.1766059 -49.87   0.00126042    1.258    0.205
        58  -9.9387    134.4829    102.9712   7.6182807673e+01   3.5484750763e+01    0.3085929     0.147776 -37.87 0.0008082228    2.060    0.515
        59 -10.7271    247.5967    101.8069   5.3958401258e+01   1.1355096723e+01    0.2101925     0.105966 -43.15 0.0009578525    1.738    0.425
        60 -10.3636    160.8270     81.8644   6.3750886140e+01   3.3719043916e+01    0.2378553    0.2080757   2.95 0.0006649453    1.235    0.190
        61  -8.9203    184.5173     77.4682   5.7787665401e+01   2.8937081683e+01    0.1481396    0.1408815 -11.79  4.28212e-05    1.076    0.070
        62 -10.9321     13.4262     60.1454   1.0447290018e+02   6.2594381970e+01    0.2386094    0.1797994 -51.39 0.0004193732    1.106    0.096
        63  -9.6249     29.2659     60.0108   9.7900797410e+01   6.1396959442e+01    0.2357221    0.1438192  49.67  0.001167424    2.679    0.627
        64  -9.6444     35.2315     56.0135   9.4177260404e+01   6.1646790414e+01    0.1987303    0.1723982   3.03 0.0005780423    1.246    0.197
        65 -10.0307     53.1575    240.1899   1.1899010629e+02   1.7882867342e+01    0.2995648      0.17739 -49.69  0.001610986    2.338    0.572
        66 -10.6146     56.9507    239.0044   1.1820375901e+02   1.7654559786e+01    0.3685045     0.182504 -82.43   0.00179709    2.203    0.546
        67 -13.5998      4.9417    180.8090   1.2396605972e+02   3.5045677633e+01     2.209851    0.6004956 -80.17  0.008838079    3.313    0.698
        68 -12.0878     40.7400    235.2080   1.2087703876e+02   2.0243386583e+01    0.2763404    0.1931736  75.37  0.000517373    1.199    0.166
        69 -10.8566    134.1631     41.0918   5.6559654411e+01   4.6452069866e+01    0.3979041    0.2777036 -71.65 0.0006344573    2.133    0.531
        70 -10.1659    189.7812     15.0836   3.9681073401e+01   3.6097339867e+01    0.2021786    0.1606557 -63.14 0.0007049359    1.229    0.187
        71 -11.7130     37.9372    230.7728   1.2107346545e+02   2.1405881244e+01     0.228477    0.1862525 -76.26 0.0003938339    1.306    0.234
