#   1 NUMBER                 Running object number                                     
#   2 MAG_AUTO               Kron-like elliptical aperture magnitude                    [mag]
#   3 X_IMAGE                Object position along x                                    [pixel]
#   4 Y_IMAGE                Object position along y                                    [pixel]
#   5 X_WORLD                Barycenter position along world x axis                     [deg]
#   6 Y_WORLD                Barycenter position along world y axis                     [deg]
#   7 A_WORLD                Profile RMS along major axis (world units)                 [deg]
#   8 B_WORLD                Profile RMS along minor axis (world units)                 [deg]
#   9 THETA_WORLD            Position angle (CCW/world-x)                               [deg]
#  10 FWHM_WORLD             FWHM assuming a gaussian core                              [deg]
#  11 ELONGATION             A_IMAGE/B_IMAGE                                           
#  12 ELLIPTICITY            1 - B_IMAGE/A_IMAGE                                       
         1 -16.3139    240.4224    172.8857   6.8211588086e+01  -3.6724075330e-02     8.882421     2.673327  33.09   0.02733104    5.230    0.809
         2 -18.7672    242.2019     68.7122   4.5424772668e+01   1.6763188655e+01     6.359226     5.112927 -46.81   0.02790117    1.103    0.093
         3 -14.4678    136.0378     28.0617   5.0729467097e+01   4.7683639698e+01     1.277546    0.3981149  62.51  0.004377489    3.054    0.673
         4 -11.3053    116.1851     12.5983   4.9494852596e+01   5.4094918581e+01    0.2214625    0.1864458  17.37  0.001340214    1.258    0.205
         5 -12.9602    120.2567      9.1378   4.7401095958e+01   5.3453847072e+01     0.438712    0.3592056  42.50  0.001600419    1.125    0.111
         6 -11.3927    224.7908      7.3765   3.3634326712e+01   2.8526187887e+01    0.4164851    0.1262349  55.44  0.001614858    3.840    0.740
         7 -13.9248     13.2835      3.5488   8.4213058024e+01   7.3287593008e+01     1.931815    0.4227979  25.72  0.007036187    5.360    0.813
         8 -12.5672    124.4233    227.1900   1.0160589280e+02   1.0053594914e+01    0.3207451    0.2319673  26.26  0.001792734    1.430    0.301
         9 -13.5313      4.3298    245.8688   1.2690827508e+02   2.2124273561e+01    0.8380004    0.3938168  79.88  0.005200583    1.793    0.442
        10 -12.3355    178.6714    159.0009   7.7379137845e+01   1.3835197964e+01    0.4291312    0.2527154  42.13  0.001870282    1.688    0.408
        11 -11.8239    133.6181    145.0791   8.5071095832e+01   2.6065431021e+01     1.136329    0.2762654 -54.68  0.002444431    6.659    0.850
        12 -14.4803     26.8390    143.5110   1.1461899112e+02   4.2503090480e+01     0.829434    0.6930889 -73.63  0.004948384    1.053    0.051
        13 -12.2520     67.6679    143.9582   1.0310963358e+02   3.7767530332e+01     0.903684    0.4683344  65.07  0.003332685    3.043    0.671
        14 -12.7457     52.1301    135.8816   1.0628505079e+02   4.1776594088e+01    0.3932069    0.3773528  88.82 0.0008213649    1.086    0.079
        15 -14.6969     64.0897    132.3006   1.0208814361e+02   4.1164316346e+01      1.51318     1.065678  10.94  0.004976432    1.857    0.461
        16 -10.0032    228.3912    142.4576   6.3932520085e+01   7.2099716037e+00    0.2328663    0.1165095 -47.14 0.0006748372    2.075    0.518
        17 -10.1911    222.4061    145.1914   6.5586886901e+01   7.8515307062e+00     0.181005    0.1516974 -38.25  0.000300629    1.137    0.120
        18 -10.5349    144.5192    139.5115   8.1025246760e+01   2.5089070370e+01    0.1557542    0.1522962  78.35 0.0001360753    1.054    0.051
        19 -14.7539    203.3682     64.3018   4.9539376829e+01   2.6062039016e+01     1.720827     1.024342  51.83  0.007009699    1.769    0.435
        20 -14.4396    231.2222    225.1492   7.9648309154e+01  -6.5430796590e+00     3.384803     1.779147  29.06   0.01836628    1.730    0.422
        21  -9.6438    211.2167    110.3085   5.9599106352e+01   1.6446264267e+01    0.1369799    0.1091529 -12.79 0.0002201204    1.470    0.320
        22 -10.8461    206.2246    109.5787   6.0308510872e+01   1.7662326653e+01     0.277089    0.2536625 -44.72 0.0007504192    1.031    0.030
        23 -12.1139    156.5064    113.2004   7.1575399235e+01   2.8206974709e+01    0.3054779     0.229725  47.04  0.001411572    1.336    0.251
        24 -10.6979    192.2237    108.0182   6.2537792006e+01   2.1070135194e+01    0.3553962    0.2504713 -63.31  0.001606659    1.707    0.414
        25 -10.6968    207.4597    104.2141   5.8791126848e+01   1.8367034498e+01    0.3149709    0.2097554 -64.01 0.0009420986    1.874    0.466
        26 -14.6186    227.7126     90.4161   5.2260283505e+01   1.6368866145e+01    0.8746812    0.3270527 -51.89  0.002975458    3.329    0.700
        27 -12.1983    157.8575     89.1979   6.4761982779e+01   3.2722507992e+01     0.521309    0.2195847 -39.74  0.001845478    2.377    0.579
        28 -11.4501    157.6187     84.2985   6.3433624498e+01   3.3704971787e+01    0.2941848    0.2182445 -64.94  0.000680255    1.603    0.376
        29 -10.9849    138.8672     91.1051   6.9882519057e+01   3.6816825216e+01    0.2371561    0.2110166 -77.04 0.0003192114    1.261    0.207
        30 -12.6553    131.9034     86.1939   7.0259999793e+01   3.9394531649e+01    0.4386542    0.2635624  46.88  0.001543954    1.643    0.391
        31  -9.9925     99.1817     85.5067   7.9551461013e+01   4.6494596448e+01    0.2077108    0.1473805  39.01 0.0003647338    1.424    0.298
        32 -10.7871    186.7020     82.5333   5.7032716430e+01   2.7017531817e+01    0.2931141    0.2373772 -59.34 0.0008070896    1.259    0.206
        33 -12.4070    183.0875     77.8908   5.6464145941e+01   2.8690169639e+01    0.5313171    0.3847896  87.63  0.001584516    1.691    0.408
        34 -10.2229    198.1199     80.5049   5.4493980005e+01   2.4663769187e+01    0.2039673    0.1435588  60.76 0.0003473644    1.457    0.314
        35 -12.5106    136.8338     78.0712   6.6555883804e+01   3.9820528133e+01    0.2743207    0.2644901 -29.24 0.0008675812    1.058    0.054
        36 -12.0660    160.1563    128.4933   7.4571722923e+01   2.4142877388e+01    0.4286826    0.3780125 -13.70  0.002150063    1.236    0.191
        37 -11.3451    187.8762    132.9450   6.9485203344e+01   1.7172006977e+01    0.4044142     0.325702  76.83  0.001960409    1.590    0.371
        38 -12.3801    127.0882     77.4116   6.8893562700e+01   4.2198447592e+01    0.3017102    0.2277825 -46.70 0.0007661066    1.380    0.275
        39 -11.0163    176.2236    132.2698   7.1820726258e+01   1.9828132331e+01    0.2838588    0.2469989 -82.35  0.000739092    1.371    0.271
        40 -11.0639    157.5322     75.2199   6.0847844838e+01   3.5376022672e+01    0.3922649    0.1930212  51.94  0.001532258    1.971    0.493
        41 -12.4954    152.4224     71.8108   6.0975554687e+01   3.7219590208e+01    0.4802585    0.2913718 -42.27  0.002092082    1.679    0.404
        42 -12.4812    140.8808     72.3059   6.3806153469e+01   3.9917369089e+01     0.384697    0.2045902 -30.44  0.001507662    2.143    0.533
        43  -9.6828    111.2792     71.3252   7.1420699614e+01   4.6852944741e+01    0.1508333    0.1159376   2.74 0.0002087393    1.591    0.372
        44 -11.3056    105.9595     64.2394   7.0677319231e+01   4.9292045608e+01    0.6572621    0.1967946 -39.42  0.002089337    3.399    0.706
        45 -11.4760    162.4392     62.1227   5.6014203985e+01   3.6380094125e+01    0.4392663    0.2620176 -10.81  0.001651307    2.873    0.652
        46 -13.1287    144.1493     59.6250   5.9138418654e+01   4.1284583641e+01    0.4648891    0.2994171 -45.13  0.001262574    1.644    0.392
        47 -11.8354    124.0947     60.3281   6.4255744343e+01   4.5946385529e+01    0.3969933    0.2126885 -32.72  0.001595189    1.995    0.499
        48 -11.6569    150.5832    121.8376   7.5226961077e+01   2.7692469159e+01    0.2666536    0.1982539  52.80  0.001211281    1.394    0.283
        49 -12.5191    162.6456     55.6241   5.4074565320e+01   3.7346381714e+01    0.3345645    0.2443232 -73.62  0.001596557    1.642    0.391
        50 -10.2274    224.8350    119.1762   5.9343423849e+01   1.2017124298e+01    0.2259154    0.1687751  -2.75  0.001114794    1.748    0.428
        51 -10.1281    183.9518    117.5981   6.6585119724e+01   2.1080785338e+01    0.4332412     0.219677 -28.45  0.001406276    2.544    0.607
        52 -13.6249    137.7236     50.4003   5.7677409509e+01   4.4284447844e+01    0.8698871    0.3438487 -21.22  0.002479109    4.908    0.796
        53 -13.0945    135.8676     44.8785   5.6305039567e+01   4.5541620334e+01    0.5249966    0.2450524  43.20  0.002072812    2.218    0.549
        54 -13.1028    133.6591     41.3276   5.5632290262e+01   4.6573691706e+01    0.4667783    0.2695558 -53.85  0.001998204    2.250    0.556
        55 -11.5865    187.2601     48.2692   4.7799708689e+01   3.2328584293e+01    0.4132864     0.321992  -0.18  0.001465586    1.784    0.440
        56 -12.0238    166.7975    116.2006   6.9956561786e+01   2.5241652746e+01    0.4867667    0.2632613  48.00  0.001932131    1.870    0.465
        57 -12.9703    155.3855     43.1191   5.1727987202e+01   4.0970993251e+01    0.4347823     0.283725  57.04   0.00211128    1.415    0.293
        58 -12.3875    193.6723     39.3100   4.4520251264e+01   3.1991876298e+01    0.7978768    0.3771351  68.79 0.0008779885    2.063    0.515
        59 -10.0301    179.0334     41.2369   4.7147607585e+01   3.5328725820e+01     0.191624    0.1646704  78.03 0.0002423462    1.078    0.073
        60 -14.2571    214.7114    167.8527   7.1862929485e+01   5.2283792243e+00     2.996542     1.607743  65.09  0.008453452    6.534    0.847
        61 -10.4824    169.8557     31.8633   4.5934464835e+01   3.8820240414e+01    0.2108754    0.1782807  46.91 0.0006510063    1.253    0.202
        62 -11.7999    152.0004     17.6892   4.4552349128e+01   4.4884439341e+01    0.2392679    0.2039847   2.63 0.0007863675    1.422    0.297
        63 -14.0467    231.5433    157.1832   6.6534394271e+01   4.0795122771e+00     2.677647     1.224325  42.60   0.01168448    2.352    0.575
        64 -15.5466    246.0715    192.1790   7.1007127508e+01  -3.9199935722e+00     2.500684     1.760234   9.25   0.01095209    1.398    0.284
        65 -14.1344    180.6156    233.8751   9.0834118989e+01  -1.9872061661e-01     3.831338    0.3791873  36.31  0.006620908   14.268    0.930
