#   1 NUMBER                 Running object number                                     
#   2 MAG_AUTO               Kron-like elliptical aperture magnitude                    [mag]
#   3 X_IMAGE                Object position along x                                    [pixel]
#   4 Y_IMAGE                Object position along y                                    [pixel]
#   5 X_WORLD                Barycenter position along world x axis                     [deg]
#   6 Y_WORLD                Barycenter position along world y axis                     [deg]
#   7 A_WORLD                Profile RMS along major axis (world units)                 [deg]
#   8 B_WORLD                Profile RMS along minor axis (world units)                 [deg]
#   9 THETA_WORLD            Position angle (CCW/world-x)                               [deg]
#  10 FWHM_WORLD             FWHM assuming a gaussian core                              [deg]
#  11 ELONGATION             A_IMAGE/B_IMAGE                                           
#  12 ELLIPTICITY            1 - B_IMAGE/A_IMAGE                                       
         1 -15.2657     11.0631    149.8664   1.4415491916e+02   4.2962801651e+01     8.717463     2.880382  88.95   0.03315036    3.787    0.736
         2 -13.5942    197.7494     27.3704   6.7346432024e+01   3.2360931830e+01     1.599221     1.450868  26.00  0.007003699    1.313    0.238
         3 -13.5103    212.4075      8.9685   6.0820763957e+01   3.0715540499e+01     1.056708    0.8956553  57.74  0.004143742    1.289    0.224
         4 -12.6268      3.1890      8.0671   1.1900928129e+02   7.3588703013e+01     1.061422    0.2907785 -46.60  0.005178023    2.571    0.611
         5 -11.5501    171.6222    248.5110   1.2181063357e+02   1.0149922906e+00    0.3325149    0.2183178  31.53  0.002082313    1.319    0.242
         6 -10.6066    249.3447    248.9560   1.0841011975e+02  -1.0715813545e+01    0.2095728    0.1496124 -22.15  0.001527823    1.539    0.350
         7 -12.7415    141.0937    248.7313   1.2739052869e+02   5.8535568473e+00    0.7744672    0.3140879  42.18  0.003880039    1.901    0.474
         8 -10.8957     97.8961    248.8588   1.3523284336e+02   1.2444549748e+01    0.2328863    0.2173861  33.39  0.001783384    1.460    0.315
         9 -10.8295    101.4310    246.4825   1.3437727949e+02   1.2313328707e+01    0.2143049     0.159308  73.38 0.0006768501    1.286    0.223
        10 -10.7224     46.0229    248.7626   1.4423277853e+02   1.9397434271e+01    0.3444295    0.1434018  66.48  0.001439526    2.209    0.547
        11 -11.0455     29.6012    248.4857   1.4692170575e+02   2.1348018041e+01    0.3202134    0.2181658 -80.06  0.002471968    1.522    0.343
        12 -11.4894     34.8637    244.5942   1.4585414278e+02   2.1424738610e+01     0.482971    0.2622092  78.25  0.003248032    1.560    0.359
        13 -11.3222     11.5755    249.1532   1.4981706183e+02   2.3154149319e+01    0.3428147    0.2345101  41.53   0.00270937    1.628    0.386
        14 -12.1013     11.9020    241.7969   1.4946345141e+02   2.4384693840e+01    0.3781337    0.2446641 -86.66  0.002945295    1.402    0.287
        15  -9.7500      2.2870    249.9800   1.5127693254e+02   2.3936292237e+01    0.1892085    0.1349754  79.77 0.0009694953    1.207    0.172
        16 -10.3642      2.9621    246.4897   1.5104982313e+02   2.4461141182e+01     0.225522   0.09795488  52.00   0.00107225    1.620    0.383
        17 -12.5010    124.9219    248.7516   1.3034003773e+02   8.3864322574e+00    0.5448612    0.3806499  33.46  0.003511143    1.449    0.310
        18 -11.1978    107.3332    248.1231   1.3346668518e+02   1.1168429513e+01    0.2995068    0.1552511  51.48  0.001729278    1.520    0.342
        19 -10.6080    198.4011    245.8058   1.1663636168e+02  -2.8763303792e+00    0.1495008    0.1052959 -15.42 0.0008249657    1.717    0.418
        20 -11.0824     20.0131    243.4973   1.4823405643e+02   2.3249497626e+01    0.3547857    0.1009104  60.20  0.001769499    2.841    0.648
        21  -9.9464      1.5059    241.0284   1.5107773198e+02   2.5539263744e+01    0.2452797   0.07759792 -82.28  0.001369447    2.753    0.637
        22  -9.5147    249.5126    236.4921   1.0641781655e+02  -9.4432038211e+00    0.1157285   0.08566733  14.38 0.0008104488    1.017    0.017
        23 -11.0514     50.1134    234.8667   1.4264459534e+02   2.1338793332e+01    0.2920222    0.1346626 -64.59  0.001690672    2.373    0.579
        24 -11.7813     22.4940    126.9217   1.3895904665e+02   4.7268826587e+01    0.3922586    0.2277517  52.99  0.001399755    1.838    0.456
        25 -11.3672    239.3014    247.9515   1.0990998209e+02  -9.2242824037e+00     0.284099    0.1959408 -34.79  0.001959206    1.867    0.464
        26 -13.8380     38.2503    226.4632   1.4419968584e+02   2.4299693624e+01    0.6813014    0.4882692  70.53  0.002413902    1.026    0.025
        27 -12.3375    135.1116    231.6606   1.2646968041e+02   9.4815594623e+00    0.9803984    0.1532223  40.38  0.002772309    5.537    0.819
        28 -13.1648     93.3835    227.6707   1.3404374767e+02   1.6749633366e+01     2.091919          nan  45.61  0.004614881    9.860    0.899
        29 -12.5212    113.1644    231.7009   1.3068162242e+02   1.3006500494e+01    0.7776511    0.1797204  41.66  0.002861144    3.407    0.706
        30  -9.8865     54.3767    229.5983   1.4150866965e+02   2.1768933267e+01    0.2626068    0.1310449  65.06  0.001507464    1.765    0.434
        31 -10.1827    173.6639    222.6459   1.1780544314e+02   4.3933910399e+00     0.331614    0.1946294  48.38  0.001771973    1.564    0.360
        32 -12.6387      9.3819    207.3364   1.4828593445e+02   3.1001665882e+01    0.6564806     0.503117  32.48  0.003125133    1.737    0.424
        33 -11.6943     59.9601    199.2991   1.3789325127e+02   2.6972213572e+01    0.2512001     0.215793 -78.74 0.0005023112    1.273    0.214
        34  -9.8864    193.0931    195.3917   1.0951627330e+02   5.2054229946e+00    0.6070516    0.3012492 -61.51  0.001747801    6.868    0.854
        35 -11.9919     14.1222    196.5636   1.4680721253e+02   3.2695814050e+01    0.3029442    0.1666817  57.89 0.0009567997    1.487    0.328
        36 -11.7987      2.8804    183.5919   1.4823320401e+02   3.6359867606e+01    0.4535388    0.1969601 -83.05  0.002417891    1.848    0.459
        37 -11.9191     66.4264    190.8459   1.3567969580e+02   2.7880126641e+01     0.255866    0.2286807 -82.00 0.0004814383    1.231    0.188
        38  -8.7562    152.5301    213.1242   1.2052557478e+02   9.6181195873e+00    0.1600357    0.1320304 -53.75 0.0003287708    1.432    0.302
        39 -10.8223     76.7549    177.9073   1.3187807669e+02   2.9225611737e+01    0.2344145    0.2030651 -83.53 0.0003604903    1.125    0.111
        40 -13.1988     63.4122    175.9341   1.3467460303e+02   3.1517739886e+01     0.483394    0.2788161 -47.99  0.001801707    2.229    0.551
        41  -9.3235     97.8423    174.8977   1.2660648074e+02   2.6627270050e+01    0.2020424    0.1736923  74.00 0.0004181974    1.047    0.045
        42 -11.6544     83.8759    169.1981   1.2904442079e+02   3.0099775075e+01    0.5430412    0.5020012 -24.97  0.003334832    1.447    0.309
        43  -9.7227     93.0859    167.2976   1.2657353857e+02   2.9080744351e+01    0.3673733    0.2343306  44.76  0.001077918    1.496    0.331
        44 -12.5796     47.9748    215.7941   1.4166675247e+02   2.5177047364e+01    0.6511586    0.5688683 -66.25  0.003487685    1.518    0.341
        45 -10.0434     97.2089    152.6075   1.2314869953e+02   3.1732709704e+01    0.2879404    0.2750739 -55.36 0.0008047037    1.182    0.154
        46  -9.2804    100.0332    148.6415   1.2172339104e+02   3.2163563407e+01     0.203627    0.1941436  -8.23 0.0004642755    1.281    0.220
        47 -12.0358     85.7131    151.8055   1.2591189775e+02   3.3784280760e+01     0.290887    0.2541152 -47.62 0.0006049874    1.304    0.233
        48 -12.2441     67.3641    143.6157   1.2931254003e+02   3.8394021743e+01    0.6792743    0.4178267  64.88  0.002824517    1.823    0.451
        49 -11.2217     31.1487    131.5430   1.3720297508e+02   4.5421973653e+01    0.3145495    0.1986577  51.55  0.001098198    1.659    0.397
        50  -8.8537     78.8338    131.2643   1.2409946815e+02   3.9664957927e+01    0.2381207    0.1349771  71.28 0.0009359344    2.705    0.630
        51 -10.4444     96.2511    134.7942   1.2005625338e+02   3.6025435015e+01    0.2399294    0.2264815 -35.39 0.0003613598    1.206    0.171
        52  -9.8651    109.0090    137.7382   1.1728783652e+02   3.3075806778e+01    0.3973514     0.271459 -20.75  0.001336406    2.445    0.591
        53  -8.8531    106.3756    124.0254   1.1502633807e+02   3.6722700930e+01    0.1972289    0.1727967 -59.40 0.0003810699    1.110    0.099
        54  -9.8193    168.0962    113.1983   9.6883619366e+01   2.5794116843e+01     0.333859    0.2703662 -79.27 0.0009905847    1.513    0.339
        55  -9.3439    203.1667    111.8131   8.9350189433e+01   1.7811909795e+01    0.2106685    0.1793796   5.97 0.0006230978    1.332    0.249
        56 -12.8078     33.0404    233.3627   1.4553285005e+02   2.3625889660e+01    0.2590447    0.2163788  87.43 0.0007470209    1.333    0.250
        57 -10.0579    157.9976     76.6945   8.8913749936e+01   3.5253482155e+01    0.2268416    0.2027148  57.72 0.0006339277    1.108    0.097
        58  -8.2938     45.6896     69.2518   1.2061932353e+02   5.8299846927e+01    0.1161606   0.09865612  76.07 0.0002020988    1.516    0.340
        59  -9.7701     39.6581     65.9052   1.2197919770e+02   5.9658085689e+01    0.2742281    0.1782093  52.90  0.001183055    2.146    0.534
        60  -9.0429     31.3495     62.0897   1.2417204543e+02   6.1264001761e+01    0.1718861    0.1370984 -51.93 0.0004108044    1.075    0.070
        61 -11.8755     11.6561     53.9317   1.3006053104e+02   6.4451656338e+01    0.3993689    0.2026314  42.44  0.002051805    2.733    0.634
        62 -12.3323      2.7868     37.8372   1.2977405996e+02   6.8201095809e+01    0.5944247    0.1679121 -61.81  0.002643557    2.828    0.646
        63 -10.7505    227.6631    249.8338   1.1214677712e+02  -7.7630701118e+00    0.3275345   0.06810448  43.26  0.001143254    4.704    0.787
        64 -10.9588    191.0228    248.6813   1.1835176580e+02  -2.0802155362e+00     0.238509    0.1918286  82.67  0.001534597    2.131    0.531
