#   1 NUMBER                 Running object number                                     
#   2 MAG_AUTO               Kron-like elliptical aperture magnitude                    [mag]
#   3 X_IMAGE                Object position along x                                    [pixel]
#   4 Y_IMAGE                Object position along y                                    [pixel]
#   5 X_WORLD                Barycenter position along world x axis                     [deg]
#   6 Y_WORLD                Barycenter position along world y axis                     [deg]
#   7 A_WORLD                Profile RMS along major axis (world units)                 [deg]
#   8 B_WORLD                Profile RMS along minor axis (world units)                 [deg]
#   9 THETA_WORLD            Position angle (CCW/world-x)                               [deg]
#  10 FWHM_WORLD             FWHM assuming a gaussian core                              [deg]
#  11 ELONGATION             A_IMAGE/B_IMAGE                                           
#  12 ELLIPTICITY            1 - B_IMAGE/A_IMAGE                                       
         1 -11.0657    188.1126     41.7864   4.8809124038e+01   3.2881068887e+01     1.099568    0.8590489  21.01  0.005681747    1.595    0.373
         2 -10.2642    211.2149      5.3801   3.6089700181e+01   3.1421631353e+01    0.7062377    0.4901004  38.91  0.003853488    1.862    0.463
         3 -10.1944    210.2072     12.4047   3.8070773930e+01   3.0964407592e+01     0.584165    0.3399749 -62.37  0.002947503    1.695    0.410
         4 -10.2277    216.0272      9.5439   3.6865948563e+01   2.9901560430e+01    0.5562638    0.3687609 -25.08  0.002358727    1.468    0.319
         5  -8.0931    236.4889      8.8743   3.5358500409e+01   2.5444562731e+01    0.1729991    0.1601393  80.63 0.0003390074    1.250    0.200
         6  -8.6503    121.6710      7.6160   4.6987689565e+01   5.4236906704e+01     0.426577    0.2015493  44.42  0.001323255    2.209    0.547
         7  -8.2091    248.0909      3.0245   3.3335330501e+01   2.3603046873e+01    0.1743285    0.1497191 -46.49  0.000345316    1.095    0.087
         8  -8.4152    217.5583    231.4697   8.5150812354e+01   2.7754620642e-01     0.175222    0.1328238  10.35 0.0002129365    1.077    0.072
         9  -8.4569    123.1868    250.3315   1.0420683437e+02   1.0031198686e+01    0.2762229      0.11138  26.26  0.001348053    2.600    0.615
        10  -9.5775    104.2194    249.3280   1.0766455637e+02   1.2532971248e+01    0.2897953    0.2175033   3.93  0.001636899    1.787    0.440
        11 -17.6422     22.9444    239.1799   1.2243897992e+02   2.3132157195e+01     2.727356     1.992293  35.02   0.01608943    1.338    0.253
        12  -7.5731    186.0000    230.0110   9.0347195849e+01   4.4738789024e+00    0.1517756   0.06230401 -39.96 0.0004329178    2.903    0.655
        13  -9.6108     66.9327    207.0365   1.1174027681e+02   2.4154743159e+01    0.3205595    0.2571117 -22.38  0.001597229    1.871    0.465
        14  -9.1576     73.0520    203.5263   1.1009746760e+02   2.4066440556e+01    0.4805102    0.2192029  50.44  0.002439106    1.922    0.480
        15  -8.9496    204.3523    208.4395   8.3980497281e+01   4.6533905466e+00    0.2162639    0.1616599  32.80  0.001007009    1.317    0.240
        16  -9.1186    205.4417    204.0072   8.3095037460e+01   5.0579529846e+00    0.2083608     0.163496  27.21 0.0001486617    1.215    0.177
        17 -10.7175    146.2007    222.2502   9.6774779021e+01   1.0947110910e+01    0.3649107    0.2557814   4.36  0.002266871    1.709    0.415
        18  -9.2907     80.5448    220.6723   1.0995957633e+02   2.0016212646e+01    0.1887682     0.145359 -73.54 0.0008149826    1.534    0.348
        19  -7.4341     75.9434    209.2726   1.0996685057e+02   2.2629808373e+01    0.1695263    0.1266478  43.45 0.0007124307    1.091    0.083
        20 -10.2264    235.8916    207.2055   7.8532850177e+01   6.1794530749e-01    0.2003122    0.1526391  15.86 0.0003487781    1.155    0.134
        21  -8.2644    127.9423    206.0299   9.8441603812e+01   1.6092732671e+01    0.1829239    0.1571501  30.84 0.0004409068    1.054    0.051
        22  -8.0057     82.7540    216.5602   1.0914603468e+02   2.0458643523e+01    0.2265732    0.1562674  86.70  0.001397163    1.702    0.413
        23  -8.0000    142.4894    209.9792   9.5946400165e+01   1.3332718378e+01    0.1615708    0.1222308 -46.77 0.0008986055    1.598    0.374
        24 -10.1700    153.8052    217.1806   9.4641341336e+01   1.0614838019e+01    0.4970012     0.233515  46.66  0.002492688    2.227    0.551
        25  -7.0880    133.6745    201.7072   9.6670628418e+01   1.5970747879e+01    0.1224281   0.09043336   6.69 0.0007018301    1.619    0.382
        26  -9.9015     85.6988    199.7506   1.0692020684e+02   2.3152007898e+01    0.5158777    0.2650839  65.76   0.00135796    2.570    0.611
        27  -8.1258     89.2664    199.3234   1.0607687912e+02   2.2755178853e+01    0.2312739    0.1723581 -89.28 0.0002077955    1.537    0.350
        28  -7.8719    216.1158    200.0629   8.0619795042e+01   4.0654882296e+00    0.1837745    0.1293718   4.56  0.001014213    1.242    0.195
        29  -8.7129    206.1505    199.2701   8.2210782459e+01   5.5612017116e+00     0.188794    0.1632997  -0.73 0.0001807146    1.189    0.159
        30  -8.3302     98.0729    198.1830   1.0398195779e+02   2.1760967454e+01    0.2175728    0.1399553  70.96 0.0006899128    1.932    0.482
        31  -7.7956     73.3104    197.0655   1.0945421972e+02   2.5277928993e+01    0.2069384    0.1476237  27.77 0.0007208509    1.431    0.301
        32 -10.1222    173.6779    194.4256   8.7447976847e+01   1.1043417310e+01     0.229591    0.1938733  24.62 0.0003987861    1.069    0.064
        33  -9.2595    126.2708    193.5019   9.7147893831e+01   1.8497294704e+01    0.3115389    0.2156042  71.39  0.001665879    2.051    0.512
        34  -8.2050    232.4959    195.0302   7.7081084757e+01   2.4403800661e+00    0.1872866    0.1454513  35.91  0.000699771    1.536    0.349
        35  -8.6890     75.5170    215.3596   1.1057384684e+02   2.1576303914e+01    0.2309305    0.1795793 -82.80 0.0008426699    1.451    0.311
        36  -7.0880     78.2922    193.3253   1.0795362982e+02   2.5370763805e+01    0.1133101   0.09624778 -17.55  0.000298607    1.617    0.382
        37  -7.9364     91.5137    191.5215   1.0471647476e+02   2.3942531249e+01    0.2034152    0.1448006  15.81 0.0005575275    1.725    0.420
        38  -8.5250     96.5203    189.3708   1.0331242731e+02   2.3657421595e+01     0.284678     0.183089  26.06  0.001539965    1.613    0.380
        39  -8.0639     78.6916    213.4832   1.0974035161e+02   2.1518523813e+01    0.2139528    0.1676419  71.37 0.0008481656    1.280    0.219
        40  -7.9261     52.9791    188.9693   1.1344375490e+02   2.9361894578e+01    0.1713693    0.1438771 -31.26 0.0009920095    1.675    0.403
        41  -9.4554     14.2119    184.3409   1.2216649404e+02   3.4212468899e+01    0.2426787     0.185967  75.62 0.0005788967    1.113    0.102
        42  -8.4294    103.9566    184.3164   1.0095729252e+02   2.3563468378e+01    0.4580473    0.2327889  72.20  0.001534256    4.908    0.796
        43  -7.6757     23.0693    184.5057   1.2013284219e+02   3.3390117244e+01    0.2033078    0.1289202  70.06 0.0005842872    1.334    0.251
        44  -8.2482     20.1802    181.9741   1.2067705843e+02   3.4184958793e+01    0.3617855    0.2285691 -32.95  0.001983731    2.716    0.632
        45  -8.1228    122.9788    183.3113   9.6444190731e+01   2.0858351359e+01    0.1869929    0.1528166  36.98 0.0005391304    1.072    0.067
        46  -9.0066    216.1660    213.9910   8.2811513612e+01   2.3972334885e+00    0.2238443    0.2206888 -78.62  0.001739202    1.837    0.456
        47  -7.7028    150.4633    179.3371   8.9756656769e+01   1.7163168237e+01    0.2141694    0.1286551 -61.66  0.001014802    2.456    0.593
        48  -6.9408     13.2477    180.2903   1.2221565626e+02   3.5143641613e+01   0.09906076   0.08296982 -62.79 0.0002169763    1.475    0.322
        49  -8.8185    194.9818    179.0144   8.0788231208e+01   1.0002126903e+01    0.1823087    0.1557536  11.16            0    1.040    0.039
        50  -7.5764    189.4949    177.9734   8.1631702689e+01   1.1025788010e+01    0.1604907    0.1129913 -62.72 0.0008101913    2.572    0.611
        51  -7.1206      3.2810    178.2626   1.2444772302e+02   3.6371383859e+01   0.09538814    0.0832844 -59.94 0.0006873934    1.481    0.325
        52  -7.3552    221.6890    177.6924   7.5838366155e+01   6.1001719753e+00    0.1250482    0.0797266   4.74 0.0002305048    1.619    0.382
        53  -8.1967    180.8410    176.7478   8.3079584262e+01   1.2608357668e+01    0.2094189    0.1719979 -72.95 0.0009991102    1.975    0.494
        54  -8.4264     88.6738    175.0154   1.0341804337e+02   2.7670768326e+01    0.3552142    0.1736225 -58.47  0.001676742    2.198    0.545
        55  -8.3671     77.1632    174.9603   1.0624948282e+02   2.9282891198e+01     0.302277    0.1854288 -68.13  0.001510348    1.741    0.426
        56 -10.5270     16.6379    160.0153   1.2038621210e+02   3.9294023745e+01     0.932928    0.3648033 -87.04  0.004319812    2.411    0.585
        57  -9.5162      7.6478    174.9253   1.2330833670e+02   3.6740887573e+01    0.5779924    0.2033487  17.60  0.002474983    3.839    0.739
        58  -9.4576     27.4562    174.1154   1.1850160887e+02   3.5197364233e+01       1.3055          nan  46.31  0.003614141    6.548    0.847
        59  -9.0909     22.2129    173.4041   1.1974004927e+02   3.5837519591e+01    0.4729645    0.1821431  56.84  0.002248185    2.263    0.558
        60  -8.9252     16.9268    173.0114   1.2100353819e+02   3.6388820333e+01    0.2640187    0.1996884  43.33 0.0009530462    1.234    0.190
        61  -7.8387    136.7391    174.5848   9.1992418086e+01   2.0271066664e+01    0.2614417    0.1195414  34.04  0.001128156    2.064    0.515
        62  -7.3354     18.6673    177.2614   1.2079860373e+02   3.5321018869e+01    0.1262483   0.06549681  55.52  0.000366153    1.574    0.365
        63  -9.9282     63.8136    171.7693   1.0923699967e+02   3.1709248413e+01    0.4639723    0.2400546  51.98  0.001759195    1.781    0.439
        64  -9.0584     59.4889    170.6180   1.1021299340e+02   3.2495971860e+01    0.1993263    0.1857299 -65.02 -3.777603e-05    1.256    0.204
        65  -8.4609    103.8900    172.1347   9.9313102877e+01   2.6009449270e+01    0.2085262    0.1628647  57.32 0.0004456474    1.250    0.200
        66  -9.2129     81.8857    170.5529   1.0454378859e+02   2.9575280880e+01    0.3226578    0.2500491 -33.58 0.0009794295    1.705    0.413
        67  -9.1878     85.4158    166.0142   1.0306738131e+02   3.0053394109e+01    0.2572591    0.2554866  -8.30 0.0005406565    1.182    0.154
        68  -7.9694    122.7703    170.0810   9.4481882056e+01   2.3424879141e+01    0.1744102    0.1688624  14.25 0.0003181125    1.100    0.091
        69  -8.9675     75.9785    165.9094   1.0547055012e+02   3.1400185949e+01    0.3612695    0.1689615  47.61  0.001632637    1.968    0.492
        70  -8.7561    128.6946    165.4906   9.2335896207e+01   2.3341913283e+01    0.3196851    0.2568182  13.82 0.0008222135    1.383    0.277
        71  -8.5624     81.7050    161.8710   1.0347084560e+02   3.1491644853e+01    0.3139434    0.1812491  24.38  0.001468342    2.003    0.501
        72  -8.3500     71.3353    161.1517   1.0609270926e+02   3.3085317789e+01     0.417711    0.1223987  39.65  0.001563169    2.810    0.644
        73  -7.7032      2.1366    161.4074   1.2412784438e+02   4.0100524708e+01    0.1528803    0.1286679 -88.21 0.0006790151    1.203    0.169
        74  -8.4716     91.9709    157.8980   1.0023585994e+02   3.0856781725e+01    0.2026978    0.1829497  60.75 0.0003739735    1.025    0.024
        75 -10.3480     80.7443    152.7020   1.0245496372e+02   3.3686675327e+01     0.478573    0.3024765 -38.92  0.001107829    2.097    0.523
        76  -8.3908     33.4788    154.0242   1.1551448145e+02   3.9141597582e+01    0.2134473    0.1788039  28.31 0.0004617827    1.343    0.255
        77 -10.9724     28.2124    154.1492   1.1694880906e+02   3.9617385084e+01    0.6598299    0.3617198  53.38  0.002882024    1.612    0.380
        78  -9.8500     23.9732    156.0214   1.1821797242e+02   3.9571981610e+01    0.3363517    0.2175415  53.43  0.001730532    1.338    0.253
        79  -8.3397      2.1688    152.8724   1.2378694694e+02   4.2013869349e+01    0.3320137    0.1592012  66.06  0.001777966    1.768    0.434
        80  -9.4086      9.2997    155.4616   1.2204767318e+02   4.0910855006e+01    0.3857951    0.1112406  31.76  0.001714035    2.838    0.648
        81  -9.9932     11.7810    151.9173   1.2121180671e+02   4.1532766392e+01    0.4863208    0.2207173  16.37  0.001763576    2.774    0.640
        82  -7.8663    114.6089    152.8464   9.3595471932e+01   2.8302409590e+01    0.1936843    0.1346476 -71.47 0.0009448191    1.750    0.429
        83  -8.5887     96.3906    152.3144   9.8214051640e+01   3.1405377985e+01    0.3299966    0.2305583 -36.38  0.000909822    1.805    0.446
        84  -9.5511     36.5928    150.7559   1.1438076664e+02   3.9594763678e+01     0.506344     0.184675  46.68  0.002177523    2.414    0.586
        85 -11.8162     68.6338    142.6706   1.0438668564e+02   3.7720591781e+01    0.9911581    0.7006518 -80.59  0.003364249    1.442    0.307
        86  -8.4835    132.0106    149.4623   8.8669170571e+01   2.5960376547e+01    0.2897311    0.1779289  24.45  0.001291399    1.942    0.485
        87 -10.1444      9.2685    140.1849   1.2124824914e+02   4.4459881623e+01    0.4528413    0.2594711  18.40   0.00157086    2.057    0.514
        88  -9.2392      3.1382    138.5188   1.2288676489e+02   4.5271163229e+01    0.2939908     0.204531 -75.75  0.001581975    1.334    0.250
        89  -9.9194     10.6548    147.1090   1.2125252920e+02   4.2732409596e+01    0.4533594    0.2504961  19.06  0.002464447    2.121    0.529
        90  -8.6268      6.5019    144.5274   1.2225105768e+02   4.3635161315e+01    0.2226401    0.1703009  58.82  0.001089787    1.141    0.124
        91  -8.4342    149.8149    146.9801   8.3998006469e+01   2.3191876735e+01    0.2295352    0.1690997 -81.12  0.001072235    2.152    0.535
        92  -7.7560     83.5885    141.8043   1.0000803663e+02   3.5777172059e+01    0.1898039    0.1317099 -80.54 0.0005351669    1.597    0.374
        93  -9.5499     96.6217    137.8734   9.5687451484e+01   3.4625633674e+01     0.387731     0.286574 -51.46  0.001993799    1.414    0.293
        94  -8.0555    107.5720    138.2518   9.2764036535e+01   3.2685949018e+01    0.3196792     0.295928  87.76  0.001821826    1.108    0.097
        95 -10.0892     49.4159    132.9461   1.0873709952e+02   4.2493088734e+01    0.3361927    0.2185038  54.01  0.001743763    1.485    0.327
        96 -11.1006     58.0849    132.9548   1.0611000823e+02   4.1444042537e+01    0.8494613     0.225655  44.67  0.002803206    3.595    0.722
        97 -11.7541     58.0331    126.4226   1.0517084505e+02   4.3056613678e+01     1.096684    0.4959779  55.88  0.004285023    2.642    0.621
        98 -10.0948      1.8280    124.9601   1.2257430785e+02   4.8588881364e+01    0.5648219    0.3162174 -53.66  0.003065336    1.946    0.486
        99  -9.0021     29.6807    129.3528   1.1437461635e+02   4.5424676044e+01    0.4236038    0.1440694  51.48  0.001626473    3.012    0.668
       100  -8.5087     24.5150    127.9857   1.1583804585e+02   4.6218935160e+01    0.2737212    0.1824292 -12.23  0.001403979    2.227    0.551
       101  -8.6524    142.0638    126.1914   8.1357246945e+01   2.8791162284e+01    0.2290208    0.2054545 -39.86 0.0002967264    1.136    0.120
       102  -9.1999     75.0118    126.9998   1.0002652451e+02   4.0583932246e+01    0.3981356    0.1591744  46.25  0.001494839    2.538    0.606
       103  -9.5890    198.5250    125.1132   6.9223772849e+01   1.7728721354e+01    0.2315675    0.2110698  19.46  0.001388618    1.095    0.087
       104  -8.8372     85.0604    132.5484   9.8016438652e+01   3.7725809855e+01    0.4574073    0.2134515  54.76  0.001625897    2.648    0.622
       105  -7.2583    243.2763    125.6567   6.2179231106e+01   9.6282096068e+00    0.1200231   0.08937972 -47.30 0.0003204698    1.624    0.384
       106  -8.2561    103.2008    125.1189   9.1351274400e+01   3.6430856356e+01    0.2182401    0.1975172 -23.10 0.0006537602    1.257    0.204
       107  -8.0747    204.2654    122.0283   6.7502148825e+01   1.7117991238e+01    0.2482835     0.196813  47.85 0.0007743318    1.386    0.279
       108  -7.6280    104.8610    120.1807   8.9821021556e+01   3.7267745309e+01    0.1934095    0.1731546 -19.05 0.0003096745    1.285    0.222
       109 -10.6303     55.0962    117.7689   1.0476086533e+02   4.5580947139e+01    0.4222879    0.3347644  -6.26   0.00224865    1.680    0.405
       110  -9.4734      2.6300    130.9226   1.2265122458e+02   4.7106981243e+01     0.419602     0.184883 -66.97  0.002082155    2.070    0.517
       111 -10.1850     39.2663    115.2268   1.0963328926e+02   4.8023971062e+01    0.4636909    0.2620618  14.12  0.001479914    2.318    0.569
       112 -10.5258     38.1867    129.0670   1.1171320595e+02   4.4671618276e+01    0.4603231     0.406731 -16.75    0.0015364    1.440    0.305
       113  -7.5820     65.3006    114.6552   1.0088062118e+02   4.5014548349e+01    0.1514067     0.103457  71.66 0.0007037725    1.680    0.405
       114  -7.7504     33.7502    102.6020   1.0977291198e+02   5.1778739314e+01    0.1772773     0.118446  42.50  0.000276098    1.533    0.348
       115  -8.0478     28.2060    101.7510   1.1166461101e+02   5.2499538639e+01    0.2593026   0.09435224  30.96  0.001061401    2.688    0.628
       116  -7.4232    145.7746    100.1045   7.3980013132e+01   3.3273023479e+01    0.1909842    0.1235773 -43.96 0.0003453692    1.539    0.350
       117  -8.4055     88.3365    100.0016   9.0167982667e+01   4.4979362508e+01    0.2437433    0.2115405  33.17 0.0002960324    1.214    0.177
       118  -7.5329    250.1890     92.8286   5.4082818292e+01   1.2779057788e+01    0.1732924    0.1312958  -8.07 0.0005806816    1.320    0.242
       119  -7.9549    121.5022     86.3809   7.6364670666e+01   4.1446318048e+01    0.3104318    0.2181813  -6.97  0.001258539    2.232    0.552
       120 -10.3803    104.7905     80.0048   7.9351200947e+01   4.6401878744e+01    0.2583327    0.2486501 -31.46  0.001387393    1.056    0.053
       121  -9.0297    201.0083     77.4514   5.6993074145e+01   2.4755675759e+01    0.3865554    0.2020145 -28.87 0.0008370017    1.836    0.455
       122  -8.1717    116.4426     78.9192   7.5531226666e+01   4.4124527957e+01    0.2298853    0.1499763 -44.09     0.000404    1.515    0.340
       123  -7.6016    175.8322     67.2181   5.8281831036e+01   3.2176961883e+01    0.1964385     0.170479  14.26 0.0003516834    1.307    0.235
       124  -7.3518    144.2703     59.9973   6.2267271376e+01   4.1130632771e+01    0.1951733    0.1327188 -35.16  0.000571502    1.453    0.312
       125 -10.0119    173.3974     55.0618   5.5046712277e+01   3.4650860286e+01    0.4098221     0.319884  49.07  0.001091251    1.347    0.257
       126  -7.6169    151.1499     54.7985   5.9080205007e+01   4.0268586145e+01    0.1980077    0.1762189  17.34 0.0006500976    1.256    0.204
       127  -8.4681     99.0408     51.1313   7.1183664746e+01   5.3575859716e+01    0.5132118     0.254828  66.36   0.00161214    3.721    0.731
       128  -9.2764     91.0454    247.1097   1.0997717794e+02   1.4462522619e+01    0.3525575    0.2350034  69.04  0.002451862    1.715    0.417
       129 -10.3918    193.4266     34.9716   4.6122628708e+01   3.2450968815e+01    0.7138095    0.4938964 -12.35  0.002018899    1.667    0.400
       130  -7.2310    132.3249     33.2653   5.5318040423e+01   4.8359838861e+01    0.1522705    0.1108776  32.93 0.0003000624    1.565    0.361
       131  -7.6982    170.9849     25.7850   4.6121775819e+01   3.9215007723e+01    0.1951116    0.1834591 -82.30 0.0003981763    1.033    0.032
       132  -8.1932    163.0891     24.9650   4.6937906557e+01   4.1364183878e+01    0.2039688    0.1993012  61.44            0    1.083    0.076
       133  -8.5985    130.9859     20.9737   5.0778017499e+01   5.0313237701e+01    0.2482139    0.2022152 -28.20            0    1.260    0.206
       134  -8.9166     91.1003    214.5756   1.0720015786e+02   1.9734944282e+01    0.2495085    0.1937823  68.45 0.0007430795    1.332    0.249
       135  -9.0981     67.9494    212.7735   1.1197646426e+02   2.2966836411e+01    0.2948702    0.2204438 -24.78  0.001823841    2.146    0.534
       136  -8.7402    246.7888    241.9990   8.2042766444e+01  -4.1390359559e+00    0.1698118    0.1068083  19.08 0.0005059625    1.179    0.152
       137  -9.8443    133.5669    230.3528   1.0019426376e+02   1.1498851295e+01    0.3544904    0.2030597 -16.37  0.001655096    3.751    0.733
       138  -7.4124    148.3155    235.3418   9.7934530857e+01   8.8130735088e+00     0.112998   0.07705239   6.86 0.0006270173    1.708    0.415
