#   1 NUMBER                 Running object number                                     
#   2 MAG_AUTO               Kron-like elliptical aperture magnitude                    [mag]
#   3 X_IMAGE                Object position along x                                    [pixel]
#   4 Y_IMAGE                Object position along y                                    [pixel]
#   5 X_WORLD                Barycenter position along world x axis                     [deg]
#   6 Y_WORLD                Barycenter position along world y axis                     [deg]
#   7 A_WORLD                Profile RMS along major axis (world units)                 [deg]
#   8 B_WORLD                Profile RMS along minor axis (world units)                 [deg]
#   9 THETA_WORLD            Position angle (CCW/world-x)                               [deg]
#  10 FWHM_WORLD             FWHM assuming a gaussian core                              [deg]
#  11 ELONGATION             A_IMAGE/B_IMAGE                                           
#  12 ELLIPTICITY            1 - B_IMAGE/A_IMAGE                                       
         1 -12.7979    101.7354     79.1923   9.4570245608e+01   4.6880938753e+01     2.436408     2.115762 -23.81   0.01326007    1.162    0.139
         2 -12.6888     53.6113     89.1326   1.1244018332e+02   5.2057155790e+01     4.024593     1.062899 -44.92   0.01265443    4.248    0.765
         3 -12.6922    118.4158     49.3832   7.9860674380e+01   4.9010061109e+01     3.076931    0.8293691 -40.82  0.005244591    3.765    0.734
         4 -10.7581     89.7157     32.1177   8.1679288552e+01   5.7733832101e+01     1.347417     0.681312 -21.62  0.005697834    2.300    0.565
         5 -10.8154     89.9282     21.5345   7.7144894458e+01   5.9181233462e+01    0.3719141    0.2577148   4.45 0.0009742575    1.565    0.361
         6 -12.4131     86.4107     54.7148   9.1407607417e+01   5.4527849086e+01     1.659888     1.349512  77.97  0.008729848    1.814    0.449
         7 -11.4617     68.3140     20.0611   8.3834222821e+01   6.3392925266e+01     1.033878    0.6477334  10.84  0.005075505    1.885    0.469
         8 -11.9550     77.9834     30.9894   8.5134753563e+01   6.0092773308e+01     1.218977    0.6873438 -25.88  0.005891646    1.771    0.435
         9 -11.7343     70.6735     30.6312   8.7601405410e+01   6.1407910561e+01    0.5761185    0.3440447 -22.25 0.0004009116    1.720    0.419
        10 -11.8235     39.1109     86.5451   1.1662218663e+02   5.4191715415e+01      2.15085    0.6422469 -49.27  0.008427881    2.844    0.648
        11 -11.0847     59.0719     49.7947   9.9369671486e+01   5.9768087198e+01      0.96876    0.6183911 -60.43  0.004875353    1.966    0.491
        12 -11.6814     54.6552     37.1087   9.6413942138e+01   6.2734447603e+01    0.9440231    0.5562314  46.60  0.004814678    2.255    0.557
        13 -10.8929     98.8700     40.6117   8.2202132821e+01   5.4598017550e+01     1.212208    0.6045649 -19.63   0.00462402    2.751    0.636
        14 -11.8718    130.6128     19.8989   6.5924921319e+01   5.0242364786e+01     1.258044    0.4747151  54.41  0.003912515    2.319    0.569
        15 -11.2474    128.9202     14.5723   6.4259736766e+01   5.1238135716e+01     1.192858     0.383239  53.21  0.004384379    2.594    0.614
        16 -11.4051    112.1932     22.0247   7.1069727094e+01   5.4342574909e+01     1.224287     1.028192 -51.43  0.006863971    1.433    0.302
        17 -11.4004    117.3437     15.2263   6.7073355626e+01   5.3938351426e+01     0.427284    0.3216238  82.83  0.000177188    1.705    0.414
        18 -11.9103    112.7974      7.8242   6.5111960442e+01   5.5761436650e+01     1.345537    0.4378087  62.07   0.00481659    3.112    0.679
        19 -11.7449     93.9017      7.9623   6.9965245184e+01   5.9954604718e+01     0.666675    0.3813515  39.10  0.003358829    1.608    0.378
        20 -10.0190     18.6247     37.9185   1.1212975364e+02   6.6342088300e+01    0.7944281     0.523848  69.23   0.00415915    3.065    0.674
        21  -9.4884    217.9021     13.2559   5.0957225784e+01   2.8754598845e+01    0.3098084    0.1908926  62.81  0.001093448    1.583    0.368
        22 -10.9088    211.2735     15.8581   5.2326426005e+01   3.0111937449e+01    0.6642773    0.4747004   1.66  0.003417039    1.846    0.458
        23 -10.1393    214.2802     22.4098   5.3762086884e+01   2.8638148925e+01    0.6490483    0.4227995  45.97   0.00324807    1.722    0.419
        24 -10.0608    231.4675     17.5554   5.0755097044e+01   2.5020795763e+01    0.6154399    0.3786001 -41.01   0.00323203    1.486    0.327
        25 -10.1399    224.4750      9.6890   4.9418331264e+01   2.7534056420e+01    0.5931873    0.4494031  47.81  0.003391848    1.502    0.334
        26 -10.3391    221.2474      3.0652   4.8022627449e+01   2.8980627336e+01    0.7959013    0.2214783  61.23  0.002985251    3.137    0.681
        27  -9.2670    230.6962      2.8074   4.7176228604e+01   2.6751455624e+01    0.2319832    0.1597742  57.58 0.0006462916    1.546    0.353
        28 -11.0408    243.5562     10.6623   4.8035419767e+01   2.2964582189e+01    0.9592395    0.4693482 -11.87  0.004023544    3.141    0.682
        29 -10.8753    233.2943      8.9296   4.8460152333e+01   2.5517805873e+01    0.4854177    0.3188596 -29.41  0.002671874    1.526    0.345
        30 -10.9605    239.4158     18.8378   5.0344139817e+01   2.3020204120e+01     1.004303    0.2849548 -32.10  0.003822365    2.939    0.660
        31 -12.9186     99.8174      5.9712   6.7490629754e+01   5.8876687875e+01    0.5624412     0.376545 -20.64 0.0005439799    1.517    0.341
        32 -10.6007     69.6700      3.5915   7.5432377858e+01   6.5215730834e+01    0.6754884    0.3361839  32.18  0.003301505    2.007    0.502
        33 -10.6530     42.3538      3.4458   8.6276503622e+01   6.9653385915e+01    0.5167761    0.3017461   2.14  0.002801363    1.971    0.493
        34 -10.9229     51.6276     23.4398   9.1964727828e+01   6.5466054747e+01    0.8308967     0.386962 -19.21  0.003213647    3.487    0.713
        35 -10.9484     42.3753     15.1519   9.2181071902e+01   6.7998798047e+01    0.7169412    0.6083727  56.39   0.00406949    1.907    0.476
        36 -11.3866     50.2023      9.8550   8.6143974946e+01   6.7677898827e+01    0.3615164     0.272074  -9.20 0.0009900833    1.126    0.112
        37 -11.6718     56.5794      4.2778   8.0658613685e+01   6.7400744393e+01    0.6276337    0.4738335  14.82  0.002228462    1.165    0.141
        38 -11.9273     28.6332     26.2182   1.0339177781e+02   6.7707940103e+01     1.192228    0.5385787 -35.52  0.006071779    1.956    0.489
        39 -10.0476     30.9624     12.9867   9.6516064403e+01   6.9702087228e+01    0.9764101    0.3702776 -24.90  0.003458279    4.591    0.782
        40 -11.9215     19.7624     13.6308   1.0245033031e+02   7.0714123351e+01    0.8417222     0.492301  11.45  0.005146503    1.889    0.471
        41 -11.4177     24.8046      5.0435   9.5698725191e+01   7.1585504103e+01     0.710484    0.4493201  34.29  0.003739982    1.905    0.475
        42 -10.9827     40.6781     21.4010   9.5819732119e+01   6.7223819637e+01    0.3358026    0.2129632 -37.31 0.0004117451    1.366    0.268
        43 -12.4338      8.8896     26.2064   1.1286995435e+02   6.9273010019e+01    0.8555403     0.541295  -9.18  0.003567558    1.721    0.419
        44 -12.0424     12.6468      7.7810   1.0357480991e+02   7.2287154543e+01    0.5801753    0.3074461 -43.80   0.00260279    1.527    0.345
        45 -12.6436      3.3066     17.5557   1.1266878188e+02   7.1218711850e+01    0.4236775    0.2307136 -37.84 0.0004675853    1.410    0.291
        46 -13.6634      4.0142      9.5713   1.0916130143e+02   7.2601496883e+01    0.5722483     0.285106 -48.25  0.001163173    1.550    0.355
        47 -10.6748    185.5222     13.7544   5.4720917603e+01   3.6874981900e+01    0.5776998    0.4221129 -13.96  0.003023415    1.559    0.359
        48 -10.6696    167.2857     24.4326   6.0674966727e+01   4.0431248484e+01    0.6611107    0.2942116  47.87 0.0006251937    2.219    0.549
        49 -11.3398    158.2682     16.1902   5.9421069049e+01   4.3674671876e+01    0.8989324    0.6854351  80.43   0.00329629    1.361    0.265
        50 -11.0562    163.8766      4.9998   5.4865904041e+01   4.3322337764e+01    0.5948366    0.5863955 -52.47  0.002646817    1.094    0.086
        51 -11.5940    177.2101     26.5164   5.9777243463e+01   3.7613968578e+01     1.089597    0.6147429 -22.69  0.004831165    1.919    0.479
        52 -11.9265    148.6043     17.3428   6.1468241160e+01   4.6028859663e+01     1.438478    0.7102066  10.49   0.00366485    3.867    0.741
        53 -10.2010    169.8666     13.4000   5.6728414725e+01   4.0963648311e+01     0.314987    0.2492173 -40.39 0.0006596618    1.320    0.242
        54 -10.5883    165.5459     11.2483   5.6661822303e+01   4.2298685847e+01    0.4105417    0.3179919  69.41  0.001469176    1.209    0.173
        55 -10.7481    184.4593     26.2114   5.8612078932e+01   3.5772522768e+01    0.9069666    0.4919732  17.95  0.003271145    3.351    0.702
        56 -10.7700    201.7781     18.7314   5.4177878952e+01   3.2183104698e+01    0.7213287    0.3540688  50.70  0.003124564    2.104    0.525
        57  -9.1311     81.2734     19.8292   7.9174208173e+01   6.1095390886e+01    0.4077564    0.2861277 -57.86  0.002040124    2.296    0.564
        58  -9.7580    141.5953     11.4748   6.0639840161e+01   4.8409200521e+01     0.241676    0.2069247  29.78  0.001369837    1.159    0.137
        59  -8.9503    138.6953      8.3565   6.0027878484e+01   4.9439182636e+01    0.2586654    0.2100333 -78.69  0.001413616    1.440    0.305
        60 -10.2561    173.6167      8.5383   5.4672054684e+01   4.0473703970e+01    0.2639756    0.2152019 -28.63 0.0002990197    1.307    0.235
        61  -9.9757    189.5617      7.9745   5.2523882527e+01   3.6417132026e+01    0.7371231    0.2246183  64.78  0.001832052    2.772    0.639
        62  -9.7371    201.0190      1.4917   4.9463630857e+01   3.4123282974e+01    0.4829604    0.1983047  72.00   0.00160844    2.237    0.553
        63 -10.4256    180.9509      4.2281   5.2424597611e+01   3.8985387903e+01    0.5542211    0.4293746 -88.63  0.003070205    1.271    0.213
        64  -9.8219    175.3632      4.1292   5.3075932661e+01   4.0435140672e+01     0.409269    0.3538915 -73.56  0.001774184    1.167    0.143
        65 -10.5720    211.2412      4.4017   4.9267420130e+01   3.1296489715e+01    0.4897154    0.2717181  38.84   0.00188816    2.361    0.576
        66 -10.4433    206.9444      2.8405   4.9257243751e+01   3.2513423731e+01    0.3836602    0.2769945 -78.88  0.001428914    1.351    0.260
        67 -10.6723    200.2597      6.3823   5.0893246371e+01   3.3849227758e+01      0.46196    0.2922278 -38.53  0.001920192    1.558    0.358
        68 -10.0801    204.2057      6.2005   5.0437398811e+01   3.2873581035e+01     0.290576    0.2612583 -60.52 0.0009381964    1.078    0.073
        69  -9.8829    196.5608      6.2136   5.1237822267e+01   3.4802339966e+01    0.3669414    0.2574106 -10.13  0.001828865    1.708    0.415
        70 -10.4799     77.2857      9.0086   7.5501224196e+01   6.3191273867e+01    0.2911462    0.2401348 -14.38  0.000599779    1.171    0.146
        71  -7.6370     77.9427      4.3827   7.3061319953e+01   6.3572136979e+01    0.6852479    0.1626046  41.76  0.002289263    4.045    0.753
        72  -9.7249    249.5225      7.1674   4.6763889005e+01   2.1991200265e+01    0.3471751    0.1774707 -54.25  0.001755156    1.799    0.444
        73 -11.1879    132.4424      4.4737   5.9724119871e+01   5.1351310270e+01    0.6385474    0.3283446  54.95  0.002481133    1.684    0.406
        74 -11.1016    139.6879      1.7326   5.7431702968e+01   4.9782285196e+01    0.4428385    0.2397596  70.21  0.001285001    1.797    0.443
        75  -8.3413    122.3135      3.6139   6.1347843024e+01   5.3899838794e+01    0.2219648    0.2019171 -67.63  0.001334607    1.298    0.229
        76  -9.2334     91.3397    112.3163   1.0628652167e+02   4.1435896894e+01    0.3399386    0.2423307   1.40   0.00155536    2.211    0.548
        77  -9.5476    233.9163    249.7172   1.0083108396e+02  -7.1673732120e+00    0.2283735    0.1337638  28.18  0.001411386    1.291    0.226
        78  -9.2496    124.9809    249.2868   1.1946937506e+02   9.1619575841e+00     0.168368    0.1476586 -26.16  0.001268744    1.652    0.395
        79 -10.3112     39.4283    127.1507   1.2337872949e+02   4.4800840017e+01    0.2100908    0.1804964  40.33    0.0013195    1.342    0.255
        80  -9.6660    105.2481    117.9506   1.0373237754e+02   3.7778863476e+01    0.5244104    0.3347742  79.62  0.002084192    2.677    0.626
        81  -9.5677     98.5248    114.3779   1.0475205680e+02   3.9761925198e+01    0.3609613     0.262791  39.95  0.001828165    1.440    0.305
        82  -8.8145    117.5444    116.4595   1.0011304612e+02   3.5830343616e+01    0.2826996    0.1424627  31.10  0.001044476    2.603    0.616
        83 -10.5299     82.5538    114.8291   1.0931005972e+02   4.2248338576e+01    0.3657078    0.2876735  23.54 0.0009069665    1.513    0.339
        84  -9.4085     51.2769    118.3719   1.1881615800e+02   4.5569157320e+01    0.2897106    0.1926424  64.95  0.001559778    1.719    0.418
        85  -9.1570     45.1565    113.8258   1.1979771984e+02   4.7293991767e+01    0.2079698    0.1943406 -14.46  0.001384665    1.316    0.240
        86  -9.5172    133.1003    112.0778   9.5020791559e+01   3.3657622214e+01    0.3446353    0.2865445 -46.89  0.001752447    1.196    0.164
        87  -8.6809    202.1578    229.0924   1.0316480206e+02  -1.0734772269e-01    0.1495788    0.1267208  41.65 0.0003807139    1.286    0.222
        88  -8.9862     77.3781     93.7090   1.0600442379e+02   4.7851722687e+01    0.3472064    0.2278885   6.82  0.001103129    2.414    0.586
        89 -11.2175     67.2819    107.8898   1.1226302182e+02   4.6034620272e+01    0.6587545    0.3034552 -38.77  0.002558071    2.928    0.658
        90 -10.4646     74.1270    107.4534   1.1016021521e+02   4.5190204945e+01    0.4056893    0.3527515  69.72  0.001968936    1.239    0.193
        91 -10.7094     75.7109    102.0089   1.0848436025e+02   4.6212514871e+01    0.5097575    0.4233269  -1.07  0.001354477    1.506    0.336
        92  -9.6745     81.4346    102.1943   1.0682285869e+02   4.5314277277e+01    0.3517996    0.2269241  46.33  0.001728792    1.688    0.408
        93  -9.5363     87.0399    100.5439   1.0477067175e+02   4.4806511724e+01    0.3011968    0.2843329  49.41 0.0007860258    1.131    0.116
        94  -9.4128     84.9315     97.4748   1.0464349696e+02   4.5836204965e+01    0.2962888    0.1667052  41.14 0.0008175296    1.900    0.474
        95 -10.9611     88.2159     90.8539   1.0195471697e+02   4.6778535052e+01      1.13192    0.4866039 -61.47  0.003465807    3.286    0.696
        96 -11.1625     82.6688     88.4927   1.0303030313e+02   4.8200120280e+01     1.246583    0.3581237 -54.35  0.003894753    3.622    0.724
        97  -9.6513     33.3125    110.0093   1.2259407796e+02   4.9341008773e+01    0.3921936    0.1285525 -50.30  0.001544148    2.885    0.653
        98  -8.6346     31.0041    108.2239   1.2299057917e+02   4.9959525004e+01     0.249688    0.1740456  50.42 0.0006765747    1.601    0.375
        99  -8.3413    120.3405    109.3140   9.7625213354e+01   3.6845200081e+01    0.1526772    0.1197599  -3.90 0.0004382592    1.701    0.412
       100  -8.7672    104.4729    108.9805   1.0183995115e+02   3.9926064927e+01    0.2250736    0.1387326 -49.49 0.0005848341    1.557    0.358
       101  -9.7815    133.7464    103.8446   9.2721452739e+01   3.5253042359e+01    0.5449347    0.1966046 -40.36  0.001776018    2.890    0.654
       102  -9.3281     53.2400    104.5428   1.1577215394e+02   4.8557548559e+01    0.3201782    0.1633071 -67.25  0.001495825    1.856    0.461
       103  -8.6490    150.8653    104.8634   8.8776992612e+01   3.1293214508e+01    0.1941239    0.1770933 -79.80            0    1.223    0.182
       104  -8.9100    195.5012    103.9881   7.8949345386e+01   2.1141980675e+01    0.2384517    0.1471715 -32.49  0.001034139    1.609    0.378
       105  -9.2525    171.2836    102.6913   8.3556366052e+01   2.7029699071e+01    0.3096624     0.216581  13.40   0.00113715    2.005    0.501
       106  -9.0223    141.2039    102.4096   9.0463082488e+01   3.3936042661e+01    0.3045383    0.2191166 -40.35  0.001413822    1.385    0.278
       107  -8.2876     96.8254    103.0960   1.0255187760e+02   4.2595051462e+01     0.185635    0.1614632 -24.16 0.0002388791    1.266    0.210
       108  -9.3283     25.9299    102.5649   1.2362237109e+02   5.1690729480e+01     0.379624    0.1600506  35.86   0.00187085    2.618    0.618
       109  -9.8227    116.6154     99.7654   9.6151435011e+01   3.9645374113e+01    0.5257919     0.320929  -7.86  0.001664075    4.131    0.758
       110 -10.1724    114.8786     95.4099   9.5450771139e+01   4.0921746509e+01    0.4399223     0.196134  51.14  0.001597133    2.591    0.614
       111  -9.8780     63.9366     98.6568   1.1130448240e+02   4.8605170166e+01    0.4596627    0.2590636 -43.21  0.002193276    1.791    0.442
       112  -9.3275    159.5478     97.2278   8.4677818207e+01   3.0806409419e+01    0.2895975    0.2162631  47.97 0.0008772987    1.341    0.254
       113  -8.7796    188.7702     94.1937   7.7659765681e+01   2.4443730798e+01    0.2109747     0.178191  10.86 0.0006525085    1.319    0.242
       114  -8.2590    187.3165     89.6812   7.6714037387e+01   2.5580290846e+01     0.156417    0.1201856 -70.50 0.0005098404    1.656    0.396
       115 -10.8711    119.5169     86.1904   9.1560131819e+01   4.1910457410e+01    0.6813387    0.3963341  49.66  0.002806411    1.818    0.450
       116  -9.3494    123.8373     80.4919   8.8685277652e+01   4.2147442655e+01    0.3710815    0.2505934  26.92  0.001626147    1.797    0.443
       117  -9.4105     73.2961     89.3855   1.0619506968e+02   4.9424782032e+01     0.548997    0.1316143  36.03  0.001703467    4.494    0.777
       118 -10.3665    145.8466     86.7476   8.4920520416e+01   3.6005867453e+01    0.4310704    0.2983111 -21.89  0.000581727    1.698    0.411
       119  -8.4541    152.9434     87.4836   8.3445773487e+01   3.4213157841e+01    0.2367354    0.1515868  47.90  0.001019188    1.562    0.360
       120  -9.4612    140.9195     85.5532   8.5778196482e+01   3.7366871383e+01    0.4684439    0.2269738 -41.99  0.001787786    2.042    0.510
       121  -9.2197    238.7904     86.2051   6.7143753196e+01   1.4191268923e+01    0.1966902    0.1637422  12.11  0.001074475    1.353    0.261
       122  -9.4109    164.6158     85.8011   8.0316243359e+01   3.1751400066e+01    0.2750241    0.2283298  13.04 0.0004552889    1.379    0.275
       123  -9.6024    160.0535     81.8660   8.0179656211e+01   3.3567135577e+01    0.3781308    0.3230189 -71.98  0.001872006    1.364    0.267
       124  -8.6011     76.9316     84.4489   1.0375471954e+02   4.9982423269e+01    0.1961238    0.1381452  38.24 0.0004678468    1.549    0.355
       125 -10.3151    134.3113     79.5887   8.5657312095e+01   4.0018029334e+01    0.7442698     0.289709 -46.60  0.002492922    2.770    0.639
       126  -9.8753    217.1114     80.9246   6.9083242511e+01   1.9910656369e+01    0.4406419    0.2232006 -25.47  0.001757187    2.127    0.530
       127  -8.4914    188.6123     79.7991   7.3718658148e+01   2.6953919059e+01     0.218839    0.1355868 -43.99 0.0005290962    1.631    0.387
       128  -9.3479    179.5204     80.3828   7.5643169854e+01   2.9086040282e+01    0.2937521    0.1900032  59.39  0.001092898    1.628    0.386
       129 -10.1155    150.4068     75.4005   8.0440994246e+01   3.7057118506e+01    0.7777086    0.4355246 -29.07  0.003111873    1.950    0.487
       130  -9.8948    151.6505     67.0788   7.7573125465e+01   3.8227948058e+01    0.3239726    0.3004273  25.81 0.0009120074    1.088    0.080
       131 -10.1994    145.0525     75.7670   8.1820808752e+01   3.8260730004e+01    0.4459508    0.3271354  -4.82  0.001981169    1.767    0.434
       132 -10.4412    138.9116     75.7280   8.3311060858e+01   3.9700394144e+01    0.4952962    0.2737595 -27.19  0.001927782    2.124    0.529
       133 -11.6132      4.9804     80.8909   1.2688544855e+02   5.8003832119e+01     1.556483    0.3409482 -66.81  0.006278262    3.020    0.669
       134  -9.7842    247.5322     75.3318   6.3285520122e+01   1.3884189620e+01    0.3223202    0.1875315 -55.38  0.001452819    2.012    0.503
       135  -8.7237    219.4182     75.1829   6.7215156246e+01   2.0255218725e+01    0.2230898    0.1227277 -42.76 0.0009548269    1.758    0.431
       136  -9.1296    213.6078     74.8176   6.8024746949e+01   2.1688448636e+01    0.2878892    0.1341004 -38.07    0.0010098    2.002    0.501
       137  -8.9645    215.2825     71.5655   6.6894611859e+01   2.1786875909e+01    0.2835611    0.1964243  20.91 0.0007180106    1.936    0.483
       138  -9.4708    191.6479     73.1978   7.1295840623e+01   2.7293381238e+01    0.3913199    0.2563195 -82.67 0.0008253077    2.404    0.584
       139  -8.8611     85.0008     74.3706   9.8296267173e+01   5.0865087840e+01    0.2171168     0.168643  10.95   0.00112523    1.531    0.347
       140  -9.5456    165.9327     55.1902   7.0785177329e+01   3.6613847532e+01    0.6446703    0.3183833 -36.06  0.002554935    1.993    0.498
       141  -8.7666    158.7966     58.1545   7.3181309515e+01   3.7945372670e+01    0.3185797    0.2250358  23.07  0.001036527    1.750    0.429
       142 -10.4223    159.5498     50.9426   7.0712618204e+01   3.8876668975e+01    0.4738995    0.4460088 -75.79  0.002025626    1.134    0.118
       143 -10.1403    163.0936     66.9283   7.5019568856e+01   3.5438039496e+01    0.5189698    0.3456001 -78.19  0.002045679    2.412    0.585
       144 -10.4569    165.5030     62.5970   7.3182221681e+01   3.5550784410e+01    0.4302602    0.4141226  49.62   0.00127187    1.033    0.032
       145 -10.1084    138.9022     67.9970   8.0880274313e+01   4.1115636365e+01    0.5990903    0.3473035  34.67  0.002057777    2.019    0.505
       146  -9.4522    132.3279     67.9768   8.2523854428e+01   4.2642677363e+01    0.3727519    0.2510982  55.21  0.001459417    1.568    0.362
       147 -10.0825    250.4738     65.2654   6.0478911724e+01   1.4662657799e+01    0.5620513    0.1284496 -29.86  0.001682235    4.185    0.761
       148  -9.3367     84.9741     67.6255   9.6215028891e+01   5.2260136948e+01    0.2500257    0.2078933  -4.42  0.001245067    1.312    0.238
       149  -9.0007      7.1812     49.4263   1.2017639780e+02   6.4715838986e+01    0.3724015    0.3336119  84.95  0.002516466    1.375    0.273
       150  -8.6881     50.4482    227.4853   1.3068844095e+02   2.2771592145e+01    0.1093102   0.08108097  66.88  6.96876e-05    1.006    0.006
       151 -11.0440      7.9321     60.2735   1.2224312599e+02   6.2369673232e+01    0.8964487    0.5025263  68.23  0.004569395    2.931    0.659
       152  -9.6832     12.9757     56.7219   1.1953334777e+02   6.2839864970e+01    0.2900128    0.2317536  36.24  0.002020575    1.586    0.369
       153 -10.7804     31.7050     43.1255   1.0810600724e+02   6.4219229887e+01    0.3432633     0.289188  56.63  0.001626094    1.669    0.401
       154  -8.8562    110.3242    224.6684   1.1953660587e+02   1.5199980241e+01    0.1247748   0.07686442  65.47 0.0007050503    1.704    0.413
       155 -10.9333     53.6421     30.1606   9.4021421184e+01   6.4082607654e+01    0.5139675    0.2325219  27.18   0.00102322    2.666    0.625
       156  -9.8810     29.1119     49.2012   1.1107357255e+02   6.3227448149e+01    0.3940629    0.2176444 -57.74  0.002017622    1.596    0.374
       157 -10.3178     44.5024     37.7643   1.0082544401e+02   6.3901076546e+01    0.5427505    0.3174227   0.01  0.002648154    2.437    0.590
       158 -11.9793     43.0895     49.9182   1.0563254843e+02   6.1708912924e+01     1.218198    0.6793905  -9.48  0.005477831    2.888    0.654
       159 -12.6364     19.7553     58.2514   1.1724267811e+02   6.2065007769e+01    0.5118874    0.3073834 -43.00  0.003054414    1.422    0.297
       160 -10.6325     25.3510     53.4418   1.1380093858e+02   6.2661999226e+01    0.4096307    0.3278345 -76.26  0.001273642    1.428    0.300
       161  -9.0328     92.8482     66.2463   9.3243315576e+01   5.1151457361e+01    0.3217587    0.2124547   2.89  0.001270013    2.350    0.574
       162  -8.8671    199.0528     63.2834   6.7212945205e+01   2.7009094475e+01    0.2029069    0.1901617 -87.13 0.0003953504    1.102    0.092
       163  -8.8415     61.9070     62.5130   1.0250596594e+02   5.6833648277e+01    0.2051145    0.1565778 -45.20 0.0005302996    1.161    0.139
       164  -9.3375    189.0377     49.5238   6.4886504177e+01   3.1559638837e+01    0.3481634    0.2269823 -57.33  0.001115949    1.767    0.434
       165  -9.7723    186.0393     53.4500   6.6550358319e+01   3.1757017244e+01    0.4072561    0.2560007  24.72  0.001664161    2.244    0.554
       166  -9.5649    179.0180     58.8725   6.9417753258e+01   3.2727308828e+01    0.4981177     0.322063  -5.01   0.00204716    2.173    0.540
       167 -10.7868    182.1127     50.9038   6.6463870107e+01   3.3130267017e+01    0.5350558    0.3297556 -26.80   0.00165667    1.687    0.407
       168 -11.5435    140.5213     51.8134   7.5150591062e+01   4.3461691168e+01      1.35782    0.5264969  41.00  0.004465785    3.031    0.670
       169 -10.1687    151.1453     50.3352   7.2272215601e+01   4.1078912612e+01    0.3187908    0.2716098  64.53 0.0004244346    1.212    0.175
       170 -10.8032    147.5505     53.7969   7.4208489459e+01   4.1430772195e+01    0.4624415    0.4264614 -40.76 0.0003228229    1.116    0.104
       171  -9.4250    146.1757     49.8380   7.3194230006e+01   4.2387479103e+01    0.3393914    0.1975128  27.10 0.0009564906    2.376    0.579
       172 -10.1613    222.4898     57.0447   6.1988509875e+01   2.2190065957e+01    0.4033651    0.3740629  75.72  0.001792183    1.116    0.104
       173  -9.3679    200.8672     59.0030   6.5712016256e+01   2.7197931968e+01    0.3589672    0.2273092  47.41  0.001263044    1.643    0.391
       174  -8.7479    202.7126     55.6430   6.4476907760e+01   2.7228514266e+01    0.2341317    0.1720315  21.91  0.000881512    1.724    0.420
       175  -8.9398    137.2646     59.4415   7.8490803839e+01   4.2991507850e+01    0.2766527    0.1394231  46.87  0.000734146    1.957    0.489
       176 -10.3426    174.5922     56.1637   6.9418229077e+01   3.4266326596e+01    0.6314939    0.3514076  -6.20  0.002175693    3.156    0.683
       177  -9.6662    193.0211     54.0310   6.5554790262e+01   2.9899284320e+01    0.3286121    0.2992095  62.68  0.001141212    1.100    0.091
       178  -8.3512    198.3074     54.7063   6.4899699267e+01   2.8467579651e+01    0.2377742    0.1557884  68.47 0.0004985441    1.615    0.381
       179  -8.8957    235.2329     55.5702   5.9946149915e+01   1.9402403830e+01    0.1949115    0.1249119  50.52 0.0009526114    1.694    0.410
       180  -8.7807    243.1796     54.4021   5.8693360551e+01   1.7752417932e+01    0.1820267     0.129263  86.57 0.0009407502    1.640    0.390
       181 -10.7465     38.7249     43.8999   1.0541918249e+02   6.3371278910e+01    0.4919568    0.2824798 -57.38  0.001548717    1.778    0.438
       182  -8.3794    126.6974     50.7091   7.8151450534e+01   4.6913382744e+01    0.2446619    0.1271286 -22.63 0.0008212223    2.332    0.571
       183  -8.7019    133.6401     46.2859   7.4873763265e+01   4.5978906912e+01    0.2351182    0.1581914 -72.28 0.0007438129    2.412    0.585
       184  -9.8204    130.3551     40.5921   7.3638520373e+01   4.7614820397e+01    0.3981459     0.208668 -32.94  0.001283708    1.909    0.476
       185  -9.5203    129.8813     46.2064   7.5761651242e+01   4.6883260412e+01    0.2762072    0.2504198  37.61 0.0004375061    1.071    0.067
       186  -8.9068    125.9393     45.4053   7.6462298636e+01   4.7929881152e+01    0.4102802    0.2769057 -34.09   0.00195348    1.483    0.326
       187  -8.5477     16.5047     50.4601   1.1660289350e+02   6.3936541875e+01    0.1237744   0.09014025 -44.43 0.0002719641    1.115    0.103
       188  -9.0497    225.7891     49.2042   5.9495422412e+01   2.2483042428e+01     0.182023    0.1606221  28.40 0.0002435582    1.300    0.231
       189  -8.7798    197.4099     49.5500   6.3563921213e+01   2.9429240597e+01     0.271621    0.1181609  50.79 0.0007950079    2.302    0.566
       190  -9.1642    174.8152     48.3363   6.6966952869e+01   3.5369945963e+01    0.3854162    0.1728828 -44.85  0.001422905    2.406    0.584
       191  -9.0979    171.3936     48.4456   6.7623983293e+01   3.6230763414e+01    0.2840682    0.1496429 -23.56 0.0009215156    2.121    0.529
       192  -8.8674     40.6935    221.6617   1.3200945202e+02   2.4928729494e+01   0.09141462   0.08099873 -56.44 0.0003181526    1.678    0.404
       193  -8.4019    244.5115    204.0031   9.1668573448e+01  -3.7099607579e+00    0.1623659   0.08973073  -2.60 0.0008046069    2.269    0.559
       194  -9.2252     27.4913    194.4893   1.3262663251e+02   3.1466858536e+01    0.1119622   0.08444181  75.89 -3.82129e-05    1.002    0.002
       195  -9.0501     10.6533    191.8463   1.3563245690e+02   3.3585916290e+01    0.1438366    0.1171336  79.25  0.001143176    1.166    0.142
       196  -9.9969    110.0396     37.8612   7.7887661730e+01   5.2667328268e+01    0.3823615    0.1995752 -32.66  0.001027588    1.893    0.472
       197  -8.3153    245.5271    187.4522   8.8453812729e+01  -1.8220982505e+00    0.1279589    0.1009979   8.55  0.000219915    1.049    0.047
       198 -10.4286     20.0566    183.9263   1.3335026245e+02   3.4299939295e+01    0.3924502    0.1859525  24.86  0.002117204    2.984    0.665
       199 -11.8728    106.5002     32.6923   7.6866273423e+01   5.4193345426e+01    0.5795085    0.3820308  14.84   0.00143556    1.853    0.460
       200 -10.6761    113.6457     32.1026   7.4682717161e+01   5.2698423226e+01    0.2874774    0.2362416   9.21 0.0003459268    1.232    0.188
       201  -9.8263     12.0205    183.9783   1.3491593120e+02   3.5021795014e+01    0.1675158    0.1308759  84.27  0.001283517    1.099    0.090
       202 -10.3916     66.7497     43.3860   9.4156249290e+01   5.9861672211e+01    0.3822726    0.2122494 -34.22 0.0001889482    1.683    0.406
       203  -9.7434    213.5328     43.3746   5.9528898722e+01   2.6237563311e+01    0.4922268    0.2771599  -3.73  0.001870631    2.993    0.666
       204  -9.6551    152.6920     43.7907   6.9766324443e+01   4.1662105312e+01    0.3722477    0.2894477 -40.48 0.0009381501    1.328    0.247
       205 -10.0052    156.6955     44.0062   6.9023193405e+01   4.0619405947e+01     0.255697    0.2487622   5.63 0.0005252296    1.038    0.036
       206 -10.3441    135.8721     33.0664   6.9640839998e+01   4.7331661590e+01    0.5786413    0.3350854  23.37   0.00108471    2.371    0.578
       207  -9.3969    145.6248     29.9178   6.6452546417e+01   4.5316902969e+01    0.3778979    0.2132337  47.77  0.001666194    1.682    0.405
       208  -9.5758    154.9590     33.9866   6.6017572500e+01   4.2430362563e+01    0.3923062    0.2154085 -18.54 0.0008366739    2.114    0.527
       209 -10.5991    147.3022     34.8518   6.7832002509e+01   4.4256242004e+01     0.788483    0.2865524  61.50  0.002706056    2.810    0.644
       210 -10.8796    140.6392     42.3341   7.1864164658e+01   4.4872652708e+01     1.002601    0.4474148  62.25   0.00368448    2.510    0.602
       211  -9.1916    142.8535     38.8505   7.0160828528e+01   4.4822570633e+01    0.2997804    0.2272798 -28.23  0.000524585    1.347    0.258
       212  -9.1890    105.5911     44.7675   8.1776399134e+01   5.2541033599e+01    0.3478747    0.2896359  33.59  0.001900674    1.183    0.155
       213  -8.8741     17.7703     44.3822   1.1442982528e+02   6.5104715188e+01    0.3285134    0.2007847  10.03  0.001987487    1.971    0.493
       214  -9.4047     12.9151     34.1923   1.1355104848e+02   6.7473972235e+01    0.2193096    0.1307128  26.78  0.001057814    2.034    0.508
       215 -10.4621     16.5447     31.5151   1.1100102196e+02   6.7742998402e+01    0.2897887    0.2167728 -71.83 0.0008833806    1.688    0.408
       216 -10.4129     13.0699     41.5197   1.1565135909e+02   6.6001799662e+01    0.4787646    0.2647092  -4.13  0.002441317    2.304    0.566
       217  -8.6058     37.7880    179.4008   1.2942868044e+02   3.3449234396e+01    0.1428189    0.1111789  26.03 0.0009536278    1.708    0.414
       218  -9.3164    152.1044     59.5435   7.5071712077e+01   3.9383011799e+01    0.4998755    0.3140815  58.82   0.00218342    1.643    0.391
       219  -8.2078      1.3571     44.2820   1.2140654185e+02   6.6076394108e+01    0.1204601   0.06227013 -39.61 0.0007016497    1.666    0.400
       220  -8.6571    219.6031     42.7227   5.8568472397e+01   2.4835478130e+01    0.1930574    0.1226178 -40.12 0.0004763468    1.477    0.323
       221 -10.3950    202.6998     37.8135   5.9445404656e+01   2.9670216542e+01    0.5604055    0.3881277 -25.42  0.002309343    1.500    0.333
       222  -9.6833      1.8344    177.9925   1.3653397992e+02   3.7078916965e+01    0.2213486    0.1197573  86.70  0.001441429    1.453    0.312
       223  -9.4610     26.7902    176.4977   1.3146143665e+02   3.5175870913e+01    0.2878795    0.1807798  49.77  0.001882907    1.474    0.322
       224  -9.8928    221.5457     32.5902   5.5648253912e+01   2.5648379847e+01    0.5458635    0.1862542 -24.57  0.001898414    3.269    0.694
       225 -11.0938    211.5032     32.6255   5.6855455708e+01   2.8115185396e+01    0.6512802    0.5800943  74.67  0.001679302    1.111    0.100
       226  -9.6279    216.7177     25.4219   5.4296427077e+01   2.7688679624e+01       0.3366    0.2257188  58.72  0.001733011    1.500    0.333
       227 -10.5652     13.9481    165.0000   1.3326981259e+02   3.8756194491e+01    0.2642345    0.1636875  23.72  0.001410767    2.167    0.539
       228  -8.9013    196.9705     41.6336   6.1350570578e+01   3.0623018916e+01     0.209982    0.1773972  69.82  0.001121331    1.174    0.149
       229  -9.5880    161.9094     41.2834   6.7111086530e+01   3.9674503117e+01    0.5737129    0.2832594  77.43  0.001931713    3.217    0.689
       230  -6.9995    162.0062     37.7686   6.5944014372e+01   4.0128173441e+01    0.4652861     0.299975 -63.66  0.002002428    2.050    0.512
       231  -9.1189    190.8753     39.9559   6.1771348050e+01   3.2401609473e+01    0.2539538    0.1897677  51.62 0.0008714985    1.339    0.253
       232  -9.3449    192.5039     36.4762   6.0504477570e+01   3.2437344954e+01    0.2885704    0.2304728  44.10 0.0009144245    1.315    0.239
       233  -9.4872    235.1172     38.6331   5.5677068188e+01   2.1660472037e+01     0.330059    0.2356377 -66.94  0.001453895    1.462    0.316
       234 -11.0169      8.6923    162.6683   1.3421054513e+02   3.9682210322e+01    0.3353236    0.1592695  40.68    0.0019778    2.064    0.516
       235 -10.1749      2.5186    161.1310   1.3540083872e+02   4.0485706689e+01    0.2764703    0.1734851 -74.28  0.001585543    1.355    0.262
       236  -9.2050     77.1085    155.8935   1.1794755049e+02   3.3685351596e+01    0.2985838    0.1687034  71.00  0.001355278    2.286    0.563
       237  -8.3149     33.2846    156.2843   1.2828591933e+02   3.8851538879e+01    0.1085202   0.08339407 -52.72 0.0002230834    1.523    0.343
       238  -9.8657    246.7478     32.9324   5.3068294009e+01   1.9700538554e+01    0.6407024    0.1680497  57.22  0.002292631    3.688    0.729
       239 -10.9980    236.4130     31.8409   5.3835886984e+01   2.2199161428e+01    0.5205892    0.5119231 -87.38  0.002714368    1.126    0.112
       240  -9.4369     62.5298    248.4799   1.3004993223e+02   1.7788867837e+01    0.1059629   0.07734423  61.30  5.95579e-05    1.023    0.023
       241 -11.8992     16.6407    119.8642   1.2852433104e+02   4.8463754030e+01     1.244058    0.5426774  38.92  0.006571421    2.451    0.592
       242  -8.5561      3.6033    246.1645   1.3920602767e+02   2.4528061778e+01    0.1222473   0.07047536 -76.56 0.0009492265    1.770    0.435
       243  -9.8416    180.5438     38.2474   6.2877579821e+01   3.5285261850e+01    0.4619586     0.279689 -67.54  0.001835203    2.256    0.557
       244  -9.8716    173.6287     38.5180   6.4112206963e+01   3.7034930741e+01    0.3197137    0.2507455  87.80 0.0007561466    1.416    0.294
       245 -10.1407    123.9455     36.7069   7.3786185789e+01   4.9687772226e+01    0.4231531    0.3245305 -33.19  0.001427642    1.329    0.247
       246  -9.1423    125.4401     32.4791   7.1841890797e+01   4.9922858409e+01    0.2765394    0.2114293  46.10  0.001399274    1.244    0.196
       247  -8.9202    168.6313     36.0909   6.4205971157e+01   3.8644848595e+01    0.2453007    0.1732348 -47.39  0.001172492    1.502    0.334
       248 -11.6229     67.3582     62.1246   1.0044257305e+02   5.6149971230e+01    0.2917806    0.2793339 -23.53 0.0005591662    1.105    0.095
       249  -9.4327    190.0103    245.2821   1.0760609302e+02  -2.0990123182e-01    0.1729086    0.1228418  82.38 0.0009030028    3.437    0.709
       250 -12.3428     20.3015    147.9722   1.3047987248e+02   4.1880126254e+01    0.6293672    0.4886591 -78.13  0.003049437    1.122    0.108
       251 -11.4646      5.7657     98.8377   1.2907328312e+02   5.3942587663e+01    0.6682523    0.3768483 -45.74   0.00398676    1.804    0.446
       252 -12.4805     24.8009     82.3372   1.2054853091e+02   5.6389153374e+01    0.9457958    0.7976355  32.13  0.006477554    1.437    0.304
       253 -11.9901      7.0943    143.5666   1.3314872730e+02   4.3896708644e+01    0.7558288    0.4579028  37.30  0.003542212    1.825    0.452
       254 -12.6924     11.1639    131.6754   1.3115069808e+02   4.6216315561e+01     1.209101    0.9605397 -19.29  0.007710447    1.823    0.451
       255 -10.1479    142.7598    243.1618   1.1567291027e+02   7.3710528740e+00    0.2463605    0.1333339  34.83  0.001261681    1.664    0.399
       256  -9.0285     82.3068    241.3298   1.2617731833e+02   1.6410398755e+01    0.0926859   0.08567732  12.69  0.000315035    1.659    0.397
       257 -11.0742     67.9394     73.6215   1.0370977692e+02   5.3655756646e+01    0.9402598    0.4486128 -52.94   0.00414635    1.931    0.482
       258 -12.0566    101.2476     55.1924   8.6870720852e+01   5.1641457361e+01     1.054403    0.8185598  35.40  0.002926155    1.311    0.237
       259 -11.4237     36.9718     25.5645   9.9285941452e+01   6.6954276976e+01    0.3312839    0.3000509  -0.82 0.0006325958    1.234    0.189
       260 -11.5360     71.4656     53.6890   9.6175700374e+01   5.7210568501e+01    0.5247331    0.3130114 -53.38  0.001786913    1.835    0.455
       261 -11.8033     11.3932    108.5901   1.2864177007e+02   5.1389882013e+01    0.9489595    0.5726548 -36.90  0.005591573    2.045    0.511
       262 -12.3418     19.2216     98.6993   1.2505345836e+02   5.3091935033e+01      1.33212    0.6442249 -55.65  0.007165145    1.705    0.414
       263 -11.2069     15.2106     87.9612   1.2466252971e+02   5.5807846825e+01     0.409835    0.3422244 -76.43   0.00248337    1.094    0.086
       264 -11.8480     56.4113     69.8125   1.0662051002e+02   5.6007211558e+01    0.8968494    0.4850576  23.56  0.004275861    2.285    0.562
       265  -9.6428    228.1439     31.3346   5.4583584159e+01   2.4211494563e+01    0.2840429    0.2064009 -50.33 0.0005736832    1.293    0.226
       266  -9.7831    225.6219     26.8403   5.3697345647e+01   2.5354247599e+01    0.3842654    0.2443176 -77.18  0.001884303    1.765    0.433
       267 -10.1674    194.3828     30.6356   5.8529286020e+01   3.2687296120e+01    0.3933878    0.3572351  15.47  0.001701092    1.237    0.192
       268 -12.3887     40.5762     65.8565   1.1126421276e+02   5.8644191914e+01     1.436328    0.9112881  13.56  0.007911416    1.971    0.493
       269 -11.5740     78.4722     61.1702   9.6280712528e+01   5.4635486651e+01      1.16532    0.4589151 -33.56  0.003847664    3.336    0.700
       270 -10.0239    159.5202     24.1350   6.1875384431e+01   4.2472646023e+01    0.8573447    0.2197955  54.17  0.002754527    3.192    0.687
       271  -8.9784     41.0208    236.7481   1.3287843423e+02   2.2256281498e+01    0.1274913     0.107371 -65.31  0.001027956    1.659    0.397
       272 -10.0539    175.8718     15.2558   5.6463414247e+01   3.9215258093e+01     0.277821    0.2353975  56.74 0.0005755192    1.129    0.114
       273  -9.4579     12.8065    232.2653   1.3724799782e+02   2.5968011522e+01     0.216077   0.09840164  67.05  0.001001389    1.696    0.411
       274  -8.9065    184.6441    236.2917   1.0731756153e+02   1.7494774223e+00    0.1143778   0.08262014  57.34 0.0007028987    1.685    0.407
       275 -10.0369    149.0618     23.8639   6.3664695376e+01   4.5182196480e+01    0.7421261    0.2025581  57.60  0.002435775    3.056    0.673
       276  -8.7290    227.2495    231.5957   9.9204945714e+01  -4.2811953051e+00    0.1645567   0.08629455  30.14 0.0006080862    1.574    0.365
       277 -11.6358     63.3180     30.8782   9.0474839480e+01   6.2547926344e+01    0.5749338     0.289166  33.45  0.001971557    2.120    0.528
       278 -10.8250     36.0550    151.2627   1.2713127692e+02   3.9681279570e+01    0.4897343    0.1881157  42.07  0.002049986    2.492    0.599
       279 -10.9180     39.3287    147.4197   1.2593210350e+02   4.0203316428e+01    0.3394769    0.3069773 -84.21  0.001283466    1.155    0.134
       280  -8.7838    198.8354     31.2398   5.8098390087e+01   3.1476389967e+01    0.2016612    0.1575276  43.68   0.00105043    1.375    0.273
       281  -9.0128    203.2707     28.8297   5.6834879995e+01   3.0643146637e+01    0.2696819    0.1823448  16.00  0.001240212    2.081    0.520
       282  -8.3511    201.3931     25.7200   5.6194782492e+01   3.1487325301e+01    0.2111205    0.1356743 -31.16 0.0009324488    1.555    0.357
       283  -8.3809    158.5100     29.4563   6.3833422351e+01   4.2095480344e+01    0.1443406    0.1385969  80.96 0.0001296781    1.061    0.058
       284 -10.5620    246.5172     19.0241   4.9767590377e+01   2.1378974755e+01    0.5346853    0.2484735  72.57  0.002078971    2.201    0.546
       285  -9.4967    250.3782     25.8551   5.1044306600e+01   1.9731569779e+01    0.2412082    0.1804843  54.28  0.001043276    1.517    0.341
       286 -11.5479     24.4356     70.1999   1.1821791591e+02   5.9124550656e+01    0.9030678    0.5332541 -48.59   0.00263331    1.406    0.289
       287  -9.0373    198.4917     16.5170   5.3939140272e+01   3.3258486765e+01    0.2419803    0.1872683  44.80 0.0006629038    1.393    0.282
       288  -9.0342     97.8267     22.2141   7.5064760754e+01   5.7468014504e+01    0.1926037      0.18505 -15.82 0.0005981932    1.176    0.149
       289  -8.9249     87.1314    148.9062   1.1443763977e+02   3.3776152157e+01     0.213846    0.1707413  75.91    0.0006458    1.256    0.204
       290  -8.5845     79.3321     15.6503   7.7928903890e+01   6.2004082132e+01    0.1682542    0.1355969  65.72 0.0007483796    1.709    0.415
       291  -9.0467     92.1428     15.2364   7.3715522420e+01   5.9515541807e+01    0.2077258    0.1606427  23.63  0.001112481    1.200    0.167
       292  -9.8165    205.7881     46.0365   6.1326325549e+01   2.7806001689e+01    0.3985511    0.1978945  61.94  0.001666098    1.994    0.498
       293  -9.7501     66.3305    148.2556   1.1946234172e+02   3.6858710447e+01    0.2223082    0.1850643  55.90  0.001375951    1.193    0.162
       294 -11.3106     29.9400    139.9291   1.2737427979e+02   4.2807580118e+01    0.6262611    0.2952394  63.37  0.002488729    2.463    0.594
       295 -10.2710     38.2995    143.0997   1.2568427277e+02   4.1279581374e+01    0.2433069     0.230547 -13.51 0.0003231523    1.419    0.295
       296  -8.1513     80.5104    140.4634   1.1469685551e+02   3.6666360309e+01     0.133537    0.1233873 -79.13 0.0002265548    1.058    0.055
       297  -8.8626     58.9764    139.4947   1.2003955288e+02   3.9781614402e+01    0.1766476    0.1268213  36.73 0.0004480414    1.531    0.347
       298 -10.0654     54.6884    137.8401   1.2089590421e+02   4.0676712679e+01    0.3178128    0.1855406 -55.60  0.001364344    1.635    0.388
       299  -9.3259     48.6233    138.1897   1.2249089131e+02   4.1293371555e+01    0.4394167    0.1569253  47.79  0.001828331    2.988    0.665
       300  -8.9144     85.4601    134.5426   1.1238538729e+02   3.7278054058e+01    0.3514822    0.1429774  31.29  0.001313908    3.093    0.677
       301 -10.6086     45.5813    131.6857   1.2238399009e+02   4.3117534791e+01    0.4636649    0.2938324 -34.28  0.002412481    2.245    0.555
       302 -10.4741     72.2774    129.6894   1.1499795263e+02   4.0305687113e+01     0.345723    0.2404961 -55.73  0.001374169    1.358    0.264
       303 -11.3433     67.1732    123.1702   1.1522810387e+02   4.2503901295e+01    0.7364646    0.3248234 -44.30  0.002989864    2.677    0.626
       304 -10.0351     59.6992    125.9372   1.1774622711e+02   4.2816885669e+01    0.2253783    0.1817886  43.49 0.0004003527    1.341    0.254
       305 -11.0927     55.9958    125.0204   1.1860244079e+02   4.3478046942e+01    0.5778692    0.2618218 -45.73  0.002499021    2.523    0.604
       306  -8.8320     74.9850    124.5070   1.1333229316e+02   4.1124944862e+01    0.1912424    0.1336363  39.59 0.0004377355    1.525    0.344
       307 -11.1539     42.7328    118.6736   1.2125128712e+02   4.6422350620e+01     0.629316    0.3101597  75.13  0.002489195    3.442    0.709
       308  -9.2919     92.4162    119.7891   1.0762150299e+02   3.9555308771e+01     0.374613    0.1464038 -47.80  0.001209227    2.526    0.604
       309  -9.5799     92.5171    115.4353   1.0665163196e+02   4.0531999050e+01    0.2953969    0.2061421 -55.52 0.0005188613    1.356    0.263
