#   1 NUMBER                 Running object number                                     
#   2 MAG_AUTO               Kron-like elliptical aperture magnitude                    [mag]
#   3 X_IMAGE                Object position along x                                    [pixel]
#   4 Y_IMAGE                Object position along y                                    [pixel]
#   5 X_WORLD                Barycenter position along world x axis                     [deg]
#   6 Y_WORLD                Barycenter position along world y axis                     [deg]
#   7 A_WORLD                Profile RMS along major axis (world units)                 [deg]
#   8 B_WORLD                Profile RMS along minor axis (world units)                 [deg]
#   9 THETA_WORLD            Position angle (CCW/world-x)                               [deg]
#  10 FWHM_WORLD             FWHM assuming a gaussian core                              [deg]
#  11 ELONGATION             A_IMAGE/B_IMAGE                                           
#  12 ELLIPTICITY            1 - B_IMAGE/A_IMAGE                                       
         1 -15.4772    187.1088    129.6574   2.0325003561e+01   1.9210768407e+01     4.038339     1.704096 -32.46   0.01611904    2.504    0.601
         2 -15.4109    191.7965     68.0488   5.1056961704e+00   2.8402563632e+01     3.505887     1.036816 -42.32   0.01312011    2.812    0.644
         3 -14.3957    169.3256     13.7563   3.5325116637e+02   4.0338315369e+01     2.824848     1.131259 -51.74   0.01252177    2.289    0.563
         4 -14.4677    175.5613      6.4338   3.5075013609e+02   3.9613720887e+01     2.695546     1.280352 -60.23   0.01333246    1.935    0.483
         5 -12.0290     94.7475     16.4513   4.8016627260e+00   5.8725697526e+01    0.6033722    0.4314142  43.45  0.002777782    1.423    0.297
         6 -12.0299      2.9204     10.3994   4.9371000233e+01   7.7727308152e+01    0.3665809    0.1708791 -50.89  0.001662426    2.019    0.505
         7 -11.4343     97.9739      6.7654   3.5992304214e+02   5.8852170254e+01    0.3767673    0.2656419 -57.02  0.001830674    1.538    0.350
         8 -12.8624    184.8826    243.0497   4.0766145898e+01   1.4004034063e+00    0.6572549    0.3138804   8.52  0.003346232    2.456    0.593
         9 -15.0946      4.5800    240.7930   7.9484161077e+01   2.1648474078e+01     8.780139    0.4605086 -81.86   0.01809943   17.509    0.943
        10 -13.4664     13.0598    242.0241   7.7674851193e+01   2.0690705869e+01    0.9298452    0.4988958 -87.61  0.005475439    2.025    0.506
        11 -15.3848      8.8419    203.9264   7.7229457948e+01   2.8970130249e+01     3.113986     1.995899   3.12    0.0150414    1.989    0.497
        12 -15.8096     13.3299    160.6513   7.3664451964e+01   3.9067173029e+01     9.053558     2.202136  89.72   0.02258162    6.595    0.848
        13 -12.3463    199.6781    225.9936   3.5637337738e+01   2.0667701495e+00    0.4708375    0.3068332  17.54  0.002702428    1.317    0.241
        14 -13.8776    191.5917    219.8990   3.6176000490e+01   3.8401554722e+00    0.7557266    0.6538895 -26.53  0.005209551    1.393    0.282
        15 -10.2709     76.9088    230.3186   6.2258456999e+01   1.6365259927e+01    0.1918767    0.1627797  72.38 0.0005731119    1.340    0.254
        16 -10.3543    171.9487    208.1717   3.8111176396e+01   8.0518140535e+00     0.305278    0.2236452 -36.62  0.001756305    1.418    0.295
        17 -12.0674    173.0074    226.3009   4.0653746690e+01   5.1165002290e+00    0.3514923    0.2742861  10.99  0.001789312    1.061    0.058
        18 -13.1050    174.5484    217.2229   3.9002113337e+01   6.3002632642e+00    0.8462207    0.5234943  -8.51  0.004637451    1.733    0.423
        19 -12.4313    212.9890    217.7337   3.2066655695e+01   1.7040930028e+00    0.4616122    0.2524923 -32.11  0.002337349    1.642    0.391
        20 -12.0249    205.7301    213.4360   3.2639495266e+01   3.1064845338e+00    0.4658833    0.2759967 -17.83  0.002547146    1.564    0.361
        21 -12.6351     58.7093    211.9250   6.5041021027e+01   2.2233343485e+01    0.5492952    0.3034121  40.72   0.00256778    1.519    0.342
        22 -11.3228    199.9056    242.8120   3.8030321279e+01  -1.6313467887e-01    0.2349346    0.1225792  13.34  0.001415789    1.727    0.421
        23 -10.7867    140.7700    206.2661   4.4401774984e+01   1.2585799189e+01    0.3219999    0.2838266  35.96  0.001346447    1.246    0.197
        24 -15.1469    209.8434    194.0922   2.8759854763e+01   5.3704991156e+00     2.445063     1.478813 -51.03   0.01330901    2.451    0.592
        25 -14.8570    197.0338    156.4034   2.4101181937e+01   1.3016705767e+01     2.100908     1.316053 -13.98   0.01078294    1.882    0.469
        26 -11.7552    242.6085    249.8128   3.2044938582e+01  -5.0174434160e+00    0.2619542   0.09075786  23.27  0.001499006    2.656    0.624
        27 -14.1103    218.0521    165.6471   2.2347214496e+01   8.5292982750e+00     1.412701    0.9465644 -43.42  0.008030394    1.557    0.358
        28 -11.9570    184.9996    198.2532   3.3947885593e+01   7.9166308590e+00    0.4088958    0.3260581   5.74  0.001697041    1.081    0.075
        29 -14.1557      6.7099    172.9945   7.6381009499e+01   3.6453510988e+01     1.457732    0.8426415  87.52  0.004414584    1.643    0.391
        30 -11.7256     66.6345    191.0475   6.0861027322e+01   2.5923320793e+01    0.3381403    0.2622571  66.83  0.001101914    1.356    0.262
        31 -12.9250     74.3811    186.0834   5.8144021550e+01   2.6067766299e+01    0.7647128    0.4674218  35.14   0.00348216    1.453    0.312
        32 -13.1607     70.0471    178.0523   5.8339551253e+01   2.8536419856e+01    0.8076032    0.5814003  19.44  0.002533385    1.432    0.301
        33 -12.2827     77.2391    171.4686   5.5374415470e+01   2.9134079588e+01    0.6716412    0.4446917 -24.86   0.00301267    2.064    0.515
        34 -11.9818    191.3657    184.4610   3.0373481314e+01   9.2545689858e+00    0.3691902    0.2735956  -6.32  0.001779806    1.255    0.203
        35 -10.1570     98.9747    181.2564   5.0787992802e+01   2.3700389882e+01    0.2273022    0.2120685 -51.59 0.0006484516    1.161    0.139
        36 -11.8602     58.8618    204.4828   6.4322460054e+01   2.3834547030e+01    0.3498187    0.2259675  26.30  0.001631533    1.417    0.294
        37 -14.0327    195.5142    144.0856   2.1896113017e+01   1.5313594933e+01      2.17276     1.126014 -13.48   0.00759162    4.223    0.763
        38 -13.3575    163.9857    240.4957   4.4399475600e+01   4.0975791256e+00    0.8477942    0.5296853  16.76  0.004753774    1.325    0.246
        39 -12.7084     71.0530    158.7820   5.5336624993e+01   3.3135092366e+01    0.9122011    0.5356616 -74.12  0.003934434    1.960    0.490
        40 -11.8198     64.0989    149.2707   5.6050918864e+01   3.6536949492e+01    0.5271872    0.3352776  82.88  0.000933405    2.037    0.509
        41 -13.2357     67.5666    143.8078   5.4031572326e+01   3.7460843027e+01     0.812444    0.6147646  61.22  0.002417009    1.414    0.293
        42 -11.7200     42.8709    154.8599   6.3708474340e+01   3.7750248465e+01    0.3540571     0.275678  -8.23 0.0006850094    1.572    0.364
        43 -12.0102     34.7920    159.1209   6.6774977844e+01   3.7511126564e+01    0.4365937    0.2956586  -3.43  0.001141479    1.909    0.476
        44 -11.2612     56.8808    147.8287   5.8182862599e+01   3.7885434103e+01    0.3032096    0.2818259 -14.05 0.0003747796    1.194    0.162
        45 -13.0717     41.0008    142.6573   6.2799898481e+01   4.1191464443e+01    0.5480868     0.342317  -3.14  0.001325204    2.202    0.546
        46 -11.7785     80.2330    136.6548   4.8600901772e+01   3.7358838336e+01    0.5907093    0.5440577  74.81  0.003136254    1.121    0.108
        47 -11.7401     89.3244    132.9085   4.4940060082e+01   3.6782328686e+01    0.7093682    0.5802816  33.78  0.002438758    1.208    0.172
        48 -13.6716    210.7579    179.2159   2.6012358666e+01   7.4584647898e+00     1.169576    0.6422188  34.07  0.006578112    1.936    0.483
        49 -11.5656     17.4984    138.9761   7.0558895965e+01   4.4450006474e+01    0.2588395    0.2078334  27.67 0.0003519239    1.284    0.221
        50 -11.9737     72.1062    130.6304   5.0105637656e+01   4.0198306592e+01    0.3027439    0.2755851   6.52 0.0004212618    1.187    0.158
        51 -10.0066     87.3821    120.7958   4.2895577084e+01   4.0139238700e+01    0.2674692    0.2084758  36.86 0.0005526001    1.270    0.213
        52 -11.1277     28.4693    238.0423   7.4076922888e+01   2.0053203192e+01    0.2585057    0.1137723 -79.61 0.0009654554    2.588    0.614
        53  -9.9219     45.1661    115.2879   5.6984244163e+01   4.8088021807e+01    0.2965964    0.1842315  73.34  0.001218006    2.086    0.521
        54 -10.3742    105.7533    111.9121   3.4960148724e+01   3.8787241651e+01    0.3647099    0.2888266 -70.38  0.001576906    1.445    0.308
        55  -9.1059    101.1730    115.5658   3.7267447602e+01   3.8833764798e+01    0.1979266    0.1505853  24.77 0.0002839834    1.456    0.313
        56 -12.2026    193.1392    233.9461   3.7978714218e+01   1.7163430519e+00    0.4459111    0.1949298  14.19  0.002145134    2.692    0.628
        57 -13.2782    206.7482     69.4704   3.6109799937e+00   2.5176466133e+01    0.8303278    0.4900023 -46.33  0.004495257    1.445    0.308
        58  -9.5538     31.0149     89.3302   5.7865211262e+01   5.6692798652e+01    0.1976194    0.1818364  23.87 0.0003515101    1.130    0.115
        59 -12.4877    190.5874    209.4232   3.4723922206e+01   5.4899784820e+00    0.4425475    0.3086681 -13.50  0.002015467    1.280    0.219
        60 -13.3755    226.8899     69.9830   1.5546873489e+00   2.1336099257e+01    0.7015003    0.5243193 -52.41  0.004588576    1.152    0.132
        61 -13.3282    221.8541     63.5181   6.3740551230e-01   2.3122977403e+01    0.5751379    0.3984465  66.87  0.003579292    1.678    0.404
        62  -9.7359     64.1987     65.8336   3.5831950925e+01   5.7571854405e+01    0.2233012     0.202658  84.04 0.0006087206    1.263    0.208
        63 -12.3726    240.0302     59.8360   3.5819878178e+02   2.0368005427e+01    0.6083636    0.3334869 -57.84  0.003530307    1.764    0.433
        64 -12.2051    245.8702     54.6201   3.5666222425e+02   2.0030203060e+01    0.5724156    0.2968222  69.15   0.00144226    2.340    0.573
        65 -11.7112     13.2354     60.2826   6.0510784080e+01   6.5804711896e+01    0.2600573    0.2360913  30.76  0.000662486    1.198    0.165
        66 -10.9632     12.5022     48.9837   5.7869654899e+01   6.8615094789e+01       0.2117    0.1268207 -63.86  0.001042391    1.622    0.384
        67 -13.3263    185.3946    228.6368   3.8630971651e+01   3.3195212106e+00    0.7118291     0.368928  20.53  0.003085781    1.732    0.423
        68 -12.9647    158.9600    220.5896   4.2635072181e+01   7.7351696168e+00     1.390049    0.7179496 -54.71  0.006824967    2.787    0.641
        69 -11.8874      2.7015     22.8330   5.5919416699e+01   7.5239200036e+01    0.4537762   0.07699689 -50.25  0.001565154    3.728    0.732
        70  -9.0829     60.2947     21.3151   1.7764608137e+01   6.6423179028e+01    0.1409271    0.1000847  22.61 0.0004814981    1.601    0.375
        71 -10.3276     51.0000    245.9927   6.9442126714e+01   1.6289568786e+01    0.2309101    0.1596021 -87.96  0.001067151    1.725    0.420
        72 -10.3220     51.0000    242.0401   6.9188031563e+01   1.7025553829e+01     0.207004    0.1667797 -77.93 0.0008010447    1.479    0.324
