#   1 NUMBER                 Running object number                                     
#   2 MAG_AUTO               Kron-like elliptical aperture magnitude                    [mag]
#   3 X_IMAGE                Object position along x                                    [pixel]
#   4 Y_IMAGE                Object position along y                                    [pixel]
#   5 X_WORLD                Barycenter position along world x axis                     [deg]
#   6 Y_WORLD                Barycenter position along world y axis                     [deg]
#   7 A_WORLD                Profile RMS along major axis (world units)                 [deg]
#   8 B_WORLD                Profile RMS along minor axis (world units)                 [deg]
#   9 THETA_WORLD            Position angle (CCW/world-x)                               [deg]
#  10 FWHM_WORLD             FWHM assuming a gaussian core                              [deg]
#  11 ELONGATION             A_IMAGE/B_IMAGE                                           
#  12 ELLIPTICITY            1 - B_IMAGE/A_IMAGE                                       
         1 -14.3033     68.7381    144.2276   1.0128475938e+02   3.7371025885e+01     4.816394     2.168725  62.16  0.007498026    4.952    0.798
         2 -13.2723    198.7380     41.3103   4.3050742775e+01   3.0634327907e+01     1.127255    0.9984559 -55.26  0.003451722    1.098    0.090
         3 -13.7580    208.6107     31.7149   3.9511147113e+01   2.9579291521e+01     1.295972    0.9652561 -10.67  0.001556566    1.873    0.466
         4 -12.8818    233.5643      5.8098   3.1501838138e+01   2.7061444585e+01    0.8218166    0.5955418 -89.82  0.005062943    1.212    0.175
         5  -7.9940    224.2658    206.6999   7.6498636329e+01  -2.7037733861e+00    0.1085242    0.1033951 -51.31 0.0002332319    1.519    0.342
         6 -10.6948    140.0364    249.9475   1.0017776426e+02   3.3175521964e+00    0.3061169    0.2208602  50.84  0.001609431    1.367    0.269
         7 -13.9741     43.4850    197.0088   1.1479821797e+02   2.7715924015e+01     3.283427     1.198958  61.39  0.007938988    3.883    0.742
         8 -10.9898    111.6736    204.4258   1.0002304014e+02   1.6441800675e+01    0.4021451     0.288143  87.25 0.0007827546    1.766    0.434
         9 -10.7914    107.5004    203.5097   1.0085108432e+02   1.7311515534e+01    0.3950071     0.253497  67.76  0.001704496    1.949    0.487
        10  -8.6298     32.3402    205.3213   1.1797556447e+02   2.7089578474e+01    0.1841139    0.1588599 -72.91 0.0007181988    1.269    0.212
        11  -9.1109     31.4429    202.4951   1.1793709119e+02   2.7814030230e+01    0.2143712    0.1767305  68.84 0.0005958294    1.075    0.069
        12 -10.8894    193.3411    195.4413   8.0403919516e+01   4.1637095387e+00     1.015117     0.533995 -63.06  0.002996051    6.036    0.834
        13  -9.4759    193.3243    205.3164   8.2252857923e+01   2.4259031937e+00     0.141321   0.09752996   0.05 0.0002866769    1.668    0.401
        14 -16.3090      6.5158    204.6900   1.2327731246e+02   2.9763994589e+01     15.93927      1.05507 -75.91  0.008786269   10.249    0.902
        15 -10.8407    202.5824    199.6060   7.9332655478e+01   1.8806308128e+00    0.4210835    0.1543955  38.69  0.001657455    2.662    0.624
        16 -10.7083     61.0909    198.4355   1.1094094548e+02   2.5230563280e+01    0.3123229    0.2893129  70.52 0.0005557226    1.120    0.107
        17  -9.1109     58.5127    221.4754   1.1384957779e+02   2.0503444192e+01    0.2439485    0.1704049  67.54  0.001096969    1.285    0.222
        18  -9.6929    120.9282    195.4859   9.6487714374e+01   1.6838302291e+01    0.2531832    0.1946966 -83.49 0.0006528703    1.572    0.364
        19  -9.6180    114.9954    194.5072   9.7729181839e+01   1.8051532311e+01    0.2843964    0.1673371 -23.26  0.001035233    3.440    0.709
        20 -17.2457     15.2538    243.0840   1.2375572239e+02   2.1072037971e+01     5.822474     2.121669  27.42   0.01957689    3.749    0.733
        21 -12.9840     55.4915    186.3414   1.1087749441e+02   2.8752853285e+01    0.8994855    0.6915569  58.38  0.005271349    1.223    0.182
        22  -9.8131    149.4727    188.6852   8.8659105581e+01   1.3269487121e+01    0.3718535    0.2449745 -88.34  0.001430615    3.101    0.677
        23  -8.8675     72.0243    188.1773   1.0712593585e+02   2.6137120505e+01    0.2092989    0.1591534  70.06 0.0005152027    1.291    0.226
        24  -8.1606     77.2855    185.7021   1.0551551408e+02   2.5975400341e+01    0.1410279   0.09773955  70.22 0.0003714359    1.549    0.355
        25  -8.9615     69.8666    183.9277   1.0709280326e+02   2.7438607467e+01     0.212659    0.1446169  70.20 0.0004289736    1.562    0.360
        26 -10.4682     65.7924    179.3268   1.0748860259e+02   2.9091004952e+01     0.345457    0.2924372 -82.39 0.0007513266    1.090    0.082
        27  -9.8676     99.3902    180.6703   9.9295260181e+01   2.3777198272e+01    0.2499427    0.2448024 -11.25 0.0006785451    1.146    0.128
        28  -8.5880     90.4364    181.0099   1.0158083029e+02   2.5118136422e+01    0.2053403    0.1357788 -64.28 0.0003525017    1.512    0.339
        29  -8.9294     38.1183    181.4899   1.1449328553e+02   3.1934294440e+01    0.1651643     0.123333  39.06 0.0003173752    1.420    0.296
        30  -9.8029     42.7936    179.8399   1.1319767452e+02   3.1808385513e+01    0.2272426    0.2177217 -69.88 0.0004308182    1.225    0.184
        31 -10.0540     45.9717    176.5024   1.1204811379e+02   3.2245908171e+01    0.3078159    0.2511877  82.92 0.0009485527    1.093    0.085
        32  -9.7303    188.1901    176.4398   7.7712531356e+01   8.6124217298e+00    0.3632981    0.2981143 -52.22  0.001942302    1.385    0.278
        33  -8.9366    148.4929    175.0087   8.6273935998e+01   1.6356240261e+01    0.2747172    0.2169438 -69.33 0.0007924763    1.532    0.347
        34  -9.5456    146.4768    171.5273   8.6057448898e+01   1.7494619130e+01    0.2630322    0.2174546 -74.92 0.0007110775    1.459    0.315
        35 -12.8573     48.7885    107.5913   1.0032831961e+02   4.9044154280e+01     1.886261     1.042061 -81.30   0.00756516    2.703    0.630
        36 -13.0564     70.9709    154.2577   1.0238820907e+02   3.4543251212e+01    0.6557066    0.5568262 -57.56  0.001181213    1.141    0.124
        37  -9.3962     89.9076    212.3735   1.0604763261e+02   1.8115499632e+01    0.2342101    0.1704227  89.21 0.0005358433    1.500    0.333
        38 -11.4397     70.0197    172.5342   1.0547964441e+02   3.0158852259e+01    0.4276697    0.2971636 -32.48  0.001685222    1.954    0.488
        39  -8.4943     93.3620    179.1814   1.0056325619e+02   2.5092659024e+01    0.1972426     0.131505 -75.55 0.0004155486    1.661    0.398
        40  -8.5916    193.9742    171.4743   7.5483106212e+01   8.4970520127e+00    0.2125425    0.1396388  40.26  0.001017481    1.555    0.357
        41  -9.8557    240.4543    169.4803   6.6333563593e+01   7.8019922863e-01    0.1338428    0.1124438 -19.37  6.23352e-06    1.017    0.017
        42  -8.9740    185.3846    169.2022   7.6799734233e+01   1.0544813480e+01    0.2037009    0.1355806 -50.35 0.0007932445    1.639    0.390
        43 -10.2061     34.0519    166.1317   1.1384193708e+02   3.6060019823e+01    0.4431182    0.2480541  54.33  0.002239003    1.840    0.457
        44  -9.0516    135.5321    164.8989   8.7370836648e+01   2.1051214369e+01    0.3186712    0.1873446  53.25  0.001229789    1.952    0.488
        45  -9.3123     35.4765    158.2304   1.1255514191e+02   3.7852160152e+01    0.2371916    0.1808759  73.85 0.0006292679    1.276    0.216
        46  -9.8763     32.0883    156.4991   1.1323794724e+02   3.8619137430e+01    0.2754598    0.2215739 -23.39  0.001625304    1.638    0.390
        47 -11.5512     89.6890    152.3226   9.6885515856e+01   3.2204470876e+01    0.7483867    0.4989232 -25.54  0.002099542    2.158    0.537
        48 -10.5546    133.8460    145.4918   8.3636978033e+01   2.5838240489e+01      1.25248     0.321963 -54.36  0.002873116    5.777    0.827
        49 -11.2446     54.7673    147.4021   1.0579122296e+02   3.8394445462e+01     0.813518    0.3954267 -59.98  0.003592963    1.809    0.447
        50  -9.1191    174.8691    149.1804   7.4691490225e+01   1.6675875866e+01    0.2314799    0.2092372 -81.04  0.000592595    1.319    0.242
        51  -9.0611    110.9170    148.9851   9.0431956129e+01   2.9383229202e+01    0.3583123    0.1929606  58.71  0.001283198    2.649    0.623
        52 -10.3067     38.5555    146.1299   1.1015338808e+02   4.0542804481e+01    0.3385295    0.2369297  52.59 0.0007231673    1.521    0.343
        53 -10.2195    103.0433    138.4814   9.0348621449e+01   3.3351338914e+01    0.5614862    0.3431797 -26.32  0.002154212    2.457    0.593
        54 -11.7565     90.4670    138.1075   9.3843713890e+01   3.5601909929e+01    0.2986387    0.2686304 -37.21 0.0004708979    1.152    0.132
        55 -11.0146     43.6431    130.2458   1.0625769690e+02   4.3990565766e+01    0.4701354    0.2772804  85.35  0.001993037    2.248    0.555
        56  -9.8267    111.8157    129.4860   8.5832426861e+01   3.3909828196e+01    0.3452193    0.2653442   7.14 0.0009214262    1.684    0.406
        57  -9.2737    160.3826    127.1690   7.2744209728e+01   2.4391154383e+01    0.2328567      0.14368 -52.57 0.0006716216    1.729    0.422
        58 -10.3084     99.0866    125.2870   8.8484184122e+01   3.7266332161e+01    0.3224439    0.2638453 -12.96 0.0008915159    1.463    0.316
        59 -10.3674    117.6854    123.9398   8.2848082198e+01   3.4084122205e+01    0.4200263    0.2783427   8.67  0.001441262    2.461    0.594
        60  -8.8863     92.1938    124.9450   9.0438923737e+01   3.8552335112e+01    0.2302685    0.1968336  89.00 0.0006417333    1.336    0.252
        61  -9.9587    105.9254    130.8647   8.7818068187e+01   3.4679363404e+01    0.3711848    0.3228235 -70.31    0.0012569    1.203    0.169
        62  -9.8917    135.0000    122.9935   7.7951381583e+01   3.0761194362e+01    0.3885106   0.08862158 -46.08  0.000978342    4.295    0.767
        63  -9.1666    108.0525    118.4931   8.4214626529e+01   3.7234154012e+01    0.2209478    0.2023894 -44.58 0.0003069568    1.054    0.051
        64  -9.9255    231.1958    113.7861   5.5835628244e+01   1.2008363851e+01    0.2771474    0.2469517 -36.77 0.0007878294    1.023    0.023
        65 -10.5384    117.4758    109.6193   7.9207814137e+01   3.7423372184e+01    0.5644969    0.3070076  60.03  0.001979464    2.779    0.640
        66 -11.3856     74.0074    167.9916   1.0377184524e+02   3.0709451132e+01    0.3796135    0.3156182 -39.08 0.0007075826    1.384    0.278
        67  -9.3394    205.4858    110.1983   5.9264082189e+01   1.7925214748e+01    0.2497321    0.2104734  52.57  0.000624599    1.284    0.221
        68 -11.3833     31.0369    107.1768   1.0621567867e+02   5.0951590941e+01    0.4055197    0.2877344 -52.81  0.002286962    1.201    0.167
        69  -7.8537    140.2931    106.6934   7.2299042476e+01   3.3199516371e+01    0.1557009    0.1257137 -82.56 0.0004060516    1.581    0.367
        70 -10.2828    119.7691    103.8596   7.6991052562e+01   3.8235012708e+01    0.3037023    0.2219402 -63.18  0.001355257    1.617    0.382
        71  -9.8119    241.5162    102.4721   5.1779676262e+01   1.1925400294e+01    0.1359828    0.1178282 -39.49 5.162452e-05    1.040    0.039
        72  -8.5691    134.6466    101.9671   7.2446047830e+01   3.5450813545e+01    0.2655348    0.1237321 -60.86 0.0007047032    4.467    0.776
        73 -11.1546     31.5183     99.1963   1.0450735388e+02   5.2839044773e+01     0.433553    0.3733445 -54.63   0.00269245    1.021    0.020
        74  -9.1028    128.3011     95.6520   7.2332067733e+01   3.8172360456e+01    0.2768195    0.1853878  56.37  0.001120804    1.669    0.401
        75 -12.2476     82.4648    159.5425   1.0015302136e+02   3.1546685674e+01     1.198877    0.6956706  69.13  0.004758588    2.529    0.605
        76  -9.3613    156.2655     88.3528   6.3361193498e+01   3.3247098100e+01    0.3705646    0.2334573 -64.96  0.000910715    2.251    0.556
        77  -8.3812    116.7831     85.5888   7.2531958574e+01   4.2732591218e+01    0.2157694    0.1461319  56.48 0.0009467255    1.680    0.405
        78  -8.8103    158.4722     82.5289   6.1221267443e+01   3.3812433982e+01    0.1511941    0.1468229 -72.83 0.0001012476    1.030    0.030
        79  -8.2829     70.7079     82.2590   8.6222689600e+01   5.2005677899e+01    0.1295913    0.1137688  78.02 0.0002137078    1.494    0.331
        80 -12.9735    187.9334     49.6740   4.6710008857e+01   3.2047280208e+01    0.9988089    0.9002369  29.70 0.0007817432    1.326    0.246
        81  -8.8739     60.3001    218.7141   1.1321219171e+02   2.0859234477e+01    0.1946941    0.1475233  75.12 0.0004246334    1.185    0.156
        82  -8.5247     69.2574     52.6346   7.6908891123e+01   5.8100344334e+01    0.1803701    0.1216977  26.46 0.0005064143    1.495    0.331
        83 -11.3734     21.5426     33.6091   9.0247274959e+01   6.7639498409e+01    0.3987338    0.1978653  37.35  0.002048574    2.625    0.619
        84  -8.1980    168.7245    234.6871   9.2222421232e+01   1.4162840869e+00    0.1261112    0.0919524   1.05 0.0002285855    1.560    0.359
        85 -10.5332    227.3968     25.9737   3.6307541872e+01   2.6095782843e+01    0.2754926    0.1100045 -33.78  0.001251771    2.412    0.585
        86  -9.2090    198.1526     23.3864   3.8634447158e+01   3.2998452364e+01     0.205814    0.1765526 -26.48  0.000675636    1.370    0.270
        87  -8.7839    189.5795     14.7735   3.7417460241e+01   3.5964125293e+01    0.1709184     0.108503 -46.92 0.0004796798    1.538    0.350
