#   1 NUMBER                 Running object number                                     
#   2 MAG_AUTO               Kron-like elliptical aperture magnitude                    [mag]
#   3 X_IMAGE                Object position along x                                    [pixel]
#   4 Y_IMAGE                Object position along y                                    [pixel]
#   5 X_WORLD                Barycenter position along world x axis                     [deg]
#   6 Y_WORLD                Barycenter position along world y axis                     [deg]
#   7 A_WORLD                Profile RMS along major axis (world units)                 [deg]
#   8 B_WORLD                Profile RMS along minor axis (world units)                 [deg]
#   9 THETA_WORLD            Position angle (CCW/world-x)                               [deg]
#  10 FWHM_WORLD             FWHM assuming a gaussian core                              [deg]
#  11 ELONGATION             A_IMAGE/B_IMAGE                                           
#  12 ELLIPTICITY            1 - B_IMAGE/A_IMAGE                                       
         1  -8.9246    111.6560     34.4213   7.8368056696e+01   5.3101319230e+01    0.3309683    0.1720741 -29.12   0.00103256    1.940    0.484
         2  -8.1973    120.6132     20.8517   7.0389885070e+01   5.2753710032e+01    0.2066465    0.1284112 -36.41 0.0008572721    1.735    0.424
         3  -8.6437     55.5372      9.9417   8.7321921395e+01   6.7850724967e+01    0.2110311    0.2043685 -31.05 0.0007782328    1.456    0.313
         4  -8.0373     47.7226     10.1715   9.1202028650e+01   6.9034222358e+01    0.1925096    0.1503412 -41.07  0.001048154    1.519    0.342
         5  -8.3193     90.9719      9.0256   7.3275835820e+01   6.1076460877e+01     0.205859    0.1700546 -58.25 0.0008382589    1.684    0.406
         6  -7.6130     12.9936      9.0046   1.1057208810e+02   7.3072791576e+01    0.1434331    0.1094074 -29.66 0.0003704268    1.021    0.020
         7  -8.7767     33.4949      5.2122   9.6074279494e+01   7.1730836589e+01     0.312225    0.2050117 -57.04  0.001601845    2.651    0.623
         8  -8.5296     79.0577      4.0582   7.4663246184e+01   6.4184194053e+01    0.2703454    0.1583929 -44.01 0.0008579275    2.315    0.568
         9  -8.0976     44.6682      3.3350   8.8907444754e+01   7.0487583201e+01    0.1659371    0.1495465 -49.06 0.0006707939    1.684    0.406
        10  -7.9185    115.5143      2.4816   6.3760773224e+01   5.5907022988e+01    0.1397977    0.1288849  41.29 0.0008091961    1.072    0.067
        11  -8.3339     62.3208      1.5334   7.9638898864e+01   6.7763864652e+01    0.1594005    0.1551653 -62.28 0.0004142971    1.520    0.342
        12  -8.2841    101.2223      8.1611   6.9864931250e+01   5.8832408841e+01    0.1807319    0.1659225 -51.78 0.0005015996    1.356    0.263
        13  -8.4630     67.6988    245.4387   1.3136067017e+02   1.8436247875e+01    0.1885382    0.1072198  82.38 0.0009757252    2.023    0.506
        14  -9.0810    210.9765    246.5390   1.0579291814e+02  -1.1988771025e+00    0.2107879    0.1781153 -55.20  0.001133303    2.304    0.566
        15  -8.4876    191.5798    249.7677   1.0958324089e+02   1.1652026571e+00    0.1169505    0.1088347 -36.35 0.0006264569    1.652    0.395
        16  -8.9773    132.7650    248.4127   1.1994345668e+02   9.6325633991e+00    0.3153684    0.1472653  55.12  0.001253027    2.657    0.624
        17  -8.5422     94.2421    249.8134   1.2698966092e+02   1.4560835622e+01    0.2525932    0.1096856  55.48  0.001400317    2.270    0.559
        18  -8.5957     26.1875    250.3997   1.3860470555e+02   2.2076734406e+01    0.1421372   0.05685762  46.15 0.0006493923    1.687    0.407
        19  -8.2155    139.4924    244.9541   1.1835832051e+02   9.1548352406e+00     0.133899   0.09180153  77.46  0.000808019    2.442    0.591
        20  -8.7891      9.4089    243.6478   1.4106153612e+02   2.4657600886e+01    0.2327486   0.07599822  76.54  0.001296835    3.074    0.675
        21  -9.8666    248.6794    241.9516   9.8845687501e+01  -5.8026442808e+00    0.4542648    0.3408332 -39.70  0.003201592    2.491    0.599
        22  -9.0047    247.7207    234.7498   9.7906570899e+01  -5.0158393161e+00    0.2621931    0.1628465  16.06  0.001230025    1.178    0.151
        23  -9.3218    246.4889    229.6088   9.7307289010e+01  -4.3632192449e+00    0.3703761    0.2014777 -21.50  0.002315167    1.869    0.465
        24  -8.7621    201.8758    243.0880   1.0689624469e+02   4.3969194877e-01    0.2044533    0.1519581 -40.79 0.0009149271    1.978    0.494
        25  -8.9227    169.2344    243.6151   1.1278416409e+02   5.0660656295e+00     0.213202     0.155858  53.34 0.0006405741    1.648    0.393
        26  -9.0051     77.9728    243.4454   1.2940766949e+02   1.7522885731e+01    0.2753842    0.1224215  64.26  0.001464694    2.735    0.634
        27  -7.2830     58.3194    244.6574   1.3294796825e+02   1.9624154024e+01    0.1114948   0.05509836  59.11 0.0007049644    1.720    0.419
        28  -9.3372    160.2753    240.5031   1.1403758830e+02   6.7556212402e+00    0.2750186    0.2120182  88.86  0.001233019    2.346    0.574
        29  -9.3462    183.2190    240.4228   1.0985124061e+02   3.4221345519e+00    0.3526257    0.2224397  57.52   0.00191655    2.606    0.616
        30  -8.2636    153.3218    242.0435   1.1549760527e+02   7.5643665273e+00    0.1523364     0.125568  37.18 0.0006488741    1.136    0.120
        31  -8.9085    146.8371    240.2634   1.1648720791e+02   8.7350441019e+00    0.2996377    0.1941328  81.44  0.001478975    3.550    0.718
        32  -8.2891     88.2034    242.1833   1.2747268178e+02   1.6452214503e+01    0.1485733   0.09832972  60.40 0.0005575982    1.370    0.270
        33  -8.1528      2.6377    240.3122   1.4204229097e+02   2.5761211565e+01     0.105617    0.0416684  57.43 0.0006257023    1.753    0.429
        34  -8.4638    209.1265    238.2697   1.0495536927e+02  -6.8419155335e-02    0.2008755    0.1433539 -41.16  0.001179669    2.089    0.521
        35  -8.5480    135.7864    239.0410   1.1840201828e+02   1.0487710765e+01    0.1767096    0.1240941  52.37 0.0009265224    1.381    0.276
        36  -8.1843    129.0157    238.9623   1.1965488417e+02   1.1459360037e+01     0.179863    0.1127205  57.11 0.0007064284    1.716    0.417
        37  -7.9269     40.6952    239.3577   1.3570482711e+02   2.2350924779e+01    0.1103072   0.05245326  60.34 0.0007039919    1.722    0.419
        38  -9.2052    231.0569    237.0469   1.0101456776e+02  -3.0031432001e+00    0.2507101    0.2256773  45.55  0.001471017    1.942    0.485
        39  -7.7805    189.5945    237.2650   1.0828011253e+02   2.8644347773e+00    0.1402624    0.1007099 -11.10 0.0007885712    1.583    0.368
        40  -8.3599     25.4362    236.4381   1.3817333862e+02   2.4334114758e+01    0.1693279    0.0714721  81.24  0.001023895    2.409    0.585
        41  -7.9487     13.3716    237.7099   1.4023030651e+02   2.5243221746e+01    0.1072292   0.04467012  56.72 0.0005244784    1.720    0.418
        42  -8.9927    216.6844    235.3771   1.0322161251e+02  -8.3173024897e-01    0.1942795     0.192547  75.66  0.001249259    1.857    0.462
        43  -9.5380    213.8228    231.7655   1.0318668173e+02  -3.4164872506e-02    0.2447616    0.2216799 -41.32  0.001093902    1.829    0.453
        44  -9.2460    203.2439    234.1416   1.0540084506e+02   1.2329488846e+00     0.320615    0.1934233 -39.58  0.001468588    2.231    0.552
        45  -9.7770    175.8644    233.5493   1.1028091190e+02   5.3422909765e+00    0.3640834    0.2302766 -56.66   0.00213465    2.715    0.632
        46  -8.3878    170.1105    235.7256   1.1162842045e+02   5.9215511878e+00    0.1607423    0.1565097  42.61 0.0006233421    1.408    0.290
        47  -9.1504    194.2436    239.8887   1.0780590701e+02   1.8864504287e+00    0.2309005    0.1629054 -41.57  0.001560155    2.002    0.501
        48  -9.3133    108.7840    234.5282   1.2300037032e+02   1.4918656048e+01    0.3334819    0.1653892  53.29  0.001006402    1.925    0.481
        49  -8.3699    123.0755    234.2468   1.2027406924e+02   1.2979058722e+01    0.2006552    0.1307077  70.75  0.000808053    2.122    0.529
        50  -8.4417     99.4490    234.1344   1.2471925170e+02   1.6232743920e+01    0.2030337     0.143335  77.06 0.0008461219    1.645    0.392
        51  -8.8367     78.8537    234.6194   1.2859444521e+02   1.8789468742e+01    0.2416164    0.1241307  61.47 0.0009453104    1.955    0.489
        52  -8.9900     68.4100    232.4320   1.3035583500e+02   2.0399824291e+01    0.3881387    0.1380243  60.69  0.001715009    3.648    0.726
        53  -8.3603    144.5078    232.9974   1.1607787369e+02   1.0068986739e+01    0.1865928    0.1255596  62.34  0.001128474    1.953    0.488
        54  -8.8620    140.1723    230.1119   1.1656127633e+02   1.1115372548e+01    0.3248459    0.1679529  55.15  0.001100475    2.370    0.578
        55  -8.5289    132.5715    232.7530   1.1831239433e+02   1.1842019576e+01    0.1310685    0.1098527  87.88   0.00059175    1.576    0.366
        56  -9.3799    186.5146    230.7349   1.0793716116e+02   4.1019629738e+00    0.2710786    0.2280429 -87.58  0.001401095    2.296    0.564
        57  -7.8613    157.6134    231.8363   1.1346191929e+02   8.2884782715e+00    0.1300977    0.1146195 -71.81 0.0006154073    1.648    0.393
        58  -8.5669     92.1845    231.6160   1.2586278030e+02   1.7580082901e+01    0.2408942    0.1319331  70.85 0.0009746627    2.398    0.583
        59  -9.0333    236.1266    230.9314   9.9233120618e+01  -3.0877973754e+00    0.1858321     0.149745  12.63 0.0004354076    1.266    0.210
        60  -8.7590      1.7153    230.8875   1.4192856784e+02   2.7346269664e+01    0.1838156   0.08697718  69.87 0.0009536998    1.645    0.392
        61  -9.2590    151.3459    229.0149   1.1429538135e+02   9.6122815296e+00    0.2632369    0.1783746  82.40  0.001376968    3.149    0.682
        62  -9.5221    148.8414    224.7085   1.1423418139e+02   1.0599183519e+01    0.3870224    0.2683835  77.72  0.001451169    2.613    0.617
        63  -8.1676    229.9567    228.9980   9.9977375866e+01  -2.0344365058e+00    0.1518036     0.131372  36.59 0.0006875496    1.672    0.402
        64  -8.8505    162.1361    228.0432   1.1211962968e+02   8.1225399889e+00    0.2576773    0.1924282  58.45  0.001024898    1.704    0.413
        65  -8.8702    128.1669    227.4470   1.1856073650e+02   1.3262474443e+01    0.2442519     0.172042  66.26  0.001207365    1.741    0.425
        66  -8.0471    119.8636    227.5516   1.2017661452e+02   1.4440332396e+01    0.2018019    0.1447601  83.84  0.001284001    1.915    0.478
        67  -8.1647    223.5662    226.7797   1.0073217669e+02  -8.9385207363e-01    0.1962047     0.102609 -23.08  0.001142198    2.106    0.525
        68  -9.0257    206.1174    226.1788   1.0371736941e+02   1.7210027969e+00    0.2082916     0.160175 -29.81 0.0007728736    1.623    0.384
        69  -8.4396    199.9691    226.1471   1.0482134854e+02   2.6412764234e+00     0.192241     0.153802 -28.57 0.0008500263    1.558    0.358
        70  -8.3801     49.2317    226.8923   1.3350736002e+02   2.3486376614e+01    0.2170114    0.1102229  63.31   0.00126269    1.764    0.433
        71  -8.7874     94.1843    224.3223   1.2482548466e+02   1.8490635154e+01    0.3623326    0.1602445  60.41  0.001647914    2.955    0.662
        72  -8.1767     39.2067    225.6449   1.3525604520e+02   2.4753070059e+01    0.2739768   0.07598503  59.77   0.00115701    4.023    0.751
        73  -8.9754    180.5847    223.9825   1.0808192417e+02   5.8494193884e+00    0.2636389    0.2193881 -57.48  0.001081157    1.858    0.462
        74  -8.7936    216.5892    223.1249   1.0138538595e+02   5.2176753210e-01    0.2670685    0.1631704 -31.51  0.000921163    1.919    0.479
        75  -8.7469    173.0667    223.1913   1.0938802934e+02   7.1076979685e+00    0.2008108     0.174596 -43.76 0.0006287941    1.548    0.354
        76  -8.3373    113.7244    224.0965   1.2100006892e+02   1.5848703861e+01    0.1724251    0.1313884  70.69 0.0007005505    1.480    0.325
        77  -8.7668    104.7125    223.5102   1.2269936418e+02   1.7199436604e+01    0.2663665    0.1737077  78.22  0.001608334    2.010    0.503
        78  -8.9013    194.7206    232.3922   1.0667774342e+02   2.6835039191e+00    0.2665978    0.1759885 -24.17  0.001671479    1.775    0.437
        79  -9.3006    192.5251    221.5197   1.0549619075e+02   4.3326026816e+00    0.2700472    0.2300118  73.91  0.001090927    2.077    0.519
        80  -8.4754    140.1342    222.8570   1.1569389213e+02   1.2182026610e+01    0.1836464     0.134757  50.06 0.0004816438    1.299    0.230
        81  -9.2771    239.6393    220.8152   9.7040931888e+01  -2.5453757064e+00    0.3511513    0.2180128  -5.18  0.001394915    1.510    0.338
        82  -9.3329    225.5053    221.6452   9.9590630176e+01  -6.1689371253e-01     0.195899    0.1676834  10.93 0.0006765518    1.320    0.242
        83  -9.0529      7.0499    221.3170   1.4073633862e+02   2.8491596303e+01    0.3306748    0.0706339  57.68  0.001557041    3.519    0.716
        84  -9.1584    120.2094    219.1740   1.1918187952e+02   1.5699866081e+01    0.3652884    0.2043534  64.86  0.001832034    2.616    0.618
        85  -8.6817     82.9511    220.7841   1.2668838905e+02   2.0539900081e+01    0.2444388    0.1216809  61.96  0.001124398    2.219    0.549
        86  -8.1924     73.4514    220.9852   1.2854515706e+02   2.1693460535e+01    0.1561001   0.07884561  75.28 0.0008076886    2.622    0.619
        87  -7.9517     27.5120    221.5147   1.3715091598e+02   2.6616173247e+01    0.1031282   0.07636052  61.93 0.0001393943    1.010    0.010
        88  -8.1660    202.8258    220.1038   1.0338810353e+02   2.9340506408e+00    0.1667292     0.143463  28.65 0.0006032022    1.307    0.235
        89  -8.7307    248.8785    218.3414   9.5098556175e+01  -3.5754873803e+00    0.3024344    0.1826756  51.75  0.001565061    3.338    0.700
        90  -8.9970    159.8658    221.0132   1.1161718023e+02   9.4418981398e+00    0.4160266    0.1870121  51.29  0.001688241    2.781    0.640
        91  -8.0768    209.9690    219.1764   1.0194928618e+02   1.9628691312e+00       0.1692    0.1380083  30.24 0.0005563967    1.286    0.222
        92  -8.8182    169.5233    216.6686   1.0914118777e+02   8.5482559427e+00    0.2491084    0.1918815  75.60 0.0009553666    2.255    0.557
        93  -9.2815    132.8998    216.0624   1.1628182842e+02   1.4309706198e+01    0.4176384    0.2564751  72.58  0.002047372    2.945    0.660
        94  -8.2474    111.9688    217.2987   1.2061354221e+02   1.7190607943e+01    0.2236496    0.1334144  75.56  0.001148505    2.644    0.622
        95  -8.1548     62.3358    217.4444   1.3041527714e+02   2.3629667654e+01    0.3168855    0.1034328  55.88  0.001390616    3.253    0.693
        96  -8.9239     51.2797    217.3066   1.3252204695e+02   2.4903915449e+01    0.2229847    0.1414515  76.89 0.0009500388    1.494    0.331
        97  -7.8524    228.5032    217.5116   9.8406231920e+01  -5.9977664135e-01     0.121334   0.08776286  16.19 0.0001759101    1.017    0.016
        98  -8.6811    142.7555    216.3321   1.1435132817e+02   1.2766342411e+01    0.2316906    0.1653396 -78.03  0.001112581    2.256    0.557
        99  -8.4672     18.6018    216.2801   1.3851397683e+02   2.8349808370e+01     0.182977   0.08210865 -89.18  0.001130828    2.114    0.527
       100  -8.5183    232.4460    214.9884   9.7311856170e+01  -8.9747370781e-01    0.1962643    0.1849547 -33.76  0.001059239    1.825    0.452
       101  -8.4442    154.3105    215.1859   1.1190801044e+02   1.1146801595e+01    0.2029647    0.1492923 -64.60 0.0007972872    2.013    0.503
       102  -8.5340    185.4610    214.5920   1.0577610884e+02   6.3223868555e+00    0.1816401    0.1707944  48.90 0.0007314723    1.452    0.311
       103  -8.9695     93.8230    214.5948   1.2396491160e+02   2.0164023015e+01    0.4117297    0.1346928  49.21  0.001775227    2.854    0.650
       104  -9.5077    214.0442    212.3336   1.0011964334e+02   2.1558327070e+00     0.313627    0.2526093  48.96  0.001456656    1.743    0.426
       105  -9.4290     73.4740    212.3148   1.2782403078e+02   2.3192081926e+01    0.5449644    0.1733469  54.99  0.002174802    3.745    0.733
       106  -7.9881    224.7677    212.9011   9.8303075386e+01   4.6791438815e-01    0.1504159    0.1380545 -44.02 0.0009823958    1.855    0.461
       107  -8.9460    161.5175    212.3603   1.1008742977e+02   1.0427068845e+01    0.2098353     0.204695  29.98 0.0008283628    1.278    0.218
       108  -8.1900    106.4175    212.7672   1.2123438546e+02   1.8733216696e+01    0.1863878    0.1170792 -70.94   0.00073944    2.008    0.502
       109  -8.9639    204.4382    210.9520   1.0164780087e+02   3.8106135322e+00    0.2203866    0.2069164 -86.63 0.0008354845    1.848    0.459
       110  -9.4055    175.5107    210.2577   1.0703092689e+02   8.4957214376e+00    0.3557684    0.2495793  63.49  0.001536709    2.321    0.569
       111  -9.3443      6.9039    209.5827   1.4034874092e+02   3.0537628174e+01    0.4957787    0.1132618  68.14  0.001802833    5.895    0.830
       112  -8.4403    192.2784    210.5911   1.0386247807e+02   5.7729169493e+00    0.1904352    0.1479447 -44.21 0.0007557773    1.766    0.434
       113  -8.9000    148.0093    210.4453   1.1251184737e+02   1.2851048244e+01    0.2523153    0.1931183  82.95  0.001302993    2.032    0.508
       114  -8.8142    116.4379    210.6701   1.1895637361e+02   1.7639010019e+01    0.2886329    0.1652185  58.29 0.0009602422    1.970    0.492
       115  -8.5221     85.4591    209.6312   1.2516906891e+02   2.2138748541e+01    0.2578713    0.1455182  66.50  0.001175949    2.024    0.506
       116  -8.6608     46.5288    209.6826   1.3293176094e+02   2.6772020733e+01    0.2357349    0.1060744  66.12  0.001097298    2.287    0.563
       117  -7.9026     32.2536    210.2680   1.3570400039e+02   2.8129253431e+01    0.1602083   0.07064573  83.56 0.0007685723    2.397    0.583
       118  -9.0508    236.4252    208.2509   9.5497910440e+01  -7.3738937879e-01    0.2338817    0.1984842 -27.14 0.0008839421    1.639    0.390
       119  -8.5287    139.3488    208.1812   1.1395821573e+02   1.4565401951e+01    0.2345059    0.1668256  62.47 0.0008253658    1.721    0.419
       120  -8.2246    126.8437    208.8958   1.1660969898e+02   1.6377810275e+01    0.1946411    0.1275277  59.53 0.0009434223    1.725    0.420
       121  -9.3930    246.2773    207.2829   9.3665390206e+01  -2.0622549493e+00    0.2487992    0.1749805  -7.67 0.0005916106    1.259    0.206
       122  -9.4077    250.1485    202.0029   9.2102710880e+01  -2.0513475934e+00    0.3478381      0.15024 -23.86  0.001617342    2.301    0.565
       123  -8.0686    156.4850    208.0309   1.1046598439e+02   1.1873834923e+01    0.1591058    0.1270665 -48.18 0.0008688224    1.575    0.365
       124  -9.2883     99.7235    206.5313   1.2192431995e+02   2.0749628122e+01    0.3732868    0.2031995  62.47  0.001532095    2.213    0.548
       125  -8.4914     56.3190    205.3888   1.3069449634e+02   2.6474130033e+01    0.2527378    0.1148943  65.86  0.000935195    2.453    0.592
       126  -9.4196    194.8678    203.5652   1.0223599926e+02   6.2915116310e+00    0.3136923    0.2621041 -19.52  0.001007585    1.339    0.253
       127  -9.2989    192.4561    197.3373   1.0165764809e+02   7.5381829211e+00    0.3961104    0.2921095 -33.15  0.001352812    1.564    0.360
       128  -9.0740    184.0031    204.0989   1.0441495269e+02   7.9854957501e+00    0.2730625    0.2180399  59.60  0.000952186    1.768    0.434
       129  -8.7011    131.2463    204.0581   1.1507319897e+02   1.6500810450e+01    0.2572019    0.1858321  62.91  0.001021866    1.616    0.381
       130  -8.1981    109.0172    205.0893   1.1983120110e+02   1.9675045078e+01     0.189696    0.1278241  65.53 0.0006224226    1.675    0.403
       131  -9.6808    163.9184    203.1929   1.0825094643e+02   1.1403024497e+01    0.3834915     0.228237  50.81  0.001073374    1.845    0.458
       132  -8.7048    210.9777    201.8398   9.8926505453e+01   3.9261382621e+00    0.2350824      0.16542 -48.49 0.0009425454    2.253    0.556
       133  -8.3816     48.6814    202.5086   1.3201418082e+02   2.7852414709e+01    0.2042742    0.1097481  73.06  0.001135248    1.888    0.470
       134  -9.2172    243.1462    200.9290   9.3083901435e+01  -9.1410869309e-01     0.247664    0.1809353 -28.58 0.0009738228    1.629    0.386
       135  -7.9209    221.8907    201.7608   9.6930142115e+01   2.2163126298e+00    0.1520181    0.1325748  23.00 0.0005426711    1.333    0.250
       136  -8.7984    140.4544    201.2889   1.1277802721e+02   1.5505952399e+01     0.273233    0.1893219  73.18 0.0009733881    2.238    0.553
       137  -8.6851     80.0356    201.6023   1.2550841686e+02   2.4291225656e+01    0.2939125    0.1483205  58.48  0.001532238    2.045    0.511
       138  -7.5665     73.2871    202.6127   1.2700561092e+02   2.4963165297e+01    0.1246395   0.07281625  65.29 0.0007009344    1.752    0.429
       139  -9.2394    237.0772    198.3618   9.3664579197e+01   2.8363047054e-01    0.2792092    0.1624605 -36.33  0.001582925    2.112    0.527
       140  -9.4825    149.6864    198.8347   1.1050251923e+02   1.4412545554e+01    0.3611732    0.2578785  75.10  0.001461347    2.299    0.565
       141  -8.9649    123.8553    199.1945   1.1597604332e+02   1.8471227444e+01    0.2833294    0.2043907  77.04  0.001317385    1.866    0.464
       142  -9.3519    112.8464    198.4856   1.1822331875e+02   2.0270148227e+01    0.4197528     0.229403  62.02  0.001641156    2.436    0.590
       143  -9.2097     88.7651    198.6023   1.2336436256e+02   2.3687051037e+01    0.3607612    0.2121019  76.77  0.001573805    2.253    0.556
       144  -8.3644    177.0209    199.0248   1.0496896326e+02   9.8620982775e+00     0.191374    0.1621019  30.32 0.0004682721    1.110    0.099
       145  -8.4923    202.1555    197.7599   9.9873774675e+01   5.8818507702e+00    0.1886767    0.1697233 -23.18 0.0006419152    1.393    0.282
       146  -9.1739     61.3700    197.1053   1.2899459579e+02   2.7434074708e+01    0.3649718    0.1808462  65.65  0.001562316    2.214    0.548
       147  -9.3274     12.7125    197.3860   1.3877757902e+02   3.2267208714e+01     0.263177    0.1004495  76.25  0.001385024    2.583    0.613
       148  -8.8311    216.0019    195.9031   9.6972190852e+01   3.8753527770e+00    0.2442002    0.1981473 -44.40  0.001037537    1.825    0.452
       149  -8.6022    133.0974    196.0348   1.1358052210e+02   1.7562105219e+01    0.2296049    0.1685873 -80.50 0.0006972317    1.963    0.491
       150  -7.9404     53.7060    196.7147   1.3055523787e+02   2.8386251142e+01    0.2311202    0.1109085  76.94  0.001158865    2.544    0.607
       151  -8.1219     36.1617    196.7863   1.3414198420e+02   3.0227934024e+01    0.2004368   0.07284361  60.93 0.0009403236    2.829    0.647
       152  -7.8597    209.2244    195.9687   9.8235458903e+01   4.9640006179e+00    0.1505893   0.09911926 -28.01  0.000867358    1.634    0.388
       153  -8.9458    185.1722    194.8753   1.0266426575e+02   9.1037609959e+00    0.2267026    0.2083781 -58.91 0.0007122213    1.568    0.362
       154  -8.8192    224.5705    194.2949   9.5134478208e+01   2.7079161795e+00    0.2395413    0.1978728 -34.91 0.0008966019    1.636    0.389
       155  -8.9787    160.9335    194.3449   1.0747888178e+02   1.3266425419e+01    0.2966562    0.2162408  63.66  0.001045414    1.916    0.478
       156  -8.9795     43.7740    193.4391   1.3236176425e+02   3.0087993037e+01    0.3747828    0.1605562  62.84  0.001896129    2.415    0.586
       157  -9.3964    245.5959    192.8013   9.1214036193e+01  -3.6423563313e-01    0.3328895    0.2086849 -13.97  0.001337281    1.467    0.318
       158  -8.7447     76.9895    194.1651   1.2541627069e+02   2.6072431894e+01     0.214287    0.1335893  54.68 0.0005225482    1.435    0.303
       159  -8.3584    230.9726    194.0924   9.3962447800e+01   1.7250114992e+00    0.1920399    0.1494914  10.74 0.0007037344    1.037    0.036
       160  -8.1165    198.9067    192.0714   9.9503068159e+01   7.1937986855e+00    0.1789229    0.1643966  30.02 0.0005660568    1.321    0.243
       161  -8.0478    179.0013    191.9164   1.0339204311e+02   1.0583114648e+01    0.1829456    0.1553328  63.27  0.000578933    1.627    0.385
       162  -8.4901    172.2920    191.8175   1.0473373811e+02   1.1740031353e+01     0.215037    0.1964602  75.19 0.0009551981    1.515    0.340
       163  -9.1946    139.5070    190.5660   1.1140900235e+02   1.7460986713e+01    0.3428778    0.2452557  76.47  0.001149102    2.142    0.533
       164  -8.5006     22.6283    192.2719   1.3658633026e+02   3.2368728136e+01      0.11715   0.05816737  58.00 0.0006999546    1.677    0.404
       165 -10.4783     92.1040    188.7787   1.2153945382e+02   2.5069768941e+01    0.8700789    0.2301641  46.37    0.0031633    3.522    0.716
       166  -7.9297     90.6384    181.6984   1.2101500458e+02   2.6646473139e+01    0.1626773    0.1232923 -45.65 0.0009699166    1.590    0.371
       167  -8.7554    148.6359    189.5353   1.0929653482e+02   1.6117895252e+01    0.1957346    0.1610237 -88.27 0.0007927893    1.728    0.421
       168  -8.3709    237.1002    188.3113   9.1838032403e+01   1.4617123342e+00    0.2403416    0.1456515 -14.64 0.0009792669    1.592    0.372
       169  -8.7487    216.5058    187.9964   9.5456760572e+01   4.8129390191e+00     0.212579    0.2058556 -13.20 0.0007938825    1.497    0.332
       170  -9.3555    156.0845    187.5287   1.0739166471e+02   1.5190966329e+01    0.3363704    0.2296254 -61.67 0.0009874896    2.115    0.527
       171  -9.0494    129.2409    188.6325   1.1334424353e+02   1.9473832556e+01    0.2621027     0.189533  66.54 0.0008857694    1.706    0.414
       172  -9.8672    120.9390    186.9923   1.1492972522e+02   2.1096617222e+01    0.4761139     0.283032 -78.95  0.002171041    2.894    0.654
       173  -8.8148     34.3551    188.2406   1.3395217465e+02   3.2047908917e+01    0.2725778    0.1257004  67.68 0.0009032485    2.175    0.540
       174  -7.8661    242.5139    188.4677   9.0939136134e+01   6.0408435437e-01    0.1254733   0.09574784   9.68 0.0002419687    1.016    0.016
       175  -8.9210    191.4695    187.5408   1.0014754024e+02   9.0975627337e+00    0.2386601    0.2184852  72.63 0.0009851132    1.633    0.388
       176  -9.0475     54.8199    187.0628   1.2952431246e+02   3.0126321207e+01    0.3755242    0.1771119  64.19  0.001857023    2.327    0.570
       177  -8.7578    249.3721    185.7922   8.9289143835e+01  -1.3199883933e-01    0.2313245    0.1900733 -37.70  0.001005042    1.814    0.449
       178  -7.8433    230.4755    187.5012   9.2845641667e+01   2.6071589810e+00     0.127172    0.1004877  11.93   0.00080979    1.044    0.042
       179  -8.8883    164.8195    186.5614   1.0539251765e+02   1.3848797556e+01    0.2537144    0.1973166 -56.15 0.0009545333    1.709    0.415
       180  -9.3786    109.4864    185.9725   1.1732873543e+02   2.3062544902e+01    0.3483516    0.2444146  81.35  0.001078468    1.862    0.463
       181  -8.9222    182.9115    184.6400   1.0133784062e+02   1.1007836202e+01     0.288252    0.1820483 -40.90  0.001058859    1.844    0.458
       182  -8.8366    210.1553    184.3422   9.5965196321e+01   6.3610801751e+00    0.2147432     0.174114 -21.42 0.0004809097    1.320    0.243
       183  -8.4213    202.8376    184.7389   9.7429118822e+01   7.5501745385e+00    0.1961533     0.173563 -71.53 0.0007202142    1.907    0.476
       184  -9.0898     66.7325    184.5060   1.2668546839e+02   2.9232344832e+01    0.3357717     0.184645  56.65  0.001266422    1.731    0.422
       185  -8.5518    224.1456    183.7345   9.3273309302e+01   4.1078175870e+00    0.1972716    0.1616265 -21.88 0.0005321108    1.354    0.262
       186  -8.1728    197.0394    183.7787   9.8375512859e+01   8.6828005974e+00    0.2129978    0.1693957 -46.71  0.001090123    1.705    0.413
       187  -9.1476    174.3088    183.4002   1.0287483395e+02   1.2702290938e+01    0.2865986    0.2297902 -53.22 0.0009854287    1.657    0.397
       188  -8.9940    241.1816    181.9099   8.9936918716e+01   1.5908763886e+00    0.2805339    0.2077219 -51.08  0.001563929    2.496    0.599
       189  -9.1245     44.4818    182.4771   1.3138056920e+02   3.2161285148e+01    0.3190829    0.1619426  62.17   0.00117607    1.908    0.476
       190  -8.2191      2.1422    183.6920   1.4024487177e+02   3.5698028529e+01    0.1963974   0.06132615  37.30  0.001068105    2.550    0.608
       191  -9.3448    147.4944    180.2479   1.0803734493e+02   1.7904110543e+01    0.3719063    0.2754333 -68.79  0.001449531    1.910    0.476
       192  -7.7675     19.3439    182.6804   1.3672130100e+02   3.4516247893e+01    0.1202631   0.06010306  61.09 0.0007049558    1.724    0.420
       193  -9.6011     25.6027    178.9901   1.3518816146e+02   3.4697694010e+01    0.5421005    0.1840999  71.36  0.002149882    4.100    0.756
       194  -8.6863    137.6731    179.3831   1.1006126957e+02   1.9737555765e+01    0.2688738    0.1963644  66.81 0.0009657898    1.770    0.435
       195  -9.4688    191.4556    178.3281   9.8469475279e+01   1.0460710588e+01    0.3120844    0.2325988  52.84 0.0006359667    1.666    0.400
       196  -8.3132    169.3182    178.7116   1.0308250384e+02   1.4334542368e+01    0.2156519    0.1662198 -53.81  0.000705097    1.694    0.410
       197  -9.1951     36.2535    177.2311   1.3276746521e+02   3.4051633567e+01    0.4703786    0.1817361  74.42   0.00193569    3.663    0.727
       198  -9.5371    248.3730    176.4774   8.7683918623e+01   1.1130343157e+00    0.3759407    0.2494381 -37.03  0.001767335    1.879    0.468
       199  -8.6566    250.5266    172.6224   8.6577494677e+01   1.2359115902e+00    0.2141188    0.1310895 -26.26 0.0005548091    1.561    0.359
       200  -8.6155    231.1592    177.1364   9.0763648258e+01   3.7994262865e+00    0.2038153    0.1704976 -18.69 0.0005528804    1.316    0.240
       201  -8.7084    205.0659    177.6406   9.5673950785e+01   8.1682027774e+00    0.2712595    0.1759131 -31.78  0.001254721    1.644    0.392
       202  -8.5719    129.1400    177.5275   1.1167712022e+02   2.1510769130e+01    0.2608459    0.1964934  79.09 0.0008323623    1.802    0.445
       203  -8.9449     89.0414    177.0052   1.2079581912e+02   2.7801479759e+01    0.2767966    0.1848214  79.30  0.000835118    1.803    0.445
       204  -8.3463    217.4657    177.1362   9.3239647190e+01   6.0977460034e+00    0.1896344    0.1703262  23.74 0.0006507937    1.287    0.223
       205  -9.2851    183.1425    176.2548   9.9762227508e+01   1.2258916865e+01    0.2391938    0.2188091 -39.42 0.0004708723    1.361    0.265
       206  -7.9053     97.5288    177.4963   1.1890235863e+02   2.6484896762e+01    0.1265399    0.1147381  48.50 1.952384e-05    1.051    0.048
       207 -10.0638     57.2546    173.2707   1.2770996110e+02   3.2630204450e+01     0.724892    0.3100597  76.01  0.002678648    4.286    0.767
       208  -8.7608     13.0780    176.8683   1.3770543376e+02   3.6187883869e+01    0.2418519   0.09887911  60.36  0.001013595    2.180    0.541
       209  -9.3567    158.8566    175.1661   1.0468519016e+02   1.6790371495e+01    0.3511341    0.2493252  68.58  0.001038151    2.194    0.544
       210  -9.6011    104.2160    174.8548   1.1699244947e+02   2.6007114832e+01    0.4537728    0.2414478  60.16  0.001666751    2.436    0.590
       211 -10.9182     76.0789    169.4061   1.2288775795e+02   3.1115261700e+01     1.208071    0.4835428 -72.52  0.004959543    3.144    0.682
       212  -9.4627    175.8472    172.4790   1.0056626852e+02   1.4177538593e+01    0.2961504    0.2496838 -30.17 0.0008108922    1.305    0.233
       213  -8.8476    143.1015    172.7777   1.0774510194e+02   1.9998867772e+01    0.2136783    0.1906908 -82.41 0.0006245418    1.397    0.284
       214  -8.5011    134.7751    171.8915   1.0947892441e+02   2.1606875795e+01    0.2273739    0.1891867 -88.73 0.0007802585    1.545    0.353
       215  -9.3012     44.9708    170.7827   1.3029225482e+02   3.4493462317e+01    0.3565052    0.1802793  82.28  0.001375873    2.242    0.554
       216  -8.6958    230.5070    170.4250   8.9565074739e+01   4.7767129301e+00    0.2310997     0.172894 -39.73 0.0007758247    1.728    0.421
       217  -8.3258    205.6894    170.3075   9.4133349400e+01   9.1133596992e+00    0.2158913      0.16006 -41.06 0.0007165407    1.653    0.395
       218  -9.5063    121.3318    170.4145   1.1233604378e+02   2.4156844996e+01    0.3186114    0.2470377  83.83  0.001079398    1.652    0.395
       219  -8.3007    237.1095    169.7061   8.8266655400e+01   3.7645624914e+00     0.198727    0.1599996 -21.09 0.0005854199    1.309    0.236
       220  -8.6966    198.3660    170.2455   9.5549820933e+01   1.0438037583e+01    0.2218199    0.1772253  31.51  0.000908757    1.152    0.132
       221  -9.0125    167.1178    168.7409   1.0171866399e+02   1.6393606067e+01    0.2705102    0.2317349 -86.04 0.0007213208    1.713    0.416
       222  -8.8726    149.8447    169.2304   1.0560758953e+02   1.9445734254e+01    0.2878167    0.1992848 -59.42  0.001018757    1.883    0.469
       223  -8.2892    224.3053    174.1043   9.1400199396e+01   5.3407793435e+00    0.1796562    0.1484689  -6.21 0.0007025723    1.148    0.129
       224  -8.0690     35.7637    170.2031   1.3233517308e+02   3.5539963898e+01     0.162246   0.09313427  16.38 0.0008746102    2.452    0.592
       225  -8.6770    244.6120    169.1680   8.6880484048e+01   2.6012606461e+00    0.1840848    0.1439854 -24.85  0.000637062    1.379    0.275
       226  -8.1706    218.9702    168.4944   9.1266920448e+01   7.0205575964e+00     0.198277    0.1584695 -11.90 0.0004966209    1.184    0.155
       227  -8.9109    111.6464    167.6834   1.1418131012e+02   2.6270969459e+01    0.3490358    0.2241771  65.89  0.001627466    2.006    0.501
       228  -8.3903     88.7710    168.7252   1.1978174696e+02   2.9520887290e+01    0.2440345     0.154077  80.86  0.001173493    2.087    0.521
       229  -7.7680    211.3978    168.1936   9.2622901101e+01   8.3999008284e+00     0.172176     0.122148 -39.26  0.000530752    1.673    0.402
       230  -8.5964     13.1854    167.7507   1.3717962570e+02   3.8020018014e+01    0.1959369   0.06992493  59.93 0.0009380323    2.691    0.628
       231  -8.8726    191.9818    166.7297   9.6131075727e+01   1.2138783158e+01    0.2322318    0.1959289 -34.87 0.0005575459    1.366    0.268
       232  -8.7571    185.0954    166.6977   9.7529898430e+01   1.3414405210e+01    0.2182607    0.1859213 -41.40 0.0005932243    1.410    0.291
       233 -10.0240    136.8584    164.5112   1.0772226033e+02   2.2633333395e+01    0.5909181    0.2990901  55.26  0.002304112    2.610    0.617
       234 -10.1466     94.9625    162.5244   1.1741542665e+02   2.9905079837e+01    0.8048185    0.4753532  82.97  0.002694451    2.755    0.637
       235  -9.2454     20.5263    166.1192   1.3546069927e+02   3.7761405842e+01    0.3545626    0.1561601  62.19  0.001476235    2.179    0.541
       236  -8.2596    233.8123    164.8559   8.7867011827e+01   4.9467645931e+00     0.216518    0.1560784 -26.68 0.0006214336    1.402    0.287
       237  -8.8260    159.6158    164.2484   1.0250638868e+02   1.8555170139e+01    0.2749589    0.2293079 -84.76 0.0008717003    1.746    0.427
       238  -9.8090     33.4081    163.4312   1.3233138308e+02   3.7181534759e+01    0.5192127    0.1716461  54.02  0.002229186    3.118    0.679
       239  -8.2687    239.9049    164.1690   8.6675356194e+01   4.0073576552e+00    0.1810587     0.160397  -4.43 0.0005665944    1.255    0.203
       240  -8.5106    213.0039    163.5515   9.1383010220e+01   8.7776521007e+00    0.2276848    0.1803922 -38.83 0.0006113743    1.535    0.349
       241  -8.7428     57.0144    164.0052   1.2681578080e+02   3.4599531506e+01     0.321061    0.1612018  15.99  0.001386563    3.332    0.700
       242  -9.5192    245.9844    162.8328   8.5379335462e+01   3.1674405398e+00    0.3645472    0.3025567  78.32  0.002041182    2.524    0.604
       243  -8.6359    245.2732    158.6539   8.4644293058e+01   3.8138824805e+00     0.194362    0.1640301  -9.40 0.0006225721    1.184    0.156
       244  -8.3036    204.8001    163.0271   9.2846636689e+01   1.0346319909e+01    0.1892344    0.1758337  -7.58 0.0004253518    1.233    0.189
       245  -9.2671      3.2859    162.3661   1.3904701303e+02   3.9855710634e+01    0.3469039    0.1312793  54.17  0.001867666    2.293    0.564
       246  -7.8300    200.2912    162.6648   9.3655328398e+01   1.1230931654e+01     0.122134    0.1130442 -87.17 0.0003879488    1.637    0.389
       247  -8.9346    151.6212    161.2737   1.0373301733e+02   2.0568457573e+01    0.2901445    0.2378152 -75.69  0.001104671    1.681    0.405
       248  -9.0278    177.5569    160.6581   9.7905830011e+01   1.5812789084e+01    0.2817638     0.243969  73.33  0.001156381    1.619    0.382
       249  -9.0836     60.6890    160.4410   1.2553498856e+02   3.4933337889e+01     0.342602     0.172903  65.86    0.0015128    2.458    0.593
       250  -8.6988    227.3890    159.0611   8.7815260461e+01   6.8383684999e+00    0.2475073     0.187453 -41.34 0.0008692046    1.682    0.406
       251  -8.6479    128.3015    159.2798   1.0880315419e+02   2.5150631618e+01    0.2660651    0.1873076  70.39 0.0006524698    1.961    0.490
       252  -9.7891    105.8427    158.1669   1.1407056734e+02   2.9135605373e+01    0.4600509      0.28519  65.75  0.001201823    2.147    0.534
       253  -9.7544    250.1874    157.8545   8.3670477006e+01   3.0989729619e+00    0.3026569    0.1610848 -24.62 0.0007616932    1.720    0.419
       254  -8.2462    236.7279    158.9311   8.6148865071e+01   5.2274801816e+00    0.1867175    0.1486162  -7.97 0.0005961177    1.110    0.099
       255  -9.3846    167.6064    157.8512   9.9489630689e+01   1.8182077317e+01    0.3486908    0.2643231 -52.67  0.001827443    1.637    0.389
       256  -8.4179    196.5767    158.0333   9.3441558742e+01   1.2638407494e+01    0.2386916    0.1901829  51.31 0.0006930761    1.495    0.331
       257  -8.4756    188.0697    157.6924   9.5099891536e+01   1.4305294254e+01    0.2269174    0.1888049 -36.88 0.0005765985    1.360    0.265
       258  -8.4570    217.8666    156.1169   8.8934168054e+01   8.9635924462e+00    0.2646229    0.2138358 -52.40  0.001219924    1.818    0.450
       259  -8.4318    214.6859    155.2908   8.9353342330e+01   9.6675673026e+00    0.2016335    0.1672507 -36.97 0.0004603406    1.440    0.306
       260  -9.3866    119.4590    155.0745   1.1019366895e+02   2.7522851576e+01    0.4796788     0.294828 -75.26  0.001536422    2.548    0.608
       261  -9.2983     49.7824    155.4095   1.2765822616e+02   3.7255084595e+01      0.40893    0.1890264  59.53  0.001557581    2.450    0.592
       262  -8.5820    157.7547    155.9745   1.0130875975e+02   2.0389411668e+01    0.2403667    0.2024798 -69.69 0.0009623601    1.580    0.367
       263  -9.4642     81.6077    154.8144   1.1961199672e+02   3.3463851523e+01    0.4548271    0.2415716  60.45  0.001877381    2.340    0.573
       264  -8.8032    242.8154    155.1405   8.4327373447e+01   4.6806263316e+00    0.2020893    0.1609189  23.36 0.0004548939    1.181    0.153
       265  -8.0658    239.7312    153.3350   8.4469300678e+01   5.4471474482e+00    0.1928026    0.1515442  22.80  0.000422973    1.166    0.143
       266  -8.0745    204.7686    155.2572   9.1242171770e+01   1.1522202651e+01    0.1966863     0.172389 -44.97 0.0006465408    1.475    0.322
       267  -8.6524    144.6594    155.0593   1.0414228755e+02   2.3018780303e+01    0.3055559    0.1860955  53.12  0.000867703    1.837    0.456
       268  -9.5823    132.8283    152.9770   1.0655346038e+02   2.5592040349e+01    0.4336905    0.3153308  80.81  0.001243027    2.092    0.522
       269  -8.9432    133.5078    148.5171   1.0552668692e+02   2.6355366055e+01    0.2934379    0.2185098 -37.73  0.001038312    1.461    0.315
       270  -9.5695     68.1525    153.9205   1.2288956869e+02   3.5436439771e+01     0.409211    0.2215862  61.66  0.001275473    2.156    0.536
       271  -8.3243    232.7450    153.5144   8.5708509499e+01   6.6473586976e+00    0.2668398    0.1428271 -40.02  0.000967339    2.168    0.539
       272  -8.1203    151.8026    152.8435   1.0204263993e+02   2.2096503479e+01     0.189027     0.172038  83.09 0.0008415018    1.365    0.268
       273  -9.1916     20.3316    152.8432   1.3458039411e+02   4.0580366270e+01     0.194307     0.129572  50.06 0.0008307524    1.402    0.287
       274  -8.0128      8.6710    153.3257   1.3734433637e+02   4.1360852642e+01    0.1211336   0.06417353  63.35 0.0007050369    1.702    0.412
       275  -9.6929     29.3302    150.6152   1.3223053744e+02   4.0304101281e+01    0.4423922     0.179764  66.00  0.001702461    3.027    0.670
       276  -8.0283    250.4892    140.9957   8.0070932189e+01   5.1962143127e+00    0.1877051    0.1475494 -10.83 0.0005365178    1.085    0.079
       277  -9.5846    248.7697    149.5640   8.2175285187e+01   4.3864588395e+00    0.3357739    0.1848478 -29.37 0.0007716643    1.691    0.408
       278  -9.0174    247.0807    143.7724   8.1216232478e+01   5.4266571959e+00       0.2647     0.163731 -19.77 0.0006530234    1.463    0.316
       279  -8.8087    243.2081    149.7873   8.3136590265e+01   5.3114861246e+00    0.3059427    0.1614863 -32.41  0.001031456    1.833    0.455
       280  -8.6406    241.4658    136.6695   8.0586131260e+01   7.3684714995e+00    0.4235251    0.1257172 -27.01  0.001441269    3.567    0.720
       281  -8.3922    240.2149    145.2411   8.2664670374e+01   6.4388465469e+00    0.2373841    0.1615922 -23.12 0.0005744331    1.347    0.258
       282  -9.0472    242.7484    142.9901   8.1756735616e+01   6.2903297254e+00    0.4680651     0.193881 -18.61  0.001785333    3.039    0.671
       283  -8.8046    189.2491    150.2227   9.3282868493e+01   1.5294773895e+01    0.2689806    0.2233704 -43.71  0.000704868    1.433    0.302
       284  -7.9340    182.3845    151.2841   9.4943524202e+01   1.6458188207e+01    0.1827842    0.1342321 -45.35 0.0005423764    1.598    0.374
       285  -8.5991    162.8108    150.5792   9.9067382585e+01   2.0399316847e+01    0.2632779    0.1944984 -60.55  0.001224771    1.838    0.456
       286  -8.9176     98.2166    150.7863   1.1477397382e+02   3.1891529165e+01    0.2785118    0.2174884  71.57  0.001055987    1.419    0.295
       287  -8.8338      2.9024    150.8108   1.3852857003e+02   4.2286934052e+01    0.1598783    0.1029096  66.37  0.001072332    1.332    0.249
       288  -7.9871    237.2960    150.1345   8.4206667924e+01   6.2990727861e+00    0.1866102    0.1463827 -10.13 0.0005585903    1.120    0.107
       289  -8.4146    213.1060    149.8905   8.8498435200e+01   1.0757560294e+01    0.1932357    0.1793154  -2.91 0.0004217379    1.201    0.168
       290  -9.9165     39.9680    148.0486   1.2934344389e+02   3.9879874326e+01    0.5345986    0.2211262  62.00  0.001922774    3.082    0.675
       291  -8.4643    198.8616    149.0937   9.1088860727e+01   1.3606091793e+01    0.1967592    0.1918923 -16.25 0.0005236065    1.278    0.218
       292 -10.0293     89.1852    146.2798   1.1636673030e+02   3.4236701659e+01    0.6099654    0.3548338  83.26  0.002480882    2.945    0.660
       293 -10.5218     54.8263    144.2889   1.2509575433e+02   3.9157188410e+01    0.8682989    0.4198699  73.83  0.002967933    3.196    0.687
       294  -9.3339     57.0504    135.4965   1.2334974577e+02   4.0893027713e+01    0.3390194    0.1359282  24.48  0.001370883    3.112    0.679
       295  -9.0652    233.2890    147.5759   8.4348010932e+01   7.3609172214e+00    0.2484869    0.1643376 -24.37 0.0007971594    1.415    0.293
       296 -10.3427    106.6828    144.1507   1.1144706614e+02   3.1957864861e+01    0.7253135     0.469379  89.48  0.002454992    2.502    0.600
       297  -9.2088     78.1891    147.2734   1.1939026283e+02   3.5581688630e+01    0.3192945    0.1946075  72.72  0.001244779    2.152    0.535
       298  -7.9818    223.3263    146.9855   8.5982499251e+01   9.2672113812e+00    0.1896104    0.1572163  -9.55 0.0004109375    1.104    0.094
       299 -10.2334    149.0159    144.8494   1.0105281119e+02   2.4146533581e+01    0.5770491     0.426946 -84.32  0.001747487    2.248    0.555
       300  -9.8213    139.1983    145.2282   1.0348344210e+02   2.5950031926e+01    0.3960071    0.2990919  86.11   0.00126869    2.016    0.504
       301  -9.3142     13.6981    146.3555   1.3570355374e+02   4.2490565979e+01    0.3526823    0.1519228  55.64  0.001609027    2.235    0.553
       302  -7.8608    206.8261    146.5711   8.8975850410e+01   1.2457548436e+01    0.1803807    0.1307109  50.20 0.0005831656    1.583    0.368
       303  -8.3400    175.5150    146.1144   9.5305516963e+01   1.8695819171e+01    0.2150066    0.1987797  60.32 0.0006418681    1.313    0.239
       304  -8.9795    165.7482    144.3497   9.7082819535e+01   2.0951597661e+01     0.327993    0.2424874  60.51 0.0008655344    1.712    0.416
       305  -9.9262    124.9484    142.0289   1.0636454097e+02   2.9236692469e+01    0.6979814    0.3674135 -58.99  0.002065218    2.352    0.575
       306 -11.1932     69.4950    141.1991   1.2079135165e+02   3.8087268101e+01    0.9040062    0.5667431  85.40  0.004463952    1.975    0.494
       307  -7.6554    194.3119    143.7003   9.0822352060e+01   1.5362800999e+01    0.1303425    0.1176853  88.90 0.0002635434    1.605    0.377
       308  -9.3541      2.7638    141.9845   1.3805706448e+02   4.4178182400e+01    0.3321457    0.1397997  68.49  0.001617183    2.338    0.572
       309  -8.3242    181.9496    141.9075   9.2995395424e+01   1.8135589917e+01    0.2089997    0.1827444  89.81 0.0004880623    1.658    0.397
       310  -7.8356    238.4913    140.4987   8.1922936234e+01   7.3881767499e+00    0.1364892    0.1131864   1.11 0.0001053885    1.004    0.004
       311  -9.4730    139.3096    137.7594   1.0189057441e+02   2.7415419830e+01    0.4744522    0.3584019  13.82  0.002335283    1.542    0.352
       312  -9.8106     23.5005    138.3453   1.3262005554e+02   4.3501047732e+01    0.4681598    0.2045984  66.09  0.002172064    2.653    0.623
       313  -8.8031    172.2129    138.2797   9.4296645360e+01   2.0743599702e+01    0.3082979    0.2442257 -82.78 0.0008169313    2.045    0.511
       314  -9.0367    233.9112    137.7428   8.2090073171e+01   8.6068337903e+00    0.2465242    0.2063445 -47.32  0.001421613    1.597    0.374
       315  -7.9473    231.3306    134.2929   8.1760511062e+01   9.5738063648e+00    0.1415703     0.124341  -2.73 0.0002912164    1.084    0.077
       316  -7.9081    218.6107    138.3255   8.4925779295e+01   1.1423008952e+01    0.1922558    0.1232907 -18.88 0.0008221186    1.549    0.354
       317  -8.3401    207.5032    137.9951   8.6934284637e+01   1.3649403445e+01    0.2219771    0.1901428 -58.96  0.001205596    1.639    0.390
       318  -8.6508    197.3710    137.5904   8.8831201985e+01   1.5741649771e+01    0.2625175    0.2155652 -41.28   0.00092295    1.398    0.285
       319 -10.5313     83.4914    133.0173   1.1566544955e+02   3.8023644882e+01    0.5771341    0.3369737 -74.15  0.001369223    2.067    0.516
       320  -8.6758    162.4032    136.5446   9.6117589179e+01   2.3057374515e+01    0.2481779    0.2343967 -29.62 0.0006614603    1.146    0.127
       321  -9.4536     39.0415    136.2512   1.2832435399e+02   4.2611435131e+01    0.2673035    0.1653838  76.55 0.0008087614    1.693    0.409
       322  -8.8720    248.2470    135.2823   7.9183735035e+01   6.3363484107e+00    0.2618647    0.1865459 -27.29  0.000725614    1.319    0.242
       323  -8.3972    246.9733    130.4484   7.8316259429e+01   7.2058630358e+00    0.2345516    0.1636395 -35.33 0.0005844423    1.489    0.328
       324  -8.9327     84.9459    122.9410   1.1340309249e+02   4.0099890223e+01    0.4097158    0.2666994   4.75   0.00179217    2.463    0.594
       325  -8.0948    187.6490    135.7672   9.0403018979e+01   1.8021520310e+01    0.1960422    0.1328495 -42.33 0.0005766539    1.629    0.386
       326  -8.5994    179.3770    134.0067   9.1753034033e+01   2.0027829487e+01    0.2865798    0.2185496 -54.60  0.000905344    1.685    0.407
       327  -9.1328    112.8591    133.3745   1.0774894557e+02   3.3224374718e+01    0.3682974    0.2565066  80.30  0.001135458    2.181    0.542
       328  -7.8172    237.5693    133.8050   8.0594766935e+01   8.4741674452e+00    0.1819703     0.116536 -36.37 0.0006734728    1.621    0.383
       329  -9.9606    132.1292    131.3696   1.0230009541e+02   3.0097689398e+01    0.5546437    0.3842483 -75.86 0.0009712029    2.259    0.557
       330  -9.3006    134.8400    124.6826   1.0009289136e+02   3.0944127977e+01    0.4009865    0.2129466  28.36  0.001534421    2.332    0.571
       331 -10.5768     98.2648    129.6771   1.1096042069e+02   3.6502633421e+01    0.8686578    0.3279793 -56.83  0.003001436    2.779    0.640
       332  -8.1629    103.2128    118.6566   1.0728138713e+02   3.8129963666e+01    0.2890774    0.2001682   7.68  0.001286329    2.072    0.517
       333  -9.2624    143.0220    131.1671   9.9519924702e+01   2.8004682282e+01    0.4527261    0.2476187 -49.48   0.00143344    2.017    0.504
       334  -8.8267    250.6895    130.1180   7.7659853491e+01   6.5812621238e+00    0.3767424    0.1113078 -27.66  0.001341182    3.265    0.694
       335 -10.2219     73.1139    129.3093   1.1793124072e+02   4.0315243193e+01    0.4262662    0.2611005 -81.30  0.001379077    1.975    0.494
       336  -9.8283     12.9278    129.4379   1.3461613297e+02   4.6273988295e+01    0.4609405    0.2081283  70.96  0.001944091    2.421    0.587
       337  -8.0917    220.7284    129.9750   8.2637867154e+01   1.2247397096e+01    0.1780917    0.1151001 -26.37  0.000474379    1.472    0.321
       338  -8.0945    204.6494    130.3463   8.5722761909e+01   1.5423450681e+01    0.2003724    0.1723236 -67.18 0.0006640708    1.675    0.403
       339  -7.8296    192.9397    130.4519   8.8074576648e+01   1.7819878673e+01    0.1807729    0.1324567  72.68 0.0005441188    2.228    0.551
       340  -9.2971    168.4774    129.5246   9.3113415330e+01   2.3098416337e+01    0.3271008    0.2735353 -75.28  0.001046513    1.683    0.406
       341  -9.7095    152.9392    127.9165   9.6354783906e+01   2.6632597468e+01    0.6747772    0.2742825 -42.38  0.001831317    2.563    0.610
       342  -8.9197     25.7040    129.7029   1.3122147056e+02   4.5269789950e+01    0.2092058    0.1502969 -15.90  0.001253314    1.977    0.494
       343  -7.9284      1.9579    130.4577   1.3753742140e+02   4.6736936045e+01    0.1599378    0.0628459  49.84 0.0006860542    2.468    0.595
       344  -8.1565    211.6510    129.2703   8.4138290796e+01   1.4168037370e+01    0.2087141     0.170402 -65.41  0.001067743    1.857    0.461
       345 -10.7034     59.7417    124.8487   1.2102776419e+02   4.3030556155e+01    0.7101656    0.3879246  76.70   0.00226633    2.821    0.646
       346  -8.8914     59.4594    115.1361   1.1951667901e+02   4.5329236457e+01    0.3627785    0.2405873 -18.03  0.001758339    2.236    0.553
       347 -10.7041     44.8487    123.5825   1.2514068516e+02   4.4952767694e+01     1.030648    0.4764895  73.55   0.00381341    3.820    0.738
       348  -7.9770     43.3228    129.3023   1.2632502424e+02   4.3782800032e+01    0.1243387    0.0896546 -39.84 0.0007028939    1.633    0.388
       349 -10.0755    117.9479    125.0100   1.0461034367e+02   3.4110264968e+01    0.5515933    0.4140043 -78.74  0.001407994    1.787    0.440
       350  -7.9599    228.5190    125.7727   8.0296596949e+01   1.1330904404e+01    0.1898796    0.1214937 -39.22 0.0009328204    1.670    0.401
       351 -10.2890     28.5351    122.4673   1.2966838998e+02   4.6696022394e+01    0.7827541    0.3428038  70.58  0.003217524    3.266    0.694
       352  -8.4750     27.4699    114.0000   1.2898908436e+02   4.8742408201e+01     0.216114    0.1524163   4.29  0.001219435    1.870    0.465
       353  -8.8717    179.3271    124.8167   8.9588363939e+01   2.1649998219e+01    0.2617772    0.2362405  84.69 0.0006903439    1.465    0.317
       354  -8.0104    188.4498    124.2159   8.7510003681e+01   1.9810583853e+01     0.199153    0.1381481 -45.05  0.000543424    1.634    0.388
       355  -9.5023    158.7110    121.5897   9.3463754287e+01   2.6638586605e+01     0.359514    0.2930502 -83.23 0.0009730833    1.775    0.437
       356  -9.7953     71.1489    119.7958   1.1684112063e+02   4.2772151671e+01    0.4119111      0.24871 -77.88   0.00135315    1.968    0.492
       357  -8.8604    172.0206    121.5746   9.0402744479e+01   2.3793342053e+01    0.2619247    0.2087037 -50.90 0.0004392836    1.473    0.321
       358 -10.0858    141.6067    118.5826   9.6911912734e+01   3.0815976483e+01    0.6152713    0.3614425 -63.01  0.001058936    2.741    0.635
       359  -9.8576    131.1447    118.7937   9.9662008448e+01   3.2894797312e+01    0.4782539    0.3423964  83.40  0.001160325    2.337    0.572
       360  -9.6953      2.8742    116.9611   1.3633660552e+02   4.9690525152e+01    0.5742598    0.2254031  75.55   0.00258072    2.915    0.657
       361  -7.6648    231.3182    117.6377   7.7918857463e+01   1.1948053961e+01    0.1365135    0.1075983 -56.70 0.0007041797    1.769    0.435
       362 -10.1562    109.2702    114.0633   1.0451776225e+02   3.8076283218e+01    0.5364159    0.3542159 -76.29  0.001414963    2.319    0.569
       363  -8.9665    109.4286    107.4899   1.0289342315e+02   3.9489713070e+01     0.369577    0.2298117  22.87    0.0015637    2.025    0.506
       364  -7.9829    219.4341    116.5061   7.9686022566e+01   1.4519135586e+01    0.1426144    0.1278737  -5.50 0.0002266146    1.048    0.046
       365  -8.2733    192.9017    115.3400   8.4411591927e+01   2.0345422619e+01    0.2435765    0.1914737 -38.53 0.0003963842    1.341    0.254
       366  -8.1201    185.5489    116.0647   8.6104494842e+01   2.1827512790e+01    0.2178636    0.1440496 -34.29 0.0004397371    1.517    0.341
       367  -8.0835    250.2683    115.0174   7.4315948301e+01   8.6582213120e+00    0.1902311     0.157508  -7.98  0.001118304    1.025    0.025
       368  -7.8394    153.3138    115.6965   9.3291852331e+01   2.8920751813e+01    0.1476071    0.1242647  88.25 0.0007021853    1.616    0.381
       369 -10.1367     92.7239    112.4380   1.0895262330e+02   4.1282725866e+01    0.5647653    0.3520177 -74.09  0.001300067    2.201    0.546
       370  -8.9997     94.1576    104.5203   1.0670109075e+02   4.2838959783e+01    0.5266869    0.2971672  10.89  0.001802202    3.635    0.725
       371  -9.9956     79.0242    112.7023   1.1311823694e+02   4.3324466509e+01    0.5467973    0.3523559  73.81  0.002017304    2.305    0.566
       372  -9.1833     77.7805    105.6300   1.1201167541e+02   4.5141376653e+01    0.4563355    0.3085832   2.35  0.002100568    2.169    0.539
       373  -8.1934    167.0192    114.5331   8.9770128837e+01   2.6165243620e+01    0.2292611    0.1458903  45.00 0.0006663448    1.533    0.348
       374 -10.3540    122.1028    112.1054   1.0046268049e+02   3.6084785722e+01    0.5967635    0.3808712 -37.93  0.002496113    1.643    0.392
       375  -9.5698    119.2718    107.0050   9.9970742297e+01   3.7724807409e+01    0.3784114    0.3078731 -59.68  0.001796702    1.362    0.266
       376 -10.6114    109.0071     98.9654   1.0084338958e+02   4.1427918684e+01    0.9282438    0.5283983  65.83  0.001377189    3.566    0.720
       377  -9.1536    107.6219     92.6762   9.9561193151e+01   4.3049985889e+01    0.6415299    0.2900946  26.86  0.002035562    3.551    0.718
       378  -8.4880    174.7489    111.9095   8.7365348067e+01   2.4935160267e+01    0.2646174    0.2026444 -51.79 0.0005774613    1.552    0.356
       379  -8.6043    159.1787    111.7199   9.0871479041e+01   2.8409686074e+01     0.252667    0.2066338 -48.17 0.0005806939    1.351    0.260
       380 -10.0623     66.3846    109.8619   1.1643145499e+02   4.5710754206e+01    0.5895231    0.2963013 -66.22  0.002030088    2.036    0.509
       381  -9.7229     13.9942    110.7783   1.3261658229e+02   5.0446679139e+01    0.4565276    0.2128205 -89.79  0.002159191    2.145    0.534
       382  -9.7669    133.5659    109.1083   9.6616173431e+01   3.4406343749e+01     0.498103     0.281084 -45.56  0.001244163    1.824    0.452
       383  -8.9191     43.1683    109.7325   1.2363081327e+02   4.8359709639e+01    0.3177658    0.1639123   9.45  0.001398137    2.972    0.664
       384  -9.7758    248.6152    107.9358   7.2922499820e+01   9.9165996827e+00    0.3761464    0.2615631 -24.41  0.001885126    1.269    0.212
       385 -10.3230    249.4582    102.9999   7.1643426591e+01   1.0414422341e+01    0.4116827    0.3027722 -26.63  0.002332649    1.211    0.174
       386  -9.5814    150.7975    103.4414   9.0710792063e+01   3.1838625018e+01    0.5216146    0.3439694 -67.62  0.001328235    2.569    0.611
       387  -9.5101    139.7092    104.2726   9.3738328323e+01   3.4093610540e+01     0.463131    0.2894773 -49.72  0.001518173    1.763    0.433
       388 -10.5579     45.7836    102.5489   1.2162956822e+02   4.9794600147e+01    0.7795498    0.4020315  67.30   0.00316489    3.147    0.682
       389  -9.3970     45.8238     92.6479   1.1981372749e+02   5.2128192781e+01    0.4165418     0.252281   1.14  0.001854123    2.387    0.581
       390 -10.6034     22.9598    102.8389   1.2897453202e+02   5.1686891622e+01    0.7084471    0.3350857  68.69  0.002667406    2.928    0.658
       391  -8.5916    166.6380    104.1682   8.7149001411e+01   2.8150550798e+01     0.240832    0.2147486  63.04 0.0005218464    1.287    0.223
       392  -9.6050      6.6010    102.3787   1.3399151123e+02   5.2810031388e+01    0.4382924    0.1744944 -82.61  0.002077237    2.247    0.555
       393 -10.1486    128.3728    102.0519   9.6159758107e+01   3.6935831594e+01     0.367806     0.277448 -63.48 0.0008621363    1.651    0.394
       394  -8.4862    159.8402    101.1484   8.7908308937e+01   3.0246185571e+01    0.2297958    0.2125881 -70.74 0.0006058872    1.292    0.226
       395  -9.3833     81.9372     99.8736   1.0940073450e+02   4.5851302804e+01    0.3757872    0.2609104 -81.76 0.0008523843    1.953    0.488
       396  -9.4100     95.0487     97.1082   1.0459473546e+02   4.4353026531e+01     0.361272    0.2485267 -64.68 0.0006461235    1.693    0.409
       397 -10.1153     63.9046     95.9652   1.1438720000e+02   4.9282188113e+01    0.5657777    0.3491089  84.95   0.00161283    2.668    0.625
       398  -8.6852     64.3550     88.2235   1.1247717578e+02   5.1027273230e+01     0.348733    0.2104916 -11.53  0.001445467    2.776    0.640
       399  -8.0669    175.4504    102.2397   8.4668940460e+01   2.6491764122e+01    0.2108207    0.1426062 -45.77 0.0005969084    1.631    0.387
       400  -8.6965    151.2397     95.8353   8.8506862546e+01   3.3194399964e+01     0.315075    0.1965846  21.58  0.001232004    2.155    0.536
       401  -7.9531    189.1689    108.1571   8.3340804942e+01   2.2371705229e+01    0.1993379    0.1777959 -53.81 0.0005157774    1.334    0.250
       402  -8.4887    176.6452     93.3529   8.1982771086e+01   2.7761810628e+01    0.3303691    0.2385204 -75.55 0.0007745051    2.284    0.562
       403  -8.7927    174.1922     90.3996   8.1680774396e+01   2.8846553755e+01    0.2926587    0.2004987 -28.06  0.000852098    1.474    0.322
       404  -8.4421    164.8803     94.1115   8.4789938717e+01   3.0376436768e+01    0.2350401    0.2111352 -67.21 0.0006097452    1.344    0.256
       405  -9.8403    138.9411     91.7250   9.0456955964e+01   3.6748519778e+01    0.5565792    0.3205299 -46.70   0.00136553    1.862    0.463
       406 -10.8867    124.2786     90.6206   9.4121324471e+01   4.0142103384e+01    0.8367462    0.5655523 -22.89  0.001534104    1.753    0.430
       407  -9.2940      4.8313     92.0367   1.3349072945e+02   5.5281182462e+01    0.3180481    0.1606474  59.57  0.001308706    2.306    0.566
       408  -7.9741    157.6056     91.7536   8.5812512711e+01   3.2495144052e+01     0.208039    0.1453456 -44.83 0.0003824698    1.529    0.346
       409  -9.6768     34.8724     90.1892   1.2312818529e+02   5.3730721831e+01    0.4446222    0.2421865  85.84  0.001684872    2.580    0.612
       410  -9.2129     22.8300     90.4314   1.2730098591e+02   5.4605114936e+01     0.293993    0.2355203 -20.83  0.001344641    1.470    0.320
       411  -7.5958    183.2999     90.3201   7.9752076218e+01   2.6711356550e+01    0.1589282    0.1152681  13.30 0.0004141364    1.623    0.384
       412  -8.2755    150.9773     89.3206   8.6708648275e+01   3.4479602530e+01    0.2187184     0.198982  42.75 0.0004562494    1.108    0.098
       413 -10.1586     86.7091     85.5985   1.0421991335e+02   4.8325665389e+01    0.7930469    0.4998689 -45.84  0.001705921    1.507    0.336
       414  -7.3974    188.2906     87.2892   7.7910735750e+01   2.6031022044e+01    0.1538097    0.1136617  15.69 0.0004255828    1.543    0.352
       415  -9.9321     48.4801     84.4470   1.1720651127e+02   5.3780379150e+01     0.523073    0.3274344  74.49  0.001964723    2.450    0.592
       416  -9.9121    104.8565     83.2335   9.7711468996e+01   4.5593963382e+01    0.4981898    0.3197224 -61.53  0.001145062    2.031    0.508
       417  -9.0178    105.6791     77.2502   9.5643782421e+01   4.6684029948e+01    0.3611292    0.2085484  23.49  0.001292954    2.340    0.573
       418  -8.4758    158.0039     83.9874   8.3458009875e+01   3.3808078617e+01    0.2340943    0.2218023  -6.72 0.0004394505    1.036    0.035
       419  -9.4062    140.8495     82.8539   8.7340374550e+01   3.8023793933e+01    0.3948956    0.2453982 -47.82  0.001111341    1.781    0.438
       420  -9.4933      9.8225     81.1342   1.3049042086e+02   5.7558574135e+01    0.3488927    0.1780718  63.21  0.001129712    2.537    0.606
       421  -8.8093    229.9118     82.0575   6.9380070058e+01   1.7287138313e+01    0.2097395    0.1877404  -5.25 0.0003620206    1.049    0.047
       422  -7.4372    185.2850     82.6277   7.7190822059e+01   2.7500541539e+01    0.1559984    0.1179543 -61.20 0.0007017451    1.709    0.415
       423  -9.0192     74.5244     80.5407   1.0698012718e+02   5.1369424891e+01    0.3391044    0.2396712 -73.74  0.001088676    1.823    0.451
       424  -9.7038     24.5132     80.1702   1.2505925321e+02   5.6893688165e+01    0.4902172    0.2405697 -86.99  0.001556018    2.612    0.617
       425  -7.9585    249.6758     81.6603   6.6523901719e+01   1.3187449746e+01     0.140349   0.09669279  12.40 0.0007051112    1.725    0.420
       426  -8.6412    150.2061     80.6879   8.4332317864e+01   3.6247160926e+01    0.3187552    0.2375937 -61.73  0.000827203    1.764    0.433
       427  -8.9304    119.3944     80.2480   9.2432987884e+01   4.3272426822e+01    0.3867591    0.2587379 -47.58  0.001323547    1.572    0.364
       428  -8.2204    166.8268     80.0030   8.0272365380e+01   3.2389367035e+01    0.2273727    0.2070843 -53.91 0.0004652552    1.232    0.188
       429 -10.1660     63.7276     74.6495   1.0924700702e+02   5.4218774349e+01    0.8451252    0.3365621 -64.48  0.002768337    3.786    0.736
       430  -8.5652     65.5436     62.6656   1.0504408709e+02   5.6618540993e+01    0.4226011    0.2380724   1.32  0.001579147    3.343    0.701
       431  -8.3159    157.0164     76.7428   8.1506897152e+01   3.5321671219e+01    0.2233333    0.1665817 -54.25 0.0005842673    1.602    0.376
       432  -9.5786    128.0695     75.5238   8.8490354478e+01   4.2310030101e+01     0.391143    0.2644046 -51.61 0.0006739628    1.710    0.415
       433  -8.3845    163.4410     73.6712   7.9109596145e+01   3.4283975304e+01    0.2872943    0.1432979 -38.83 0.0009626055    2.022    0.505
       434  -9.8075     82.2513     72.6681   1.0199801716e+02   5.1896785918e+01    0.4016426    0.2915701 -65.14  0.001035774    1.686    0.407
       435  -9.0147    115.5362     72.5326   9.1135503250e+01   4.5618990056e+01    0.3584828    0.2444535 -45.45  0.001125885    1.518    0.341
       436  -9.1671    105.8283     71.7539   9.3856751989e+01   4.7775055520e+01    0.3127525    0.2370144 -57.73 0.0006467974    1.564    0.360
       437  -9.4921     95.1407     71.1748   9.7127516830e+01   4.9955328343e+01    0.5294528    0.2651276 -54.94 0.0009781469    2.480    0.597
       438  -9.6601     97.5741     60.3622   9.2695235329e+01   5.1665170271e+01    0.5036271    0.3368452 -26.16  0.001971177    1.576    0.366
       439  -8.2941     42.6799     73.0852   1.1678841912e+02   5.7016092218e+01    0.2070797    0.1536833 -80.19 0.0006471557    1.517    0.341
       440  -7.7390    175.4666     72.5483   7.6217846285e+01   3.1510669771e+01    0.1550687    0.1448785  14.64 4.177983e-05    1.032    0.031
       441  -9.5703     51.4937     69.7698   1.1255645720e+02   5.6837751652e+01    0.4649892    0.2653833 -73.66   0.00150639    2.366    0.577
       442  -9.2253     29.7732     70.0575   1.2112384557e+02   5.8858378178e+01    0.4759748    0.2173615 -24.10  0.001910757    3.445    0.710
       443  -8.9272     16.6456     70.1507   1.2626585402e+02   5.9734121239e+01    0.2611146    0.1746687  82.91 0.0009653949    1.726    0.421
       444  -7.9893    156.9987     69.9861   7.9414972437e+01   3.6481899794e+01    0.1879705     0.176573  -7.01 0.0003705763    1.045    0.043
       445  -8.7611    140.4929     75.1994   8.5068476463e+01   3.9528729104e+01    0.3101429     0.214485 -49.04 0.0007635729    1.628    0.386
       446  -8.6902    147.0852     68.3265   8.1225109434e+01   3.9180812787e+01    0.2846392    0.2170091 -41.48 0.0005489977    1.372    0.271
       447  -8.6117    138.6747     66.4617   8.2719048507e+01   4.1523127783e+01    0.2968629    0.2204954 -58.17 0.0007379323    1.706    0.414
       448  -9.0880    121.6030     65.5919   8.7063964950e+01   4.5621931872e+01    0.4463956    0.2427976 -42.39 0.0009927803    1.887    0.470
       449  -8.0210    151.4681     73.5111   8.1814605322e+01   3.7223022692e+01    0.1566839     0.148371  12.42 8.687882e-05    1.002    0.002
       450  -8.7738     37.3526     64.3094   1.1676608211e+02   5.9535220913e+01    0.2981795    0.1909988  77.06  0.001122798    2.551    0.608
       451  -8.9293    110.1639     63.7506   8.9838165262e+01   4.8451606515e+01    0.2798904    0.2536997 -68.40 0.0005679204    1.345    0.256
       452  -7.9626    158.1558     61.8457   7.6560744143e+01   3.7529646869e+01    0.2092482    0.1725934  23.34 0.0002767008    1.250    0.200
       453  -9.6802     73.3370     59.5950   1.0106274438e+02   5.6106907917e+01    0.4245786    0.2585204 -59.51  0.001091738    2.026    0.507
       454  -7.6839    164.3862     60.1302   7.4668455859e+01   3.6233913666e+01    0.2100583    0.1382715 -41.99 0.0003519119    1.599    0.375
       455  -8.4342    147.1587     59.1957   7.8207335152e+01   4.0692356152e+01    0.2111092     0.183216 -56.10 0.0004739921    1.327    0.246
       456  -8.0216     88.8165     59.6006   9.5419871364e+01   5.3473278685e+01    0.1899935     0.138785  48.60 0.0005489531    1.553    0.356
       457  -9.8982     23.5360     56.6057   1.2067685049e+02   6.2398479766e+01    0.4596029    0.2678881  84.27  0.002140525    2.768    0.639
       458  -8.4598    130.8534     58.0515   8.1916137647e+01   4.4834128708e+01    0.2321834    0.2086208 -62.91 0.0005553337    1.325    0.245
       459  -9.5031      7.5094     57.2505   1.2764569897e+02   6.3163802367e+01    0.2954548    0.1963417  76.02  0.001072481    1.848    0.459
       460  -9.1337    139.9473     55.9512   7.8853236750e+01   4.2993694784e+01    0.3698729    0.2060084 -37.35  0.001265852    1.821    0.451
       461  -9.2599    119.0409     55.4607   8.4273466264e+01   4.8019411003e+01    0.4661926    0.2305176 -43.82  0.001576099    2.194    0.544
       462  -9.5237     54.3343     55.6160   1.0728407438e+02   5.9631920502e+01    0.3587811     0.224877 -65.77  0.001153142    1.986    0.497
       463  -8.9912     44.0225     55.3232   1.1152448998e+02   6.0887634248e+01    0.3634133    0.2000048 -62.28  0.001470912    1.886    0.470
       464  -8.3788    105.8560     53.1730   8.7418739028e+01   5.1320024537e+01    0.2219841    0.2079833 -67.26 0.0005869193    1.302    0.232
       465  -9.5517     92.4354     50.6760   9.0920843749e+01   5.4506149297e+01    0.4269385    0.2375821 -49.64  0.001403582    2.109    0.526
       466  -8.9623    129.6797     50.2847   7.9473975857e+01   4.6400974769e+01    0.3770859    0.2733622   2.26  0.001478343    1.632    0.387
       467  -8.8530    144.7137     48.9925   7.5294115620e+01   4.2903629521e+01      0.21694    0.1932455 -24.05 0.0004843447    1.139    0.122
       468  -7.4126    163.3740     48.3111   7.1037627305e+01   3.8247764108e+01    0.1681457    0.1100383  27.72  0.000268561    1.781    0.439
       469  -8.8888    120.8887     47.6382   8.0885790138e+01   4.8910763530e+01    0.2706767    0.2120512 -33.31 0.0004633716    1.296    0.229
       470  -8.3622    141.1522     47.1425   7.5479551882e+01   4.4075232715e+01    0.2123903     0.181321 -53.07  0.001064546    1.345    0.256
       471  -8.4760    112.1531     46.8287   8.3104317725e+01   5.1043341643e+01    0.2558661    0.1934842 -42.68 0.0008289238    1.430    0.301
       472  -9.1864     81.9451     46.3209   9.3012445763e+01   5.7281825688e+01    0.3233052    0.1966968 -45.84 0.0008061504    1.711    0.415
       473  -8.5036     45.0462     44.6266   1.0763013694e+02   6.3066733940e+01    0.2191649    0.1641724 -53.04 0.0005866765    1.304    0.233
       474  -8.7336     16.7644     44.8897   1.2083998911e+02   6.5454939755e+01    0.2150585    0.1548206 -81.49 0.0007359987    1.593    0.372
       475  -8.6744    132.9144     43.6532   7.6225291592e+01   4.6644154331e+01    0.2937384    0.1896759 -48.48 0.0006985112    1.852    0.460
       476  -8.6905     92.8116     42.8849   8.7768263436e+01   5.5828289906e+01    0.3106884    0.1943521 -21.02  0.001127812    1.745    0.427
       477  -9.3498     69.7253     42.2007   9.6126124197e+01   6.0148049019e+01    0.3639407    0.2712747 -59.62  0.001147228    1.781    0.438
       478  -9.0930     58.1471     42.5999   1.0111090145e+02   6.1819468270e+01    0.3251883    0.2111178 -63.54  0.001248215    2.222    0.550
       479  -9.3603      5.3208     42.2944   1.2563128997e+02   6.6608359023e+01    0.2879253    0.1818699 -89.67  0.001360978    1.896    0.473
       480  -8.4776    105.9952     41.4723   8.2896135137e+01   5.3290469405e+01    0.2698955     0.200202 -46.90 0.0006548339    1.559    0.359
       481  -7.9497    140.4616     41.5266   7.3628836883e+01   4.5073062635e+01     0.150657    0.1453362  26.42 0.0001400801    1.049    0.047
       482  -8.5901     36.8322     40.9055   1.1013559608e+02   6.4718401408e+01    0.2217707    0.1731668 -71.63 0.0008430385    1.605    0.377
       483  -9.0406     95.2141     37.7072   8.4848046888e+01   5.6208663054e+01    0.3762609    0.1992772 -34.12   0.00115102    1.852    0.460
       484  -8.1860     80.5447     36.9621   8.9756844386e+01   5.9217508395e+01    0.2115694      0.13156 -35.85 0.0005373994    1.542    0.351
       485  -9.4938     26.1839     35.5672   1.1350605873e+02   6.6798695730e+01    0.2977614    0.2192403 -74.49 0.0009087305    1.714    0.417
       486  -7.8235    133.4504     36.4740   7.3421753976e+01   4.7546653213e+01    0.1497959    0.1427406  24.73 0.0002261804    1.042    0.041
       487  -8.0454    125.8270     35.7749   7.5047696469e+01   4.9530839617e+01    0.1920666    0.1767474 -61.12 0.0003812069    1.290    0.225
       488  -8.4324    249.0774    249.0037   9.9822916952e+01  -6.4776291517e+00    0.1787848    0.1213144 -10.08  0.001361375    1.444    0.307
       489  -8.5755    119.1140     33.0886   7.5753163800e+01   5.1535223825e+01    0.3092926    0.1775507 -43.37  0.000626831    2.008    0.502
       490  -8.4994    104.4284     34.2479   8.0451892909e+01   5.4767743951e+01    0.2049528    0.1334615 -40.31 0.0006359211    1.660    0.398
       491  -7.7568     88.5708     34.5134   8.5793815618e+01   5.8082189846e+01    0.1434141    0.1298553  -2.71 0.0001793684    1.046    0.044
       492  -9.1030     48.5301     33.4789   1.0182504006e+02   6.4885325387e+01    0.2372777    0.2192152 -55.43 0.0006618942    1.365    0.267
       493  -8.8305     72.0675     31.4311   9.0675859995e+01   6.1688650758e+01    0.2469845    0.1867186 -48.09 0.0007046518    1.572    0.364
       494  -7.6571    139.3027     31.6470   7.0259273476e+01   4.6711206828e+01    0.1533863    0.1153645 -61.60 0.0007039553    1.705    0.413
       495  -9.0986     12.9490     30.1264   1.1858577317e+02   6.8862795004e+01    0.3229171     0.193717 -81.00  0.001249898    2.334    0.571
       496  -8.3705    101.4773     29.1425   7.9213046000e+01   5.6176144393e+01    0.2127122    0.1386617 -28.11 0.0005945175    1.526    0.345
       497  -8.7034     60.7095     32.6165   9.5953534202e+01   6.3339194674e+01    0.2403801    0.2042521 -45.96 0.0005801058    1.350    0.259
       498  -9.1474      3.6889     27.6739   1.2283852880e+02   6.9839168862e+01    0.2785549    0.1681841 -81.30  0.001230836    1.991    0.498
       499  -8.8467     81.4442     27.5101   8.5298219583e+01   6.0597106249e+01    0.2690467    0.2273412 -53.33 0.0007617516    1.558    0.358
       500  -8.8502    224.9337     33.5152   5.7314521678e+01   2.4614014150e+01    0.2811509    0.1972698 -27.06 0.0008415685    1.368    0.269
       501  -9.0630     91.5869     25.9546   8.1012382391e+01   5.8776787521e+01    0.3572546    0.1535214 -39.23  0.001348505    2.487    0.598
       502  -7.5012    145.7154     26.3128   6.6926382190e+01   4.5714936751e+01    0.1469743    0.1138905 -61.68 0.0002768513    1.577    0.366
       503  -8.0673    104.3747     23.1401   7.5738825605e+01   5.6345826820e+01    0.1997468    0.1270355 -36.96 0.0004519307    1.694    0.410
       504  -8.0221     34.4346     23.2299   1.0450385487e+02   6.8489209631e+01     0.164562    0.1119874 -53.08 0.0004912724    1.578    0.366
       505  -8.9685     63.4831     21.1976   8.9530100528e+01   6.4837391985e+01    0.2974643    0.2225379 -45.28 0.0009395647    1.601    0.375
       506  -8.7946     48.4111     21.8273   9.6760167917e+01   6.7035625826e+01    0.2093451    0.1944735 -38.86 0.0005507047    1.365    0.267
       507  -8.7055    218.6351    247.7563   1.0465649494e+02  -2.3718416363e+00    0.2267171   0.09860592 -29.59   0.00130303    2.743    0.635
       508  -8.8580     74.1527     19.6159   8.4376068029e+01   6.3177656510e+01    0.2586696    0.1965558 -47.64 0.0007412161    1.700    0.412
       509  -8.5788     87.9459     18.1524   7.8651070455e+01   6.0623154087e+01    0.2472406    0.1639132 -38.72 0.0007306375    1.686    0.407
       510  -7.6109     38.7280     18.6828   1.0017055074e+02   6.8834697822e+01    0.1312744      0.08274 -18.77 0.0002952581    1.562    0.360
       511  -7.6802    112.6997     17.2726   7.0882482379e+01   5.5105581458e+01    0.1338241    0.1142056 -69.06 0.0002338123    1.531    0.347
       512  -8.1889     29.9864     16.0250   1.0366287360e+02   7.0289373369e+01    0.1661908    0.1548196 -81.21 0.0006477595    1.660    0.398
       513  -7.9704      7.4968     15.5510   1.1672607774e+02   7.2153843852e+01    0.1159402   0.09396643 -41.81  4.91343e-05    1.100    0.091
       514  -8.1068     16.9946     14.4839   1.1053292886e+02   7.1743555156e+01    0.1577334    0.1108546   9.08 0.0004814651    1.510    0.338
       515  -7.9647     19.5456     21.5433   1.1195459162e+02   7.0177762168e+01    0.1222359   0.09799148 -35.66 0.0001002409    1.045    0.043
       516  -7.7363     83.6271     11.2832   7.6788363016e+01   6.2399828805e+01    0.1279308    0.1116176 -74.52 0.0006932302    1.706    0.414
       517  -9.0290    175.6586    247.7628   1.1214135587e+02   3.6470131558e+00    0.2380583     0.200414  70.68  0.001191143    1.910    0.476
       518  -8.6959    156.3710    248.3191   1.1566611879e+02   6.3277220701e+00    0.2050729    0.1529037  66.56 0.0008915487    1.952    0.488
       519  -7.8103     28.2620     10.6253   1.0200875605e+02   7.1428744677e+01    0.1090997   0.09495816 -59.77 0.0005451769    1.663    0.399
       520  -8.1070    113.1266    248.6297   1.2351255697e+02   1.2274892136e+01    0.1649434    0.1317673  74.98 0.0008195257    1.463    0.316
       521  -9.1285    103.7916    246.8081   1.2503484694e+02   1.3766963284e+01    0.3696474    0.1987939 -84.99  0.002054031    3.225    0.690
       522 -10.5473    240.5621    244.3498   1.0051940925e+02  -4.9704684286e+00    0.3133446    0.2515014 -19.68 0.0001305978    1.666    0.400
       523  -9.1510    232.6239    247.5838   1.0229267924e+02  -4.2292172563e+00    0.1949063    0.1472587  22.99 0.0007063881    1.253    0.202
       524 -10.1128    224.1630    243.9837   1.0319055934e+02  -2.7502767198e+00    0.3677517    0.2346757 -30.57  0.002552312    1.962    0.490
       525  -8.9289    147.3846    246.4166   1.1707889355e+02   7.8454216147e+00    0.2464491    0.1418476  59.66  0.001372299    2.504    0.601
       526  -9.2089    120.2759    245.6510   1.2193956377e+02   1.1728627582e+01    0.3063167    0.1738468  64.27  0.001573618    2.390    0.582
