#   1 NUMBER                 Running object number                                     
#   2 MAG_AUTO               Kron-like elliptical aperture magnitude                    [mag]
#   3 X_IMAGE                Object position along x                                    [pixel]
#   4 Y_IMAGE                Object position along y                                    [pixel]
#   5 X_WORLD                Barycenter position along world x axis                     [deg]
#   6 Y_WORLD                Barycenter position along world y axis                     [deg]
#   7 A_WORLD                Profile RMS along major axis (world units)                 [deg]
#   8 B_WORLD                Profile RMS along minor axis (world units)                 [deg]
#   9 THETA_WORLD            Position angle (CCW/world-x)                               [deg]
#  10 FWHM_WORLD             FWHM assuming a gaussian core                              [deg]
#  11 ELONGATION             A_IMAGE/B_IMAGE                                           
#  12 ELLIPTICITY            1 - B_IMAGE/A_IMAGE                                       
         1 -14.5984     68.4183    144.3650   1.0192838272e+02   3.7414176984e+01     4.906771     2.676497  73.78  0.002773341    3.272    0.694
         2 -14.3214    217.3904     26.3652   3.7744775102e+01   2.8393029178e+01     1.264601    0.9298466  37.68  0.007227167    1.905    0.475
         3 -14.4582    204.4785     39.0384   4.2194356524e+01   2.9743377074e+01     2.102249     1.497833  33.45  0.008680063    1.970    0.492
         4 -12.9321    242.9724      3.5105   3.0770473962e+01   2.5494452247e+01     0.730409    0.3545545  77.77  0.004106827    1.925    0.481
         5  -9.2650     53.3019      4.6586   6.3045154298e+01   6.7558009086e+01    0.1040899   0.09610331 -51.15 0.0005760731    1.675    0.403
         6 -10.2900     57.7871      1.9928   6.0021782250e+01   6.7035421610e+01    0.3497543    0.2077679  68.64  0.001623321    3.378    0.704
         7 -10.2067     47.8716      2.2849   6.4020988723e+01   6.8699154244e+01    0.1778136    0.1465827 -10.31 0.0003672767    1.253    0.202
         8  -8.7384     76.5459    194.4751   1.0732206513e+02   2.4089122868e+01    0.1363329     0.120152  73.58 0.0008082635    1.021    0.021
         9 -10.6787    139.8031    248.9150   1.0051239842e+02   3.6287443140e+00     0.248859    0.1763225 -64.30  0.001483063    1.846    0.458
        10  -9.9414    117.8749    250.5652   1.0510984953e+02   6.6253247890e+00    0.1833488    0.1016161  38.50 0.0003590105    1.493    0.330
        11 -14.9010      5.7814    187.1207   1.2275685263e+02   3.3716469158e+01     3.160566    0.9741617 -66.27  0.002101104    2.655    0.623
        12 -14.3907     20.1655    220.5954   1.2197165316e+02   2.5098254406e+01     1.089103    0.6650777  46.67  0.006947724    1.457    0.314
        13 -15.5144      9.7660    207.4866   1.2321766435e+02   2.8874958340e+01     3.068326     1.355606 -53.88  0.009261437    2.856    0.650
        14 -13.7682     37.9320    201.7168   1.1690489221e+02   2.7304251761e+01    0.7062216    0.5967366 -64.91  0.001508792    1.321    0.243
        15 -15.1882     48.0542    191.3281   1.1363874035e+02   2.8517359227e+01     2.957942     1.649902  82.76   0.01348056    1.966    0.491
        16  -9.5674     79.7045    182.8303   1.0499454052e+02   2.6354150467e+01    0.2658987     0.179227 -89.90  0.001302161    1.674    0.403
        17  -9.6078     99.3349    180.7855   9.9809332034e+01   2.3825696905e+01    0.2350943    0.1826392  49.74 0.0007111859    1.249    0.199
        18  -9.8298    143.5000    179.0305   8.8714678616e+01   1.6515281784e+01    0.2186528    0.1462322 -49.81 0.0006162769    1.546    0.353
        19 -12.2281     64.5196    175.3108   1.0775038321e+02   3.0265349921e+01    0.4978581    0.3445116 -39.95  0.001468259    1.794    0.442
        20 -12.0859     69.2381    170.3708   1.0585713122e+02   3.0832767832e+01    0.3444906    0.2673858 -36.58 0.0008386647    1.569    0.363
        21  -9.6333    189.3093    177.6606   7.8193534227e+01   8.2915292676e+00     0.137658    0.1175415 -87.07 0.0006590938    1.687    0.407
        22 -10.4220    146.5917    171.9464   8.6599044062e+01   1.7482227178e+01    0.4307069    0.2888864 -78.09  0.001349808    2.418    0.586
        23 -12.7178     85.8693    154.4006   9.8832544833e+01   3.2346392753e+01     1.639304     0.764016 -59.98  0.006532334    2.076    0.518
        24 -12.5806     78.4715    160.8779   1.0195760834e+02   3.1859519791e+01    0.7164523     0.527267  65.91 0.0006671954    1.478    0.323
        25 -13.7513     66.6179    156.6705   1.0448324164e+02   3.4574257929e+01     0.722394    0.5825257  -7.39  0.002121866    1.655    0.396
        26 -16.6921      7.8408    243.4163   1.2546430953e+02   2.1771050590e+01     9.980991     3.703882 -77.28   0.05492292    2.427    0.588
        27 -10.3637    230.0016    166.5328   6.7994581424e+01   3.1165599374e+00    0.3730922    0.1592206 -51.73  0.001286842    3.777    0.735
        28  -9.4035    136.0132    165.4976   8.7867390418e+01   2.0918530008e+01    0.2373142    0.1469084  40.10  0.001033608    1.594    0.373
        29 -10.6574     35.7127    161.9250   1.1342528561e+02   3.6925049456e+01    0.2814059    0.2542698 -50.52  0.001598447    1.264    0.209
        30 -10.3388    174.9050    148.8955   7.5105034022e+01   1.6844701158e+01    0.2755163    0.2301599 -56.06 0.0007182673    1.299    0.230
        31 -10.5973    134.0000    146.4561   8.4325531598e+01   2.5679547850e+01    0.6819971    0.2007063 -51.71  0.001946623    3.643    0.726
        32 -10.1524    132.6933    140.2037   8.3242042514e+01   2.7387765845e+01     0.546942    0.1976784 -52.15  0.001723849    2.944    0.660
        33 -10.0042     47.7173    145.3970   1.0799368801e+02   3.9744117431e+01    0.2487779    0.1464016 -48.42 0.0009543205    1.711    0.415
        34 -11.0072     30.1350    143.8517   1.1271139137e+02   4.1937769363e+01    0.3970873    0.3027234  19.61  0.002330657    1.609    0.378
        35 -10.8923    100.6860    139.7495   9.1817432308e+01   3.3524529488e+01    0.5963609    0.3690023 -24.29  0.002289011    2.535    0.606
        36  -8.8387    199.3047    141.6546   6.8333632301e+01   1.3355694081e+01    0.1478181    0.1171318 -72.09 0.0007041324    1.691    0.409
        37 -12.4155     87.5720    139.6437   9.5527690179e+01   3.5746206021e+01    0.3047711    0.2515334 -50.33 0.0005297746    1.171    0.146
        38 -10.9519     78.7405    138.8995   9.7932992936e+01   3.7303061593e+01    0.3368836    0.2476837  77.08 0.0006451618    1.664    0.399
        39 -10.3983    106.0964    131.0838   8.8359821099e+01   3.4668877099e+01    0.4004385    0.3042094 -56.49  0.001913786    1.297    0.229
        40 -10.3028    109.8565    130.4138   8.7140026315e+01   3.4135470604e+01    0.3456505    0.2578121   7.32  0.001082511    1.795    0.443
        41 -14.1956     57.4645    240.1324   1.1609057895e+02   1.6903972874e+01    0.8837286    0.6446123 -89.07  0.004538775    1.323    0.244
        42 -10.7974    135.6601    127.9380   7.9542586561e+01   2.9603736689e+01    0.5133404    0.1813374 -51.85  0.001550269    3.158    0.683
        43  -9.6311    160.7212    127.5704   7.3269841251e+01   2.4347886337e+01    0.2831866    0.1955764 -63.05  0.001107145    1.800    0.444
        44 -11.1378     97.2850    126.4648   8.9837003873e+01   3.7366088503e+01    0.2966023    0.2566862 -16.91 0.0007636343    1.298    0.230
        45 -11.3313     46.5573    124.5075   1.0492739777e+02   4.5121007641e+01    0.2948538      0.21711 -45.11  0.000829437    1.325    0.245
        46  -9.1876    116.4750    124.4936   8.3862103002e+01   3.4278408646e+01    0.1576095    0.1485238 -22.33 8.347176e-05    1.086    0.080
        47 -11.3577     44.2184    129.6095   1.0652430246e+02   4.4096611701e+01     0.278995     0.215992  42.89  0.001294456    1.423    0.297
        48  -9.8731    106.9927    119.0532   8.5214248770e+01   3.7382098127e+01    0.2184596    0.2127379 -29.19  0.001169734    1.024    0.023
        49 -11.1141     21.9526    118.8240   1.1166641852e+02   4.8843120916e+01    0.3538506    0.1538195  39.64    0.0016077    2.595    0.615
        50 -11.0073     22.5133    114.4228   1.1082017382e+02   4.9880981211e+01    0.3074661    0.1840602  83.12 0.0008875017    2.052    0.513
        51  -9.6883     83.4816    117.6671   9.1947097889e+01   4.1827877334e+01    0.2744643    0.2070712  65.75 0.0008432699    1.656    0.396
        52 -10.1844    135.0000    112.5143   7.5762380339e+01   3.3202793313e+01    0.3585856   0.08851059 -44.79 0.0009392833    3.971    0.748
        53 -10.5317     39.7331    113.0185   1.0500626938e+02   4.8695156598e+01      0.20917    0.2003677  14.88 0.0004881149    1.200    0.167
        54 -10.0521    205.4827    110.1315   5.9714961418e+01   1.8068041908e+01    0.2985886    0.2152093  40.06  0.001053628    1.552    0.356
        55 -10.3763     33.0968    109.0923   1.0646778094e+02   5.0295599456e+01    0.2378478    0.1815431 -79.62 0.0006815318    1.314    0.239
        56 -12.4206    248.2839    105.8031   5.2010209785e+01   1.0220736254e+01    0.7301273    0.2987835 -27.97  0.002671363    3.191    0.687
        57  -9.6880    134.6676    105.5263   7.3962816750e+01   3.4796616783e+01    0.2864126    0.1440804 -43.77  0.001016264    1.952    0.488
        58  -9.4673     45.0387    105.0543   1.0165193418e+02   5.0093804466e+01    0.2095727    0.1601962  72.25 0.0006180517    1.647    0.393
        59 -10.8928     39.0245    101.9010   1.0305537675e+02   5.1481519793e+01    0.3584507    0.2250156  56.57  0.001529053    2.144    0.534
        60 -11.0228    241.9448    101.4934   5.1937827190e+01   1.2130445879e+01    0.1874672    0.1362586  57.49 0.0006806146    1.593    0.372
        61 -10.4281     28.8670    106.8730   1.0747626608e+02   5.1210496450e+01    0.2097348    0.1556903 -45.40 0.0005002872    1.240    0.193
        62  -9.7709     32.7214     96.5766   1.0415892992e+02   5.3358014602e+01    0.2888698    0.1798608  77.22  0.001318068    2.511    0.602
        63 -11.8063    242.2927     92.4137   4.9874887998e+01   1.3549678116e+01     0.299099    0.2025755 -11.85  0.001452128    2.154    0.536
        64 -10.7853     53.1335     90.9852   9.5551650372e+01   5.2512819954e+01     0.348213    0.1870299 -54.89  0.001147969    1.669    0.401
        65 -16.1829     37.3168    248.8232   1.2051124999e+02   1.7641138377e+01     10.49742     3.379412  24.80   0.02496111   13.308    0.925
        66 -10.4581     72.8458     83.3705   8.6425836740e+01   5.1491382731e+01    0.4142192    0.2580802  58.23  0.001756351    2.484    0.597
        67  -9.3496    151.0236     82.9391   6.3516362093e+01   3.5628673529e+01    0.2401538    0.1840365 -76.74 0.0005534645    1.679    0.404
        68  -9.5697    159.8029     82.2229   6.1354318301e+01   3.3687250615e+01    0.2063889     0.180535  11.69 0.0005524221    1.317    0.241
        69 -11.1140    243.1878     77.7142   4.6503615050e+01   1.5703177526e+01    0.2076764    0.1560978 -76.01 0.0006982598    1.445    0.308
        70 -10.7066     13.4596     59.8294   1.0320500686e+02   6.3155551904e+01    0.2442367    0.1911716 -55.19 0.0004110346    1.175    0.149
        71 -10.0823    107.8091    203.8672   1.0128893255e+02   1.7262522030e+01    0.2123751    0.1920768  61.76 0.0004426143    1.040    0.038
        72 -12.2640    195.4613     45.1670   4.4905420401e+01   3.1033768857e+01    0.5483699    0.5275135  -7.78  0.001521681    1.240    0.194
        73 -10.5745    109.9340    200.9985   1.0037785790e+02   1.7542514179e+01    0.2925052    0.1962056 -79.83  0.001416296    1.864    0.463
        74  -9.3630     47.8720     42.2598   8.2210622610e+01   6.3196570210e+01    0.3230017    0.1399307  45.72  0.001294553    3.475    0.712
        75 -10.1162    140.4222     38.1100   5.2038163264e+01   4.5336675892e+01    0.2398364    0.2052775  86.59  0.000358299    1.254    0.203
        76 -10.7137    187.8735     31.0950   4.2254737183e+01   3.4667422498e+01    0.2163393    0.1664923 -70.46 0.0006269471    1.271    0.213
        77  -9.7722    189.3550     14.9796   3.7908276505e+01   3.6151221652e+01    0.1776714    0.1572565 -58.59 0.0006540437    1.139    0.122
        78  -8.9407     73.5119     55.5372   7.7064584887e+01   5.6956521977e+01    0.1374844    0.1253356  -6.75  0.000156073    1.053    0.050
        79 -12.4102    203.6316    198.9152   7.9443621901e+01   1.9469934584e+00    0.8730351     0.307165  30.96  0.003057353    3.447    0.710
        80 -11.2539    192.0072    192.8397   8.0635199128e+01   4.9813726280e+00    0.7154393    0.4131783 -66.96  0.002318297    5.055    0.802
        81  -9.1672    119.9733    193.9642   9.6933299272e+01   1.7416990561e+01    0.2086216    0.1619527  74.27 0.0003404411    1.511    0.338
