#   1 NUMBER                 Running object number                                     
#   2 MAG_AUTO               Kron-like elliptical aperture magnitude                    [mag]
#   3 X_IMAGE                Object position along x                                    [pixel]
#   4 Y_IMAGE                Object position along y                                    [pixel]
#   5 X_WORLD                Barycenter position along world x axis                     [deg]
#   6 Y_WORLD                Barycenter position along world y axis                     [deg]
#   7 A_WORLD                Profile RMS along major axis (world units)                 [deg]
#   8 B_WORLD                Profile RMS along minor axis (world units)                 [deg]
#   9 THETA_WORLD            Position angle (CCW/world-x)                               [deg]
#  10 FWHM_WORLD             FWHM assuming a gaussian core                              [deg]
#  11 ELONGATION             A_IMAGE/B_IMAGE                                           
#  12 ELLIPTICITY            1 - B_IMAGE/A_IMAGE                                       
         1 -14.7406      5.7332    103.9767   1.2771813603e+02   5.2546243657e+01     11.58982          nan -71.94   0.03055324    7.465    0.866
         2 -15.2158      3.2460     73.5509   1.2481033182e+02   5.9551099142e+01     7.381412          nan -69.16   0.02093642    6.120    0.837
         3 -13.6324    188.8155     50.0299   6.5836171222e+01   3.1514072602e+01     2.418453     1.320926 -45.32  0.009719724    1.896    0.473
         4 -14.1280    195.6463     27.3791   5.7503975102e+01   3.2715240059e+01     1.546436      1.25626  -8.29  0.006919041    1.285    0.222
         5 -13.8624    206.1159     15.3642   5.2413972911e+01   3.1309247247e+01     1.682081     1.141962  13.09  0.007807993    1.823    0.451
         6 -11.7901     32.5090     23.0490   9.9885384859e+01   6.8258551661e+01    0.5718499   0.08815902 -49.10   0.00175473    4.702    0.787
         7 -11.2070    193.1598    236.7388   1.0594704612e+02   2.6815854536e+00    0.2156368    0.1563603 -45.72  0.001585152    1.916    0.478
         8 -10.7056    140.0589    249.7867   1.1571582165e+02   8.9882531957e+00    0.2418204     0.107691  39.81  0.001098831    1.820    0.450
         9 -10.5708     70.4595    249.1137   1.2630665760e+02   1.8286959148e+01    0.3006576    0.1440943  37.30  0.001523076    2.197    0.545
        10 -12.0972     27.7334    206.9338   1.3059880573e+02   2.9767548533e+01    0.9537396    0.6563182  15.84  0.006257723    3.094    0.677
        11 -15.9549      7.5336    241.9411   1.3512700789e+02   2.6079621357e+01     1.649888     1.100967  87.67   0.01514348    1.365    0.267
        12 -13.8471     10.4950    206.2730   1.3338403541e+02   3.1555911409e+01    0.6595036    0.3519564  39.89  0.003919964    1.897    0.473
        13 -14.9130      5.5226    191.6660   1.3357977945e+02   3.4586137899e+01     1.360481    0.5650479 -88.88  0.008585936    1.938    0.484
        14 -14.8343     34.7053    244.7629   1.3135131186e+02   2.2960354220e+01    0.8502309     0.550866  37.48  0.004541935    1.870    0.465
        15 -14.6889     45.2855    237.5339   1.2943527672e+02   2.2904486879e+01     1.590431    0.5631471  72.01  0.008286129    3.333    0.700
        16 -12.3888     48.1148    214.5772   1.2767019281e+02   2.6262830349e+01     0.561395    0.3103001 -57.37  0.001575971    2.473    0.596
        17 -14.9382     51.2484    128.3623   1.1904213487e+02   4.2932489205e+01      2.43517     1.913839  26.94   0.01364466    1.696    0.410
        18 -13.3393     59.7787    183.7933   1.2328552657e+02   3.0391046803e+01     1.447358    0.7604231 -81.91  0.008529167    1.837    0.456
        19 -13.0209     91.8896    146.7032   1.1219526884e+02   3.3457522043e+01     1.187181    0.4878674 -64.09  0.004681756    2.514    0.602
        20 -12.7705     58.8344    202.4465   1.2499898639e+02   2.7095854166e+01    0.7018436    0.6163211  58.88  0.005677842    1.357    0.263
        21 -13.8945     87.6665    205.4225   1.2015823630e+02   2.2866792116e+01     1.551329    0.7764411  63.91  0.008221215    2.001    0.500
        22 -13.4657     87.9345    189.9158   1.1855619757e+02   2.5549778058e+01     1.222509    0.7360541  42.38  0.007005319    1.579    0.367
        23 -13.0542     66.5221    217.3847   1.2480251499e+02   2.3615025263e+01     1.213729    0.8629388  52.49  0.009276608    1.221    0.181
        24 -12.7605     74.9092    214.8977   1.2319943427e+02   2.2970256927e+01     0.554723    0.4141099  76.63  0.003155178    1.136    0.119
        25 -13.3668     74.1244    181.5558   1.2032130379e+02   2.8987294390e+01     0.933974    0.6078326 -42.25  0.005345813    2.525    0.604
        26 -15.4093     75.5811    160.1515   1.1761924582e+02   3.3016754847e+01     2.807099     1.780286  67.79  0.007129983    1.523    0.343
        27 -11.1999    199.1568    198.5207   9.9497712457e+01   6.1881097573e+00    0.3120019    0.2123813  33.65  0.001944614    1.246    0.198
        28  -9.5110     70.0856    198.8756   1.2270761228e+02   2.6331140053e+01    0.1426673    0.1376228 -33.81  0.001118172    1.653    0.395
        29  -9.3966    208.6695    186.6557   9.5900840853e+01   6.0694870720e+00    0.1303797   0.08471125  15.09 0.0007050595    1.754    0.430
        30  -8.9692     32.1675    169.4021   1.2741822404e+02   3.6298953117e+01    0.3941469    0.1548828  45.07  0.002194198    2.219    0.549
        31 -12.1032     44.3208    171.8587   1.2523175594e+02   3.4514401638e+01     1.037444    0.4529472 -79.07  0.005540578    2.107    0.525
        32 -12.9490    116.4145    160.9057   1.0909495842e+02   2.6646310460e+01    0.8699833    0.6819569 -73.87  0.005240055    1.308    0.235
        33 -12.4608    115.6456    154.6263   1.0825108034e+02   2.8006420127e+01    0.8746972    0.4657618 -70.35  0.003908345    2.445    0.591
        34 -10.6495     37.6668    172.3326   1.2657159101e+02   3.5145127486e+01    0.3829429    0.2503873 -69.12  0.002213344    1.514    0.339
        35 -12.3861    112.3593    120.5809   1.0263528871e+02   3.5648724010e+01    0.8155497    0.3148978  43.27  0.003118363    2.667    0.625
        36 -14.2695    123.8441    129.6432   1.0182481019e+02   3.1633367779e+01     1.447014     1.189853 -81.17  0.008007967    1.289    0.224
        37 -10.3391    162.9888    249.4958   1.1214069116e+02   5.7348855419e+00    0.1731001   0.07718149  43.09  0.001050004    1.641    0.391
        38  -9.4528    132.4910    246.5599   1.1658585081e+02   1.0459813197e+01    0.1049441   0.07671668  49.45 9.567292e-05    1.019    0.019
        39  -9.5390     29.0643    152.8875   1.2672888233e+02   3.9972668553e+01    0.2379901     0.121823 -82.86  0.001394572    1.623    0.384
        40 -10.5828    103.8889    143.4626   1.0897205665e+02   3.2238386055e+01    0.4671283    0.2700863 -31.30  0.001868295    3.490    0.713
        41 -10.7220    114.1017    140.6386   1.0617460681e+02   3.1103772536e+01    0.3653688    0.1961185 -57.77  0.001707259    1.883    0.469
        42 -14.1746      6.7116    124.1800   1.2930688885e+02   4.8019606251e+01     1.851249      1.00864 -68.38   0.01169894    1.520    0.342
        43 -13.7752    139.3779    125.2930   9.7359322256e+01   2.9528617645e+01      1.26617    0.8702465 -19.25   0.00566683    2.202    0.546
        44  -9.8590    105.9407    130.7561   1.0621709829e+02   3.4584986404e+01    0.2717531    0.1952653 -68.93  0.001445769    1.390    0.280
        45 -11.9535    100.1745    126.8308   1.0684266589e+02   3.6399656708e+01    0.8425919    0.4363641 -47.81  0.002096037    2.004    0.501
        46 -13.0396     85.0280    125.3340   1.1025788546e+02   3.9125234346e+01     1.145157    0.7879547  23.45  0.005557042    2.091    0.522
        47 -12.6662    152.3510    123.2278   9.4020928229e+01   2.7292034480e+01     0.534689    0.4013525  30.31  0.002667494    1.505    0.336
        48 -13.6982    132.4703    144.4310   1.0282222420e+02   2.7044623069e+01     1.168434    0.9145302 -24.59   0.00628353    1.694    0.410
        49  -9.9595    167.4946    112.3598   8.8149445299e+01   2.6102703092e+01    0.3015176    0.2492933 -85.26 0.0007904216    1.520    0.342
        50 -12.0554     40.0728    109.9753   1.1930600562e+02   4.8311616390e+01    0.5679992    0.2872991 -60.10  0.002429435    1.672    0.402
        51 -14.4292    111.0797    193.1036   1.1457228284e+02   2.1591194236e+01     1.903543     1.494171  72.39   0.01258537    1.171    0.146
        52 -12.0546     83.2398    103.8065   1.0647678348e+02   4.4238957841e+01     0.823016    0.4958715 -75.32  0.003808381    1.947    0.486
        53 -12.5716     76.7617     93.1935   1.0589528237e+02   4.7627370159e+01     0.816055    0.6250912 -73.21  0.004547846    1.264    0.209
        54 -11.9366     83.7128     90.3116   1.0321314336e+02   4.7220122625e+01    0.7754358    0.4041896 -58.47  0.003466742    1.790    0.441
        55 -11.8174     79.0984     86.6890   1.0364362069e+02   4.8752234643e+01    0.5327852     0.447964  45.18   0.00275532    1.340    0.254
        56 -13.1542     50.1728    101.5771   1.1518369670e+02   4.9157001273e+01    0.8706071    0.5726683  42.74  0.004546031    1.711    0.415
        57 -11.9284     53.0070     90.0069   1.1215406753e+02   5.1504412173e+01    0.3402659    0.3098901 -52.90  0.001450033    1.195    0.163
        58 -12.9220     54.6575     95.3932   1.1275127007e+02   5.0065286928e+01     1.176076    0.4105402 -49.91  0.004707468    2.730    0.634
        59 -12.8542    145.2958     96.9790   8.8997642375e+01   3.3972797840e+01     0.953609    0.6960962  -6.77  0.004229718    1.947    0.486
        60 -13.4000    144.2840    138.4389   9.9088814349e+01   2.5969948479e+01     1.203041    0.7705873  16.66  0.004952739    2.818    0.645
        61 -12.1443     39.7567     73.7932   1.1284068293e+02   5.6677938237e+01    0.5204466    0.1865564 -66.38  0.002109312    2.580    0.612
        62 -12.0941     46.6876     67.8158   1.0908494999e+02   5.7304413015e+01    0.3366189    0.2787427  35.84  0.002135535    1.470    0.320
        63 -11.4516     32.5611     65.2184   1.1333181399e+02   5.9318933731e+01    0.5337398    0.1059195 -63.20  0.001684014    4.246    0.765
        64 -11.4912     47.3674     61.1088   1.0705891364e+02   5.8729564187e+01    0.2975451    0.2323398  20.94  0.001812922    1.614    0.380
        65 -10.5768    170.8073    241.6233   1.1005150489e+02   5.4829215709e+00    0.1594029    0.0766893  48.75 0.0008465489    1.709    0.415
        66 -12.9267    186.4644     36.0377   6.1656048462e+01   3.4061093763e+01    0.8218589    0.5832204  66.51  0.002493165    1.475    0.322
        67  -9.3208     87.3444    240.4343   1.2313917211e+02   1.7424070272e+01    0.1544643   0.09216928  75.04 0.0006417424    1.653    0.395
        68  -9.8039     56.8657    240.0707   1.2781867779e+02   2.1209837928e+01    0.1674881    0.1040516  54.53 0.0005487152    1.180    0.153
