#   1 NUMBER                 Running object number                                     
#   2 MAG_AUTO               Kron-like elliptical aperture magnitude                    [mag]
#   3 X_IMAGE                Object position along x                                    [pixel]
#   4 Y_IMAGE                Object position along y                                    [pixel]
#   5 X_WORLD                Barycenter position along world x axis                     [deg]
#   6 Y_WORLD                Barycenter position along world y axis                     [deg]
#   7 A_WORLD                Profile RMS along major axis (world units)                 [deg]
#   8 B_WORLD                Profile RMS along minor axis (world units)                 [deg]
#   9 THETA_WORLD            Position angle (CCW/world-x)                               [deg]
#  10 FWHM_WORLD             FWHM assuming a gaussian core                              [deg]
#  11 ELONGATION             A_IMAGE/B_IMAGE                                           
#  12 ELLIPTICITY            1 - B_IMAGE/A_IMAGE                                       
         1 -12.9948    201.7014     33.6070   5.7391926950e+01   3.0387957845e+01     1.058521    0.8637651 -24.42  0.004705618    1.217    0.179
         2 -13.1202      2.3727     16.3310   1.1158732545e+02   7.2021019276e+01      1.17308    0.3925868 -65.50  0.005286994    2.902    0.655
         3 -13.1858      3.9026      4.9908   1.0627018414e+02   7.4090305427e+01     1.190497     1.088274 -41.38  0.009679477    1.278    0.217
         4 -13.6190    219.3522     16.0372   5.0097901347e+01   2.7859986418e+01     1.284424    0.9499446  26.58  0.006546836    1.647    0.393
         5 -11.7430    178.6886    243.9955   1.0712016391e+02   3.9857293565e+00    0.3448558    0.1839344  46.02  0.001575799    1.454    0.312
         6 -11.2051    184.3831    249.8000   1.0689913329e+02   2.5114522131e+00    0.3362918    0.1509367  41.90  0.001887277    1.618    0.382
         7 -11.0269    169.4139    248.9666   1.0915618511e+02   4.8061990840e+00    0.2961372    0.1633765  38.07  0.001262134    1.401    0.286
         8 -11.2936    170.5427    243.9895   1.0841888110e+02   5.2050650204e+00     0.254256    0.1666038  43.51 0.0009937837    1.132    0.117
         9 -10.3528    162.4368    250.3481   1.1040744047e+02   5.6746759356e+00    0.2431298      0.11088  41.92 0.0005170805    1.603    0.376
        10 -10.7274    142.8904    248.6829   1.1333728852e+02   8.7251834467e+00    0.3168091    0.1806293  65.64  0.001955505    2.218    0.549
        11 -12.3086    135.3679    237.0917   1.1339482041e+02   1.1319165681e+01     0.818368    0.3551763 -55.57  0.004694039    3.027    0.670
        12 -10.7347    136.0227    225.0607   1.1200824836e+02   1.2879961440e+01    0.2673083    0.1657972 -49.05 0.0008391686    2.097    0.523
        13 -12.8920    125.8803    245.6654   1.1577221848e+02   1.1557756264e+01    0.8666882    0.5388924  58.08  0.003645921    1.373    0.272
        14 -11.0578    116.1476    249.2193   1.1764134221e+02   1.2456623290e+01    0.4128042    0.2983793  48.51    0.0030969    1.102    0.093
        15 -10.9943    109.7938    247.7275   1.1852493024e+02   1.3533511022e+01    0.4230333    0.2523524 -89.98  0.002842359    2.237    0.553
        16 -10.4007     97.0855    239.2797   1.1987819089e+02   1.6450443550e+01    0.2802966    0.1596712  67.36  0.001799652    1.689    0.408
        17 -11.4307    100.3025    247.6150   1.2002184525e+02   1.4837173857e+01    0.5668411    0.2312843  46.66  0.003349701    1.752    0.429
        18 -12.0282    102.2690    239.3420   1.1903995382e+02   1.5735786586e+01    0.4370469    0.3603287  86.25            0    1.321    0.243
        19 -11.4117     87.3691    248.5933   1.2213071239e+02   1.6403791357e+01    0.4343385    0.2494884  48.05  0.001603457    1.288    0.223
        20  -9.8635     81.6484    248.0771   1.2298896535e+02   1.7209756912e+01    0.2465005    0.1125694 -76.87  0.001448103    2.693    0.629
        21 -11.7629     88.3273    241.9235   1.2149575903e+02   1.7232833193e+01    0.7889681    0.1748828  44.79  0.003674011    3.033    0.670
        22 -10.5819     84.0923    230.3923   1.2131085502e+02   1.9514658632e+01    0.2166911    0.1851712 -62.45  0.001758558    1.632    0.387
        23 -11.1814     59.3442    245.8504   1.2630786859e+02   2.0266885470e+01    0.3185366    0.2074028  69.22  0.001752767    1.183    0.154
        24 -10.4235     65.9432    244.3431   1.2519738370e+02   1.9700976803e+01    0.3049926    0.2149071  15.16  0.001887067    3.506    0.715
        25 -12.9671      2.8561    192.6762   1.3287050985e+02   3.4974632308e+01     2.203794    0.2125598 -79.56  0.006872859    8.471    0.882
        26 -12.2718     11.6276    206.1168   1.3194603646e+02   3.1800591109e+01    0.8053432    0.6334985  34.86  0.006741498    1.763    0.433
        27 -12.4394     41.5924    207.3260   1.2691565189e+02   2.8527855882e+01     1.424488    0.5448084  68.72  0.007400129    2.688    0.628
        28 -13.7838      7.1819    244.0926   1.3400076041e+02   2.6057048974e+01     1.052038    0.7705375  53.96  0.009829759    1.379    0.275
        29 -13.3031     41.2280    243.0635   1.2893117018e+02   2.2746987411e+01     1.181945    0.5413663  63.61  0.004284192    1.646    0.392
        30 -12.7834     24.8338    225.3838   1.3064771432e+02   2.7262324962e+01    0.2962212    0.2708119  54.89 0.0008112611    1.634    0.388
        31 -13.9421     31.0587    218.7690   1.2933284966e+02   2.7709172403e+01     1.097317    0.6120846  51.29  0.008099985    1.381    0.276
        32 -12.7788     26.0381    247.5175   1.3138921513e+02   2.3691489412e+01    0.7455305    0.4549616  47.08  0.006198181    1.428    0.300
        33  -8.7872     66.2630    239.2479   1.2483035425e+02   2.0423222018e+01    0.1718368   0.07435573  63.63  0.001031853    2.067    0.516
        34 -10.4819     68.4821    246.4809   1.2493391923e+02   1.9078839496e+01    0.2082557    0.1409887  59.95  0.001230931    1.014    0.014
        35 -11.3292     21.9406    219.9350   1.3086499114e+02   2.8450757530e+01    0.2501594    0.1513342  60.60 0.0004371073    1.164    0.141
        36 -10.9795    129.1883    235.5357   1.1426067543e+02   1.2441617214e+01    0.2852605    0.1441248  56.63  0.001691725    1.824    0.452
        37 -11.4557     87.5378    236.9484   1.2124873909e+02   1.8067705023e+01    0.5622702     0.227869  53.15  0.003297937    1.897    0.473
        38  -9.2059     54.4837    235.0270   1.2644384469e+02   2.2476924108e+01    0.1924471   0.09191537  64.84   0.00126725    1.713    0.416
        39 -11.7442    112.1662    231.5533   1.1671735263e+02   1.5476683992e+01    0.4224236    0.2609089  42.23  0.001958184    1.380    0.275
        40 -11.0463    105.6826    228.6581   1.1754257901e+02   1.6827365850e+01    0.2512848    0.1793321  44.35  0.001162421    1.259    0.206
        41  -9.3416    156.5794    232.7915   1.0941178086e+02   8.6828377171e+00    0.1305891    0.1048591 -78.44 0.0009535257    1.695    0.410
        42  -8.6158     78.2358    233.4047   1.2250345271e+02   1.9813638027e+01   0.08337599   0.07862294 -57.69 0.0006908342    1.678    0.404
        43 -10.3685     98.1985    230.9675   1.1900533849e+02   1.7525461376e+01    0.1902452    0.1379977  43.06  0.001376429    1.324    0.245
        44 -10.2184     56.7751    228.4175   1.2567575362e+02   2.3248172240e+01    0.1972245    0.1303236  82.55 0.0002221439    1.332    0.249
        45 -10.6731     79.3098    225.7818   1.2175369686e+02   2.0861783713e+01     0.315291    0.2181495  83.22  0.001277213    1.369    0.269
        46  -9.5427     77.1562    220.8254   1.2173309251e+02   2.1936853691e+01    0.1699122    0.1168876  73.86 0.0003897161    1.249    0.199
        47  -9.3288     92.5674    226.2473   1.1955116806e+02   1.9019060678e+01     0.123052   0.09899016 -68.79 0.0009449092    1.530    0.346
        48  -8.8862     51.4166    225.7222   1.2638633630e+02   2.4310364558e+01    0.1165529   0.08473434 -74.34 0.0005946819    1.580    0.367
        49  -9.6959    117.2891    224.6320   1.1517842435e+02   1.5754728422e+01    0.1874067    0.1446755  59.21 0.0007626041    1.062    0.058
        50  -9.4608     65.1560    224.0350   1.2400168730e+02   2.2938348124e+01    0.2490083    0.1265605 -57.55  0.001552892    2.610    0.617
        51  -8.9133    164.4608    224.0072   1.0703374373e+02   8.5890427646e+00    0.1331965    0.1148641 -47.50 0.0003641751    1.492    0.330
        52 -11.9293    118.8202    236.7103   1.1609114717e+02   1.3785254988e+01     0.623974     0.451861   2.40  0.003694479    3.199    0.687
        53 -10.9585     99.1443    223.0588   1.1814808710e+02   1.8604634067e+01    0.2777192    0.1784431  53.43  0.001144949    1.188    0.158
        54  -9.4624     87.3335    223.6431   1.2022219615e+02   2.0137017217e+01    0.1999145     0.123583  63.12 0.0007300225    1.335    0.251
        55 -10.3891     70.8614    219.5184   1.2270947475e+02   2.2959941558e+01    0.3917705    0.2322252  82.59  0.002639018    1.650    0.394
        56 -10.4239    246.0020    220.1845   9.3287918741e+01  -3.6773706519e+00    0.2700917    0.1033645 -20.75  0.001313393    3.436    0.709
        57  -9.7301     90.2439    219.4126   1.1936027794e+02   2.0416164962e+01    0.2502441    0.1192298  67.72  0.001329396    2.427    0.588
        58  -8.4675     99.3224    218.2837   1.1767651512e+02   1.9331607379e+01   0.09693303   0.08325586  27.68 0.0003561264    1.594    0.373
        59  -9.8773    117.9702    214.8199   1.1404039732e+02   1.7150163036e+01    0.1704559     0.144691  71.28 0.0004397042    1.147    0.128
        60  -9.4995    111.5916    215.1887   1.1521068738e+02   1.8045208007e+01    0.1963447    0.1257432  48.52 0.0002555678    1.243    0.196
        61  -9.4779     88.0683    212.7259   1.1914752223e+02   2.1806970543e+01    0.2289332     0.134554  86.30  0.001090408    1.910    0.476
        62 -10.2696     63.2916    208.5547   1.2319544119e+02   2.5760195491e+01    0.3708295    0.2674596 -60.62   0.00229563    1.777    0.437
        63  -9.9581     63.8850    205.1697   1.2282751382e+02   2.6275895061e+01    0.1904549    0.1280586  81.67  0.000274993    1.303    0.233
        64 -10.6451     55.6821    208.6208   1.2454209805e+02   2.6676202758e+01    0.5279558    0.2593524  80.13  0.002399225    2.090    0.521
        65  -8.8280    134.3680    207.7542   1.1028797432e+02   1.5705054863e+01    0.1356639    0.1115051 -45.08 0.0009204838    1.564    0.360
        66  -9.3838    112.3248    208.1285   1.1432965600e+02   1.9067551845e+01    0.1552699    0.1269808  70.77 0.0003696572    1.124    0.110
        67 -10.6383    142.1078    219.6745   1.1034485986e+02   1.2706430040e+01    0.2910253    0.2409108 -84.73  0.001549523    1.459    0.315
        68 -10.2999    246.8431    205.8199   9.0866122284e+01  -2.4127381157e+00    0.3311935    0.1187949  27.25   0.00130232    3.898    0.743
        69 -10.9012    106.8952    203.6035   1.1483022380e+02   2.0630528936e+01    0.2082744       0.1699  87.68  0.000317976    1.239    0.193
        70  -9.2072     90.8234    205.0977   1.1793648656e+02   2.2709512147e+01    0.2907501    0.1445854  33.27  0.001457206    2.466    0.595
        71 -11.5745    144.0317    242.1479   1.1249476936e+02   9.3776451639e+00    0.3489074    0.2447165 -70.49  0.002522148    1.977    0.494
        72  -9.6608     83.7400    201.5396   1.1889608274e+02   2.4310028544e+01    0.1995489    0.1401645  73.67 0.0002462366    1.254    0.202
        73  -9.8486     43.9222    200.1862   1.2604384041e+02   2.9533537466e+01    0.2844529    0.2399911  38.32  0.002237519    1.589    0.371
        74  -9.8444     75.0322    200.0283   1.2036494320e+02   2.5750841201e+01    0.1668101     0.131216  67.67            0    1.036    0.035
        75  -8.3669    130.6302    199.2375   1.0991060082e+02   1.7656081746e+01    0.1237678    0.0770796  61.36 0.0006408556    1.608    0.378
        76  -9.2150     52.7978    198.3937   1.2431348875e+02   2.8832141833e+01    0.2239807   0.09102105  38.94  0.001217723    2.314    0.568
        77 -11.6191     54.4790    193.4760   1.2362695728e+02   2.9530038496e+01    0.2807166    0.2597728  67.04  0.000651519    1.400    0.286
        78 -10.4542    164.5349    241.8827   1.0914523361e+02   6.3521329037e+00     0.178982    0.1194917  52.02 0.0006925983    1.309    0.236
        79  -8.4713     97.7130    196.3020   1.1575161008e+02   2.3245834371e+01     0.119522   0.07496469  68.70  0.000190865    1.560    0.359
        80  -9.4303     26.3579    192.2705   1.2870369489e+02   3.2852145764e+01    0.2736824    0.2353509   5.80  0.002112004    2.116    0.527
        81  -9.4471     21.4689    192.5531   1.2959677286e+02   3.3285799144e+01    0.2506362    0.1171379  68.95 0.0009328458    1.744    0.427
        82  -9.9255     33.9724    192.5755   1.2734242951e+02   3.2008518568e+01    0.3311935    0.1408736  69.42 0.0009646221    2.190    0.543
        83  -9.7067     30.5896    193.2612   1.2799883145e+02   3.2236745690e+01    0.2660803    0.1321785 -61.77  0.001642038    2.320    0.569
        84  -9.6117    249.9272    194.0706   8.8400339276e+01  -1.6905322106e+00    0.2185167    0.1354652  30.01  0.001365682    1.341    0.254
        85  -8.6827    112.3090    194.6651   1.1279476673e+02   2.1328287539e+01    0.1249989   0.07956133  70.01 0.0007042699    1.676    0.403
        86  -9.2274    191.4203    191.5351   9.7669837810e+01   8.4345768139e+00     0.193308    0.1807784  28.44  0.000610705    1.139    0.122
        87  -8.2586     38.6374    192.2701   1.2646935344e+02   3.1563690513e+01    0.1163472    0.0579935  63.20 0.0006997212    1.653    0.395
        88 -10.3028    250.2943    187.9609   8.7267028867e+01  -1.1039335665e+00    0.2694243    0.1336593 -18.87  0.001431006    2.174    0.540
        89 -12.9380      3.9669    226.7335   1.3392904877e+02   2.9057799030e+01      1.04977    0.6461271 -70.59  0.008536964    1.942    0.485
        90  -8.9647     76.5215    187.7588   1.1892361925e+02   2.7785622819e+01    0.2293835   0.09683932 -84.68 0.0009490464    3.693    0.729
        91 -10.1655      9.7125    186.8434   1.3140771901e+02   3.5440789863e+01     0.310301    0.1228891  71.09  0.001793342    2.135    0.532
        92  -9.0455     83.3560    186.8861   1.1750372798e+02   2.7008851934e+01    0.1577007    0.1288311  82.12 0.0004952303    1.106    0.096
        93  -9.5274     71.2480    187.0952   1.1988164176e+02   2.8612598707e+01    0.1809899    0.1332019  57.73 0.0003529655    1.143    0.125
        94 -11.4958     61.0460    185.8243   1.2174027728e+02   3.0158197201e+01    0.2169883    0.1901353 -89.71 0.0004227798    1.267    0.211
        95  -9.5754    106.9345    185.6588   1.1273733733e+02   2.3754880742e+01    0.1700638    0.1544963  73.26 0.0003473918    1.141    0.123
        96  -8.8114     24.5050    183.9965   1.2855246843e+02   3.4582773195e+01    0.1637909    0.1160963  59.35 0.0009033837    1.198    0.165
        97  -8.5142     30.2937    183.6677   1.2744879136e+02   3.4061830890e+01    0.1160249   0.05928332  68.36 0.0002933974    1.636    0.389
        98  -9.3536     36.6772    181.0878   1.2605877705e+02   3.3885795993e+01    0.2112463    0.1104102 -62.97  0.001287143    2.042    0.510
        99  -8.5357     85.6886    180.2657   1.1631987021e+02   2.7924691339e+01    0.1228764   0.07595114  66.91 -0.000275831    1.540    0.351
       100  -9.5586     27.0780    179.7430   1.2780183198e+02   3.5138485544e+01    0.1851534     0.123669 -82.97 0.0002260196    1.305    0.233
       101  -8.5254     47.9102    179.7884   1.2378060390e+02   3.2889309687e+01     0.138928   0.08118184  41.23 0.0008606738    1.690    0.408
       102 -11.8996    248.4744    171.6378   8.4536090808e+01   1.0082064422e+00    0.6506749    0.3544474 -17.79  0.003479068    1.911    0.477
       103 -11.5664    245.0862    162.4660   8.3285507987e+01   2.6750703517e+00    0.4344418    0.2035345 -32.87  0.002137609    2.154    0.536
       104 -11.7536    247.3420    158.4388   8.2126841616e+01   2.7669325084e+00    0.7249633     0.560007 -83.82  0.003788449    2.798    0.643
       105 -10.6429     72.4723    173.7921   1.1828575708e+02   3.1006591687e+01    0.2175001     0.183606  82.85 0.0004556534    1.099    0.090
       106 -10.0213     19.2031    173.4540   1.2891471593e+02   3.7119761172e+01    0.3724371    0.1392903  74.61  0.001510629    2.748    0.636
       107 -10.4315     57.7775    173.4011   1.2124603652e+02   3.2968218251e+01     0.260228    0.1796107  53.75 0.0009210462    1.282    0.220
       108  -9.8288     12.2641    172.9324   1.3021741739e+02   3.7853875037e+01    0.2462762    0.1075674 -69.76  0.001480674    2.074    0.518
       109 -10.5856      2.7126    172.6124   1.3201075544e+02   3.8731595506e+01    0.3239039    0.1462532  73.33  0.000980536    1.770    0.435
       110 -11.5690     11.7994    166.5396   1.2994285907e+02   3.9147011819e+01    0.5244818    0.2017498  47.40  0.002450437    2.161    0.537
       111 -10.5727      4.9526    167.0300   1.3130524837e+02   3.9630816787e+01    0.2597637    0.1707216  32.85  0.001522811    1.875    0.467
       112  -9.2770     51.7763    171.0551   1.2224915901e+02   3.4156108682e+01     0.188256    0.1400898  57.57 0.0005858944    1.202    0.168
       113  -8.3837    166.7583    170.6831   9.8704010498e+01   1.6037064354e+01    0.1216296    0.0988244   5.76 0.0002506012    1.513    0.339
       114 -11.4366     80.2442    165.8479   1.1575421554e+02   3.1519233598e+01    0.4442465    0.3504221  40.41  0.002606161    1.406    0.289
       115 -10.4506     81.8737    158.1121   1.1442498928e+02   3.2861117031e+01    0.3820596    0.2186798 -79.15 0.0009137442    1.863    0.463
       116  -9.7759     44.2015    165.6068   1.2331599811e+02   3.6121785692e+01     0.274531     0.204459 -46.37  0.001481713    1.953    0.488
       117  -8.5803     38.5342    167.5601   1.2464997503e+02   3.6348000242e+01    0.1155377   0.08590367  76.21 0.0001083903    1.037    0.036
       118 -10.1972     68.2954    166.2990   1.1833682618e+02   3.3054990775e+01    0.2267159    0.1600697  74.64  0.000301087    1.248    0.199
       119 -10.0619     27.3955    171.6460   1.2719681779e+02   3.6684249645e+01    0.2388534    0.1605844 -55.11 0.0005364508    1.955    0.488
       120 -10.3353     66.9651    161.5511   1.1808754131e+02   3.4196240709e+01    0.2085446    0.1549556 -77.85 0.0003603823    1.240    0.194
       121  -9.5558     23.9979    162.0184   1.2719777319e+02   3.8939960122e+01    0.1663042    0.1241698  77.76 0.0003704034    1.023    0.022
       122  -8.8173     43.2410    161.0081   1.2310221132e+02   3.7166965163e+01    0.1614167    0.1206296  83.06 0.0003170171    1.062    0.058
       123  -9.6038     28.8894    161.0517   1.2611583526e+02   3.8661218279e+01    0.1658781    0.1256278  82.57 0.0003209056    1.028    0.027
       124 -10.8917     10.2459    157.5083   1.2971222372e+02   4.1085821399e+01    0.2401873    0.1332943  73.30 0.0009293999    1.447    0.309
       125  -9.6193     46.4305    156.1566   1.2195665849e+02   3.7814681682e+01    0.1871909    0.1436212  56.38 0.0002369792    1.242    0.195
       126  -8.5029    228.4268    155.4772   8.4588112639e+01   6.5858990024e+00     0.128955    0.1146882  11.38 0.0001694373    1.051    0.048
       127 -10.5970     25.0696    155.1366   1.2645766051e+02   4.0245378209e+01    0.3275145    0.1372658  34.30  0.001479268    2.555    0.609
       128 -10.2434     12.0603    153.5592   1.2908563021e+02   4.1736439579e+01    0.2249304      0.11539  82.10   0.00103472    1.607    0.378
       129 -10.8109    249.5785    150.9444   8.0249972999e+01   3.2869776492e+00    0.4279465    0.2873398 -26.76   0.00230656    1.438    0.305
       130 -12.9200    247.8103    101.3278   6.9362056096e+01   1.0123939267e+01     1.222266    0.6752738 -17.00  0.005533607    1.919    0.479
       131 -11.9329    247.9990    142.6678   7.8757262279e+01   4.6109018620e+00    0.5516788    0.4228947   8.08  0.003013023    1.217    0.179
       132 -13.0104    248.3511    134.2378   7.6879719107e+01   5.6277830887e+00     1.428539    0.6900719 -25.58  0.006641556    1.991    0.498
       133  -9.2757     32.4365    153.3122   1.2472808969e+02   3.9903318314e+01    0.1589588   0.08925254 -89.56 0.0009430792    1.529    0.346
       134 -10.8772      4.6895    150.9175   1.3045922483e+02   4.2876071945e+01    0.2203833    0.1591057  28.25  0.001232231    1.851    0.460
       135  -8.6227    102.9858    175.9761   1.1229806001e+02   2.6160247040e+01    0.1469074    0.1247972  70.92 0.0003146631    1.024    0.023
       136 -10.0317     94.3978    150.2133   1.1052009510e+02   3.2621982665e+01    0.2566997    0.2107336  68.06 0.0009687754    1.100    0.091
       137  -9.7856     86.9939    151.0174   1.1231007530e+02   3.3583674114e+01    0.1896159    0.1592872  80.06  0.001196665    1.039    0.038
       138  -9.3783     54.7886    150.8129   1.1954769937e+02   3.7964822118e+01    0.2299443    0.1128457 -52.68  0.001154555    2.384    0.580
       139  -9.3641     52.6810    146.2807   1.1951031441e+02   3.9181664396e+01    0.1493336    0.1151238  32.26 0.0002701999    1.620    0.383
       140 -10.0790     82.5558    149.1863   1.1305385110e+02   3.4622347581e+01    0.2195083    0.1906308  73.40 0.0003187717    1.057    0.054
       141 -10.7263     21.3567    148.9835   1.2677411255e+02   4.1868957077e+01    0.3714095    0.1035442  41.36  0.001788161    3.016    0.668
       142 -12.4556      5.6902    141.9814   1.2968376458e+02   4.4643215200e+01    0.5165743    0.3629147 -58.42  0.002604791    1.658    0.397
       143  -9.5189    236.0101    145.9817   8.1364191440e+01   6.4227669278e+00    0.2112894    0.1419149  13.58 0.0005081288    1.614    0.380
       144 -10.0036    133.1757    141.0450   1.0020354629e+02   2.7777488973e+01    0.2875703    0.2164823 -64.83 0.0008849339    1.428    0.300
       145 -11.1228     16.7748    140.1865   1.2709179946e+02   4.4125767457e+01    0.2701159    0.1838257  64.33 0.0004601671    1.294    0.227
       146  -8.6556     97.5312    146.4308   1.0922001082e+02   3.2916763596e+01    0.1291398     0.117459  79.08 2.141201e-05    1.063    0.060
       147  -9.5474    107.6345    135.8424   1.0506422633e+02   3.3470893292e+01    0.3439502    0.2279957 -28.57  0.001539183    2.490    0.598
       148 -11.8461     68.0935    143.9432   1.1566012982e+02   3.7753530708e+01    0.6872497    0.3963689  82.54  0.002763731    1.987    0.497
       149 -12.0504      7.2514    120.2334   1.2769673571e+02   4.9166744700e+01    0.3220095    0.2744056  -1.39   0.00243201    1.782    0.439
       150 -11.3561      2.2184    131.4698   1.2975101915e+02   4.7110571735e+01    0.4504489    0.1796241  86.28  0.002343409    2.219    0.549
       151  -9.1424     94.1497    133.1319   1.0779434153e+02   3.6287944622e+01    0.1831854    0.1759701 -59.18 0.0004180629    1.217    0.178
       152 -11.1414      2.0000    121.4877   1.2907923200e+02   4.9260144171e+01    0.3290263    0.1272646 -81.80  0.001732418    2.018    0.504
       153  -9.8072     44.2370    129.8660   1.1956135120e+02   4.3720065813e+01    0.1870809    0.1374382  84.08 0.0005805313    1.180    0.153
       154 -10.8845     12.9964    127.7056   1.2693742774e+02   4.7112680748e+01    0.1949115    0.1254096 -72.67 0.0007921485    1.303    0.233
       155 -11.9605      9.1021    143.4008   1.2903390245e+02   4.4080395195e+01    0.4243726    0.1783334 -65.16  0.002336152    2.116    0.527
       156  -9.0433     47.9907    126.0252   1.1813410636e+02   4.4159132521e+01    0.1837304    0.1509951 -89.23 0.0003546595    1.012    0.011
       157 -12.1933     17.1283    122.4892   1.2545937968e+02   4.7919932692e+01    0.4484204    0.2066314  44.70  0.002535368    2.169    0.539
       158  -8.4315    209.7059    125.7012   8.1340047024e+01   1.4645462451e+01    0.1434855    0.1050428  13.39 0.0003846451    1.567    0.362
       159 -10.3294    231.9041    116.3590   7.5383900240e+01   1.1344280169e+01    0.2415648    0.1822775 -36.67 0.0006222735    1.337    0.252
       160 -12.4735      9.1569    113.1078   1.2658242153e+02   5.0590532358e+01    0.4538114    0.2289588 -79.67  0.001736777    1.536    0.349
       161 -12.1295      2.2313    106.5129   1.2778167965e+02   5.2506156762e+01    0.7556812    0.1190577 -75.92  0.002565289    4.682    0.786
       162  -9.5423    167.7603    113.0273   8.6425677384e+01   2.6027348833e+01    0.3069851     0.213338  69.34   0.00102798    1.809    0.447
       163  -9.8778    249.6179    117.7661   7.2980692711e+01   7.5475719812e+00    0.2826999     0.225085   1.72 0.0006569476    1.197    0.165
       164  -8.5001    203.4874    111.5163   7.9054249385e+01   1.8253022817e+01    0.1470511     0.136177   7.92 6.718247e-05    1.047    0.045
       165 -10.7337     18.8457    105.8259   1.2324267096e+02   5.1484341301e+01    0.2565036    0.1455364  77.20  0.001078873    1.766    0.434
       166 -12.4895     14.3520    100.7787   1.2389401427e+02   5.2957761260e+01    0.4516402    0.3244199 -46.47  0.003012072    1.609    0.379
       167  -8.5407     71.5864    100.3903   1.0746614096e+02   4.7001388015e+01    0.1323372    0.1160821 -78.00 9.498723e-05    1.029    0.028
       168 -12.2158    247.7975    112.9325   7.2126581370e+01   8.5569493938e+00     1.145836    0.6666678  10.71  0.004955189    2.453    0.592
       169 -12.1328      2.0531     61.5202   1.2243306629e+02   6.2493038538e+01    0.7884896   0.08768635 -71.03  0.002288669    6.045    0.835
       170 -11.3629    150.2197    246.9715   1.1199474523e+02   7.8660112106e+00    0.2621707     0.225679  16.60  0.002138355    1.473    0.321
       171 -11.0039     74.0963    243.8015   1.2388671903e+02   1.8778798287e+01    0.2936153    0.2236159 -72.34  0.002042527    1.630    0.387
       172 -10.9941    198.0895    245.7728   1.0427817301e+02   9.1221905098e-01    0.2586009    0.1067743  37.95  0.001475978    1.837    0.456
