#   1 NUMBER                 Running object number                                     
#   2 MAG_AUTO               Kron-like elliptical aperture magnitude                    [mag]
#   3 X_IMAGE                Object position along x                                    [pixel]
#   4 Y_IMAGE                Object position along y                                    [pixel]
#   5 X_WORLD                Barycenter position along world x axis                     [deg]
#   6 Y_WORLD                Barycenter position along world y axis                     [deg]
#   7 A_WORLD                Profile RMS along major axis (world units)                 [deg]
#   8 B_WORLD                Profile RMS along minor axis (world units)                 [deg]
#   9 THETA_WORLD            Position angle (CCW/world-x)                               [deg]
#  10 FWHM_WORLD             FWHM assuming a gaussian core                              [deg]
#  11 ELONGATION             A_IMAGE/B_IMAGE                                           
#  12 ELLIPTICITY            1 - B_IMAGE/A_IMAGE                                       
         1 -13.9104    201.9605     31.4557   1.5919523997e+01   3.0801322962e+01    0.9573342    0.8678274  80.45  0.003873111    1.077    0.072
         2 -12.5929     70.9668      7.3416   3.4763486741e+01   6.4338169369e+01    0.6785948    0.2341884  57.51  0.002404653    4.383    0.772
         3 -10.6429      6.6900      4.6243   6.3011674725e+01   7.3243077288e+01    0.3403398     0.122808  20.15  0.001782607    2.920    0.658
         4 -10.6799    157.7164    244.0437   7.2276337135e+01   2.1780782830e+00    0.1639033    0.1507042  31.07 0.0004501838    1.144    0.126
         5 -13.6829    247.4354    244.0589   5.5591446976e+01  -1.1665486675e+01     1.052451    0.5002545 -26.69  0.005896341    2.159    0.537
         6 -19.1870     40.4056    145.0336   8.5286153462e+01   4.0946844818e+01      17.2623     6.127574 -74.09   0.06597115    2.895    0.655
         7 -10.5216      9.2638    166.8922   9.5105159895e+01   3.8737833111e+01    0.1633967    0.1078691 -79.63 0.0006135043    1.210    0.174
         8 -10.1773     81.0483    229.6156   8.5716629521e+01   1.6884082781e+01    0.2066852   0.09971469  42.35  0.001058501    1.768    0.434
         9 -10.7435    160.9645    199.2658   6.4706138096e+01   9.3363239447e+00    0.2499665    0.2098465  48.59  0.000980572    1.141    0.123
        10 -12.5107    133.7921    145.8114   6.0595124793e+01   2.5989966133e+01      1.37688    0.3516425 -54.58  0.003244304    5.655    0.823
        11 -10.1667    129.6131    141.2125   6.0640629863e+01   2.7894020853e+01    0.3042072    0.1871155 -37.78 0.0009239898    1.843    0.457
        12 -11.2917    118.1147    150.6238   6.5621905653e+01   2.7972606967e+01     0.324787    0.2362193  89.71  0.001460534    1.778    0.438
        13  -9.6349    172.5490    144.5379   5.1015874963e+01   1.7996714318e+01    0.2817221    0.1440103 -53.96  0.001025011    2.375    0.579
        14  -9.6149    152.9776    137.4950   5.3938816279e+01   2.3787439006e+01    0.2267728    0.1536224  45.15 0.0003097154    1.459    0.315
        15 -11.8341    100.2688    129.6357   6.5953623535e+01   3.6245435487e+01    0.3056826    0.2648327 -37.02 0.0002894032    1.228    0.185
        16 -12.7317    105.9155    130.5926   6.4591519865e+01   3.4993461683e+01     0.702134    0.5395544 -66.50   0.00233546    1.354    0.261
        17 -11.5358    111.2286    131.1834   6.3260479025e+01   3.3858626331e+01    0.4031597    0.2797804 -18.79  0.001367753    2.183    0.542
        18 -10.7021    124.6245    133.6203   6.0213449486e+01   3.0658434783e+01     0.417513    0.2851636 -89.67  0.001657961    2.291    0.563
        19 -11.7164    135.5682    126.6321   5.5678538873e+01   2.9978841842e+01    0.7719835    0.1528658 -50.29  0.001659276    6.263    0.840
        20 -10.7737     73.0468    250.5350   8.9100033143e+01   1.4139846408e+01    0.1891379   0.07869418  61.57  0.000898292    2.484    0.597
        21 -10.9883    117.0979    125.0946   6.0228977206e+01   3.4147004759e+01    0.2375766    0.2116206 -13.94 0.0006516782    1.282    0.220
        22  -9.0410    218.3254    124.6913   3.6967515439e+01   1.1818205382e+01    0.1477559    0.1157896 -72.46 0.0007037842    1.653    0.395
        23 -10.8023     85.8305    239.7409   8.5770053337e+01   1.4283186339e+01    0.1608552    0.1425262 -82.87 0.0006013644    1.294    0.227
        24 -11.2626    105.3994    119.1814   6.2076388688e+01   3.7785953280e+01    0.3377794    0.2597722 -40.35 0.0006815862    1.328    0.247
        25  -9.8888    111.7498    115.0307   5.9241390349e+01   3.7534760818e+01    0.2121967    0.1945995 -50.75 0.0003229708    1.066    0.062
        26 -12.4913    119.1101    110.6413   5.6038427096e+01   3.7057383933e+01    0.6575085     0.510057  81.97  0.002998533    1.697    0.411
        27 -12.4578    118.2191    104.0154   5.4513404607e+01   3.8722456173e+01    0.7662885    0.4689366  71.50  0.002698252    2.989    0.665
        28 -11.1122     93.8973    111.1531   6.3475159460e+01   4.1751311800e+01    0.3366097    0.2607606 -45.19     0.001601    1.245    0.197
        29 -12.0570     84.4110    109.9999   6.6065412428e+01   4.3620058026e+01    0.3397866    0.3132757 -40.20 0.0005747394    1.068    0.063
        30 -12.9242     72.4225    225.1223   8.6984576681e+01   1.8987599370e+01    0.2490236    0.1935159 -66.55 0.0009326743    1.450    0.311
        31  -9.2584    156.9495    104.9786   4.4697785717e+01   2.9836284609e+01    0.1865726    0.1815408  49.62 0.0003095928    1.026    0.025
        32 -10.1495    132.4197     98.1615   4.8982921244e+01   3.6925039240e+01     0.220375    0.1472498 -55.39  0.000529649    1.662    0.398
        33 -11.3874    109.3073     97.2277   5.5199413767e+01   4.2031235221e+01    0.3256172    0.2656707  63.80 0.0002920359    1.420    0.296
        34 -10.6521    136.0654     96.9726   4.7682196454e+01   3.6352387039e+01    0.2322414    0.2288928 -89.61 0.0003325056    1.041    0.039
        35 -10.3309    123.9245     96.4553   5.0805767827e+01   3.9156851935e+01     0.230093    0.1529524  46.32 0.0006843991    1.520    0.342
        36 -10.1386    210.9929    198.8703   5.4318846324e+01   2.1988700504e-01    0.2051027    0.1760477  13.70 0.0005216427    1.017    0.017
        37 -11.0892     94.0614     88.5588   5.7362071606e+01   4.6828836051e+01    0.4158249    0.3082759   3.94  0.001603261    1.745    0.427
        38 -10.0729    152.1640     87.1297   4.0813599438e+01   3.4547867855e+01    0.2424132    0.2159773  12.26 0.0007242214    1.247    0.198
        39 -11.1408    116.2030     86.2969   5.0010173878e+01   4.2939834755e+01    0.5029311    0.2940184  66.44  0.001802832    2.882    0.653
        40 -10.2012    159.1541    189.8878   6.3429048546e+01   1.1485723398e+01    0.1938597    0.1674475  -8.19 0.0007738926    1.327    0.247
        41 -11.9274    159.9562     75.5702   3.5633445538e+01   3.4784156411e+01    0.3925717    0.2935926  87.96  0.001757338    1.713    0.416
        42 -11.0282    175.1717    179.1805   5.7874526963e+01   1.0453778993e+01    0.3047112    0.2729952  27.76  0.001004885    1.051    0.049
        43 -13.0070    172.8601    173.7382   5.7287854532e+01   1.1981585349e+01    0.7419262    0.5936362   0.62  0.002425608    1.482    0.325
        44 -11.8031    180.5359    168.2011   5.4466969918e+01   1.1517353864e+01    0.6908945    0.4576932 -64.76  0.002339482    2.208    0.547
        45 -13.1330    165.7883     69.5810   3.2618515596e+01   3.4368434628e+01    0.6002442    0.5124848  40.94  0.001012298    1.207    0.171
        46 -10.1810    150.8530     67.8777   3.5355400573e+01   3.8391782591e+01    0.2249551    0.2030862  27.27 0.0003150858    1.161    0.139
        47 -10.7737    136.8880     67.0067   3.8413923747e+01   4.1941675469e+01    0.2489735    0.2159851  54.96 0.0004954077    1.144    0.126
        48 -13.8917    180.1989     56.9117   2.6170218025e+01   3.2761085066e+01     1.299756    0.9653979  32.83  0.003927595    1.617    0.382
        49 -12.2426    186.4533     50.4436   2.3282648909e+01   3.2136378147e+01    0.4444176    0.3889587  63.72 0.0008781495    1.109    0.099
        50 -11.6577      3.5917    179.6518   9.7229349300e+01   3.6377969570e+01    0.2372099    0.1396048  69.38  0.001171635    1.450    0.310
        51 -11.5337     56.3007     63.4335   6.2779240669e+01   5.7995420920e+01    0.3761017    0.1975135  43.21  0.001746743    2.348    0.574
        52 -11.6888      9.0450    175.7946   9.5823646646e+01   3.6770987192e+01    0.1727838    0.1603957  62.29  0.001073738    1.336    0.252
        53 -12.4518    139.4156    172.1908   6.4631042068e+01   1.8977072988e+01    0.3543172    0.3203636  76.21 0.0004802177    1.153    0.133
        54 -10.9230     82.0260     53.0549   4.9819479306e+01   5.5988503172e+01    0.2115645    0.1895023   3.13 0.0004108236    1.029    0.029
        55 -10.3770     66.5604    249.5733   9.0193043845e+01   1.5189349511e+01    0.1083022   0.08481659 -19.86 0.0006346061    2.734    0.634
        56 -11.1229    235.1488    172.8328   4.4589196993e+01   1.5439732613e-01    0.1941802    0.1820017 -27.78 0.0005373646    1.221    0.181
        57 -15.6717     68.9673    143.3027   7.7351458541e+01   3.7885646521e+01     1.752911     1.244913 -80.12  0.007187241    1.418    0.295
        58 -11.6212     69.0110    245.8775   8.9456166702e+01   1.5524591638e+01    0.1752102    0.1267207  63.14 0.0005674895    1.066    0.062
