#   1 NUMBER                 Running object number                                     
#   2 MAG_AUTO               Kron-like elliptical aperture magnitude                    [mag]
#   3 X_IMAGE                Object position along x                                    [pixel]
#   4 Y_IMAGE                Object position along y                                    [pixel]
#   5 X_WORLD                Barycenter position along world x axis                     [deg]
#   6 Y_WORLD                Barycenter position along world y axis                     [deg]
#   7 A_WORLD                Profile RMS along major axis (world units)                 [deg]
#   8 B_WORLD                Profile RMS along minor axis (world units)                 [deg]
#   9 THETA_WORLD            Position angle (CCW/world-x)                               [deg]
#  10 FWHM_WORLD             FWHM assuming a gaussian core                              [deg]
#  11 ELONGATION             A_IMAGE/B_IMAGE                                           
#  12 ELLIPTICITY            1 - B_IMAGE/A_IMAGE                                       
         1 -14.4724    195.5857     35.6126   5.1606341267e+01   3.1688402484e+01     1.953132     1.475714  14.77  0.006837492    1.759    0.432
         2 -14.7506    205.7744     23.9037   4.6986731692e+01   3.0552277857e+01     2.065904     1.459903  16.73  0.002533542    2.038    0.509
         3  -9.9056    146.4066     20.2601   5.4676708456e+01   4.6336537211e+01    0.2585946    0.2102835 -89.82  0.000614459    1.363    0.266
         4 -11.8442     61.2082      2.4117   6.9413322013e+01   6.6859787810e+01    0.3040852     0.284183 -60.13  0.002081264    1.646    0.393
         5 -11.3707     32.7753      3.7184   8.2238981199e+01   7.0897008804e+01    0.2360585    0.1414872 -36.54  0.001442718    1.626    0.385
         6 -11.8756    229.0709      1.9387   3.9032144097e+01   2.7251781080e+01    0.6422819    0.2119888  74.89  0.002266328    2.877    0.652
         7 -11.4359     41.5421      2.6091   7.7554726434e+01   6.9890826263e+01    0.2651674    0.1084803  44.56  0.001268746    2.908    0.656
         8 -12.5979    194.6278    194.9980   9.1342035788e+01   4.3287508406e+00      1.08482     0.739996 -68.55  0.004632432    2.680    0.627
         9 -11.4936    139.5200    248.6579   1.0965435249e+02   5.4535244638e+00    0.3931169    0.2462808 -62.47  0.002439936    2.094    0.522
        10 -13.8257     73.0047    158.8112   1.1187501586e+02   3.3238498145e+01    0.5745496    0.5299897 -54.46  0.001423024    1.294    0.227
        11 -15.1025     68.1890    144.2215   1.1087532179e+02   3.7314933909e+01     4.950809     2.551414  67.39   0.02034814    2.727    0.633
        12 -10.5701    152.4811    193.2607   9.9506772144e+01   1.2455452803e+01    0.4293837    0.2566884  77.63  0.001605533    3.631    0.725
        13 -11.2888     47.5860    173.4796   1.1948014658e+02   3.3209263029e+01    0.3752341    0.1806794 -60.54  0.001921977    1.995    0.499
        14 -17.8520      6.2289    239.5880   1.3150341360e+02   2.4571944507e+01     12.17481     1.235396 -77.57   0.03405474    7.868    0.873
        15  -9.9641     53.8703    172.9854   1.1805296822e+02   3.2558712689e+01    0.1926009    0.1525879  84.91 0.0004107452    1.036    0.035
        16 -10.2585    163.8645    169.7969   9.2858676751e+01   1.4720984985e+01    0.2757242    0.2222243 -63.94  0.000609624    1.440    0.306
        17 -10.1142    201.7878    169.0657   8.4911443208e+01   7.2738577749e+00    0.4026304    0.2126414 -47.06  0.001619187    2.180    0.541
        18 -10.1842    204.1024    164.7346   8.3555899520e+01   7.5598523949e+00    0.3457942    0.2272599 -44.64 0.0009939783    1.650    0.394
        19 -10.8370    193.6482    166.3506   8.5962575631e+01   9.3685209713e+00    0.3258564     0.296779 -50.95 0.0007598249    1.242    0.195
        20 -10.0742    230.4632    166.9433   7.9093692609e+01   2.1173838038e+00    0.1892412    0.1127482 -54.33 0.0008091475    2.652    0.623
        21  -9.9824     96.4670    192.4041   1.1118434630e+02   2.2331912447e+01    0.2579283    0.2090119  -5.34  0.001259401    2.084    0.520
        22 -12.3021     91.1502    156.1922   1.0710941006e+02   3.1109059208e+01    0.5732974    0.4353956 -26.83  0.001796105    1.954    0.488
        23 -10.1692     99.4255    180.6394   1.0894229295e+02   2.4333896576e+01    0.2301482    0.2144327  68.30 0.0005674319    1.132    0.117
        24 -11.3216    134.0000    143.9819   9.4368387300e+01   2.6125442261e+01    0.9969659    0.3151311 -56.51  0.002736547    4.479    0.777
        25 -10.4990    174.3766    148.8731   8.6216409615e+01   1.6653907117e+01    0.3109186    0.2672762  80.52 0.0008634198    1.391    0.281
        26 -10.6055    189.3482    154.9118   8.4398807321e+01   1.2331356420e+01    0.4825774    0.2674867  43.60  0.002089322    1.754    0.430
        27 -16.4888     68.3927    248.4495   1.2200228955e+02   1.5887522765e+01     8.344908     2.588808  33.74   0.02516348    5.668    0.824
        28 -10.7223     87.3741    146.1022   1.0633828227e+02   3.4051109661e+01    0.3544001    0.2427921  76.99  0.001739334    1.681    0.405
        29 -11.0886    104.5786    140.2919   1.0089834467e+02   3.2537033657e+01    0.5757994    0.3372815 -30.63  0.002210066    2.885    0.653
        30 -12.3607     91.8960    141.0963   1.0429137605e+02   3.4502240532e+01    0.2825159    0.2545042 -56.94 0.0004166209    1.154    0.134
        31 -12.1546     72.3968    178.1093   1.1457258065e+02   2.8978544675e+01    0.3831963    0.2614165 -43.17  0.002061884    2.030    0.507
        32 -10.4413    112.9683    130.8363   9.6774411580e+01   3.3203117005e+01    0.3359229    0.2773154   3.64  0.001281195    1.632    0.387
        33 -10.2878    106.0820    130.7756   9.8553424419e+01   3.4486457882e+01    0.3396367    0.2671501 -66.17  0.001404244    1.249    0.199
        34 -11.3466    135.3921    122.1441   8.9029017333e+01   3.0687197663e+01    0.6898788    0.1480607 -49.85  0.001636148    5.268    0.810
        35 -11.5704    118.4394    127.2245   9.4551458821e+01   3.2988769641e+01     0.790537    0.4087415 -48.32  0.003209795    1.895    0.472
        36 -11.2091    100.1132    127.4709   9.9423809711e+01   3.6322268143e+01    0.3753873    0.2352275 -42.61  0.001151296    1.721    0.419
        37 -10.2596    160.8542    127.7324   8.4297646258e+01   2.3919588930e+01    0.3060951    0.2065591 -69.66  0.001092464    2.092    0.522
        38 -10.6661    125.6890    127.3176   9.2714031656e+01   3.1532028654e+01    0.3812247    0.2505493  78.50  0.001239883    2.378    0.579
        39  -9.9992    108.8436    119.7814   9.5361611505e+01   3.6538939546e+01    0.2069126    0.1982441 -22.09 0.0003962882    1.155    0.134
        40 -11.3532     23.7928    120.3276   1.1906679834e+02   4.7877888595e+01    0.2361887    0.1627671  40.47  0.001114192    1.668    0.400
        41 -16.5376     53.4901    201.6070   1.2095057662e+02   2.6506282426e+01     4.454245     3.674525 -75.87   0.03136845    1.317    0.241
        42 -10.1376    167.8507    112.6130   7.8877879969e+01   2.5439265877e+01    0.3966238    0.2765355 -76.13  0.001509487    2.151    0.535
        43 -12.2408     20.9573    111.8083   1.1870573484e+02   5.0101384357e+01    0.4623698    0.2154601  50.10  0.002292941    2.537    0.606
        44 -11.6081    118.8920    109.8606   9.0221191195e+01   3.6858077438e+01    0.5940529    0.4527723  67.60  0.002644896    1.547    0.354
        45  -9.0030    109.3820    115.1818   9.4121451685e+01   3.7502012903e+01    0.2053026    0.1376258 -63.34 0.0002685311    1.593    0.372
        46 -10.0184    205.6341    110.1173   7.0483755194e+01   1.7055475016e+01    0.2760809    0.2212677  42.49 0.0005411287    1.297    0.229
        47 -10.1266    134.8922    112.1310   8.6627861023e+01   3.3005686478e+01    0.3547024    0.1646213 -43.16  0.001296151    2.143    0.533
        48 -11.2588     32.4623    106.7303   1.1461644211e+02   5.0319295468e+01     0.360435    0.1988151 -75.61  0.001855416    1.658    0.397
        49 -12.0747     76.5190    172.9835   1.1300447040e+02   2.9525116843e+01    0.3211533    0.2568319 -45.47 0.0009366788    1.586    0.370
        50 -10.8013     87.0242     99.7188   9.6661891820e+01   4.5051720934e+01    0.3868409     0.250297  63.72  0.001708952    2.121    0.528
        51 -10.8272     53.1990     90.7276   1.0502870667e+02   5.1923792864e+01    0.3120409    0.1612354 -57.03   0.00148246    1.635    0.388
        52 -11.4723     42.2975     91.6919   1.0876897970e+02   5.2897934772e+01    0.3126499    0.2493971  13.84  0.001072203    1.559    0.359
        53  -9.3668    156.5379     80.4733   7.2389181814e+01   3.4512721846e+01    0.1556472    0.1539899 -32.91 0.0001154336    1.005    0.005
        54 -10.2846     62.2058     69.1897   9.6288454515e+01   5.5606020263e+01    0.2600273    0.2289857  54.22 0.0006402513    1.383    0.277
        55 -11.5423    154.1493     56.9154   6.5539500064e+01   3.9278369401e+01    0.4517586    0.3167637 -85.58  0.001267403    2.016    0.504
        56 -13.6053    185.7633     43.1141   5.5288729899e+01   3.3212109990e+01     1.029562    0.7645793  37.00  0.001190888    1.536    0.349
        57 -10.7342    172.7644    243.5607   1.0307216524e+02   8.7095546939e-01    0.3234557    0.2239621 -72.35  0.001874043    2.507    0.601
        58  -9.2044    132.5062    202.4818   1.0506333225e+02   1.4327805663e+01    0.1345265    0.1140496  58.63 0.0008097852    1.054    0.051
        59 -15.1884     10.8594    206.4193   1.2920100919e+02   3.0234058368e+01    0.5586963    0.5226734  73.67  0.002494959    1.521    0.342
        60 -10.8515    156.6927     50.9576   6.3061380108e+01   3.9583019537e+01    0.3349295    0.2772964 -78.75 0.0007296297    1.393    0.282
        61 -10.3273    156.2084    199.8725   9.9824548271e+01   1.0573312280e+01     0.373562    0.2490996  75.24   0.00176663    2.297    0.565
        62 -10.1108    189.9194     15.0294   4.6402462852e+01   3.5638817535e+01    0.2154972    0.1992623  89.55 0.0006398534    1.020    0.019
        63  -9.8997    107.9618    203.4715   1.1022206890e+02   1.8272088948e+01    0.1851951    0.1601521  86.31 0.0004875809    1.134    0.118
        64 -10.1594     96.6640    200.5131   1.1216409421e+02   2.0652645517e+01    0.3147116    0.2456273 -19.20  0.001109421    2.277    0.561
        65  -9.1383    163.4293    203.5417   9.8963763899e+01   8.6215529063e+00    0.1325462    0.1164355  41.03 8.907431e-05    1.007    0.007
        66 -10.1633    209.8654    199.8652   8.9332244747e+01   8.3561397767e-01     0.164205    0.1540549  46.79 0.0003563071    1.296    0.228
