#   1 NUMBER                 Running object number                                     
#   2 MAG_AUTO               Kron-like elliptical aperture magnitude                    [mag]
#   3 X_IMAGE                Object position along x                                    [pixel]
#   4 Y_IMAGE                Object position along y                                    [pixel]
#   5 X_WORLD                Barycenter position along world x axis                     [deg]
#   6 Y_WORLD                Barycenter position along world y axis                     [deg]
#   7 A_WORLD                Profile RMS along major axis (world units)                 [deg]
#   8 B_WORLD                Profile RMS along minor axis (world units)                 [deg]
#   9 THETA_WORLD            Position angle (CCW/world-x)                               [deg]
#  10 FWHM_WORLD             FWHM assuming a gaussian core                              [deg]
#  11 ELONGATION             A_IMAGE/B_IMAGE                                           
#  12 ELLIPTICITY            1 - B_IMAGE/A_IMAGE                                       
         1 -12.5715    206.2912      3.5279   6.0401106929e+01   3.2898642187e+01      1.02569    0.6281981  73.42  0.003248207    1.477    0.323
         2 -13.1389    184.9023     27.5209   6.9571560133e+01   3.5781933288e+01     1.513158     1.040001   8.29  0.005235253    2.088    0.521
         3 -13.2580    193.0175     20.1598   6.6372144228e+01   3.4530814411e+01     1.984301      1.20107 -17.05  0.008803436    2.025    0.506
         4 -11.8873    199.0758     12.4348   6.3514512451e+01   3.3817499878e+01       0.5602     0.495047  39.05  0.001154249    1.328    0.247
         5 -10.9868     42.4507      4.4312   9.6690762199e+01   7.0079249593e+01    0.2555463    0.2079441  52.28  0.001697278    1.854    0.461
         6 -11.0077     79.3388    184.3035   1.3251344926e+02   2.7446230848e+01    0.2789079    0.2397103 -59.41 0.0007211085    1.365    0.267
         7 -11.7741    179.3792    249.9079   1.2114286428e+02  -3.9506381668e-01    0.9019111    0.1473927  41.37   0.00289199    4.758    0.790
         8 -10.6717    149.2181    249.0307   1.2644012221e+02   4.5289259448e+00     0.275176    0.1822539  56.78  0.001721711    1.457    0.314
         9 -11.2250    140.0414    249.2334   1.2811922957e+02   5.9548044117e+00    0.3295841    0.2618547  59.05  0.002314634    1.187    0.157
        10 -10.5421     94.3384    250.3340   1.3639526183e+02   1.2729524135e+01    0.2731324    0.1686293  48.50 0.0002621905    1.244    0.196
        11 -11.1237    109.0727    246.3170   1.3340058134e+02   1.1205780508e+01    0.3540403    0.1615902  45.17  0.001925327    1.684    0.406
        12 -11.6372    101.3149    247.8520   1.3493730977e+02   1.2115101466e+01    0.4277371    0.3182829  87.65  0.002997889    1.426    0.299
        13 -11.0950    103.3374    242.9544   1.3411004360e+02   1.2617674459e+01    0.3285716    0.1863092  71.21  0.001088769    2.018    0.505
        14 -13.9150     53.1121    222.8717   1.4157837720e+02   2.3188253912e+01     2.808205     1.297337 -47.12   0.00654382    4.872    0.795
        15 -15.5146     60.0829    210.7015   1.3926962771e+02   2.4649909475e+01     8.223904     3.222408  52.35   0.04049326    2.157    0.536
        16 -10.8112     87.7501    173.5462   1.2919384893e+02   2.8523519286e+01    0.5888113    0.3070607  68.32 0.0007557375    2.549    0.608
        17 -12.2469     58.5240    131.3725   1.3012572664e+02   4.2446541638e+01     1.878955    0.6444837 -75.59  0.005179827    5.593    0.821
        18 -10.0889    133.8745    172.8615   1.1849998907e+02   2.0657586427e+01    0.2803777    0.1893024  50.01  0.001387729    1.380    0.275
        19 -12.6060     75.2217    169.7826   1.3158278255e+02   3.1241196234e+01    0.4596273     0.283769 -45.89  0.001373748    2.074    0.518
        20 -15.2090     13.1343    244.6364   1.4965537003e+02   2.3788668553e+01     2.343949     1.230782 -77.06   0.01347788    1.835    0.455
        21  -9.8714     22.5870    156.7077   1.4237641284e+02   4.0442111148e+01     0.179558    0.1548495  13.22  0.001196763    1.670    0.401
        22  -9.7482    104.4750    148.4884   1.2106337001e+02   3.1416344641e+01    0.2812914    0.2586472 -86.28 0.0009597226    1.031    0.030
        23  -9.3822    106.3142    145.3245   1.2000001086e+02   3.1815491119e+01    0.3588331    0.2222273 -37.51  0.001564495    2.106    0.525
        24 -11.5474     93.3416    147.8295   1.2375587316e+02   3.3468740697e+01    0.2720503    0.2614455 -45.14 0.0004827065    1.221    0.181
        25  -9.4855    133.7504    143.3692   1.1278317084e+02   2.7001821242e+01    0.6934447    0.1464016 -54.26  0.001405581    8.047    0.876
        26 -10.7213     55.7093    144.0715   1.3280910799e+02   3.9795629176e+01    0.4626453    0.1680472 -53.07  0.001862265    2.739    0.635
        27 -16.8246      1.9794    129.8516   1.4491935437e+02   4.8128590036e+01     17.40528          nan -74.64   0.03314558   14.152    0.929
        28  -9.6837     40.0892    143.5965   1.3673606206e+02   4.1706201478e+01    0.2169244    0.1518382 -88.71  0.001055666    1.262    0.208
        29 -12.8082     68.4024    145.4594   1.2974853715e+02   3.7807576232e+01     1.588275    0.7900112  83.00  0.005605238    3.719    0.731
        30  -8.1837     25.4777    139.4344   1.3994528546e+02   4.4113210003e+01    0.1236754   0.09816431 -89.08 0.0002010277    1.030    0.029
        31 -10.4471     71.2807    135.1637   1.2730291136e+02   3.9837588775e+01     0.451069    0.2021764  51.03  0.001856119    2.494    0.599
        32  -9.4247    113.6450    134.6774   1.1596068188e+02   3.2908878672e+01    0.3022368    0.2423952 -15.03  0.001110613    1.731    0.422
        33 -10.0665    101.3228    131.7134   1.1856807019e+02   3.5855555106e+01    0.2719214    0.2339463 -28.20 0.0003954579    1.406    0.289
        34 -10.2021     44.5172    130.0563   1.3374371343e+02   4.4408271282e+01    0.2062444    0.1106305 -68.02 0.0009276891    1.595    0.373
        35  -9.6151    161.0226    128.2678   1.0286795303e+02   2.4376102603e+01    0.2933904    0.2023194 -58.65  0.001287918    1.654    0.396
        36 -10.1939    119.5902    126.0905   1.1250663200e+02   3.3713742290e+01    0.4803918    0.2589364 -28.18  0.001560563    3.609    0.723
        37  -9.0457    109.5296    122.2803   1.1429520934e+02   3.6536049287e+01     0.236631    0.1972688  47.46  0.000487073    1.221    0.181
        38  -8.9755    135.0000    119.9447   1.0707540460e+02   3.1897853081e+01     0.256051   0.08752172 -46.48 0.0007998314    2.924    0.658
        39 -10.0283     44.8047    114.1919   1.3114675471e+02   4.8133017557e+01    0.1822137     0.139292 -47.74 0.0007777978    1.335    0.251
        40  -9.8986    168.3714    113.0808   9.7393744753e+01   2.5776130712e+01    0.3698775    0.2952529 -73.30 0.0009748831    1.506    0.336
        41  -8.7606    205.2441    110.5755   8.9267312349e+01   1.7565313893e+01    0.2207561    0.1384312  40.90 0.0009559158    1.720    0.419
        42 -12.3726     91.7747    164.8390   1.2696208428e+02   2.9831210595e+01     3.637789    0.8018721  48.98   0.00114139    5.548    0.820
        43 -11.2211     22.1103     93.0835   1.3455017963e+02   5.5149320260e+01    0.4311077    0.3481871  77.95  0.002845673    1.339    0.253
        44  -9.4930    131.6841     55.3278   8.8800026578e+01   4.5500059774e+01    0.2542073    0.2211327 -70.68 0.0007352858    1.322    0.244
        45 -10.6609    127.7548     52.8456   8.8929023505e+01   4.6842331664e+01    0.5248454    0.3395002  81.45  0.001628867    2.477    0.596
        46  -9.7315    116.3839     46.5970   8.9673098043e+01   5.0479738529e+01    0.3431229     0.226523  81.09 0.0009399993    2.505    0.601
        47  -9.0981    169.6420    216.1744   1.1815593126e+02   6.0982727594e+00    0.1621199    0.1199189 -29.03 0.0004203323    1.673    0.402
        48  -9.4298    226.2307    201.2987   1.0502307030e+02  -1.5654169195e+00    0.2314805    0.1963018 -47.06 0.0008739318    1.573    0.364
        49 -10.1413    192.5013    193.5125   1.0989789584e+02   5.6059885380e+00    0.5103449    0.2809794 -65.28  0.001677986    5.301    0.811
        50 -10.3306     67.7651    196.5642   1.3637901877e+02   2.6491191149e+01    0.3167973    0.1899879  62.83 0.0009140294    1.502    0.334
        51 -11.1185     75.0528    190.7495   1.3420929701e+02   2.6691647428e+01    0.3957255     0.276535 -43.10  0.001959208    2.063    0.515
        52  -9.8460     41.4865     16.9937   1.0352616520e+02   6.8507785380e+01     0.184586     0.102541 -34.74 0.0007055225    1.594    0.372
