#   1 NUMBER                 Running object number                                     
#   2 MAG_AUTO               Kron-like elliptical aperture magnitude                    [mag]
#   3 X_IMAGE                Object position along x                                    [pixel]
#   4 Y_IMAGE                Object position along y                                    [pixel]
#   5 X_WORLD                Barycenter position along world x axis                     [deg]
#   6 Y_WORLD                Barycenter position along world y axis                     [deg]
#   7 A_WORLD                Profile RMS along major axis (world units)                 [deg]
#   8 B_WORLD                Profile RMS along minor axis (world units)                 [deg]
#   9 THETA_WORLD            Position angle (CCW/world-x)                               [deg]
#  10 FWHM_WORLD             FWHM assuming a gaussian core                              [deg]
#  11 ELONGATION             A_IMAGE/B_IMAGE                                           
#  12 ELLIPTICITY            1 - B_IMAGE/A_IMAGE                                       
         1 -13.5794     68.6449    144.4605   9.6481819468e+01   3.7418170517e+01     3.778355      2.00766  82.04  0.003110659    4.640    0.785
         2 -13.3951    220.0601     30.1816   3.3836696156e+01   2.7915325410e+01     1.025707    0.8287702  40.99  0.006590107    1.765    0.433
         3 -13.6094    206.2683     42.3900   3.7957686771e+01   2.9302599385e+01     1.771829     1.363384  34.76  0.008359172    1.869    0.465
         4 -12.5919    245.8144      5.9029   2.7096336084e+01   2.5569175134e+01    0.7069965    0.5029457 -71.61  0.005170127    1.064    0.060
         5 -10.3543      2.0000     10.0224   8.6126809614e+01   7.3447941426e+01    0.4022324   0.05385841 -47.63  0.001249823    6.905    0.855
         6  -9.6609     48.9157      2.7923   5.7933108134e+01   6.8258434055e+01     0.204702     0.157389  56.20 0.0008353963    1.656    0.396
         7  -8.8056    169.2104    235.9651   8.6798817388e+01   5.2232263047e-01    0.1735443    0.1515782  -8.25 0.0003247993    1.109    0.098
         8 -15.0233      4.8251    180.3350   1.1870746478e+02   3.4948227055e+01     10.26682     1.093612 -74.80    0.0230956    6.648    0.850
         9 -14.1203     44.8266    187.8679   1.0951503098e+02   2.9266782609e+01     2.665288     1.344813  52.61   0.01141254    2.041    0.510
        10 -10.6283    194.6990    197.8925   7.4781175391e+01   3.5115006860e+00    0.3346607    0.2408348 -66.50  0.001606174    2.264    0.558
        11 -10.3417    191.9961    192.7822   7.4359828580e+01   4.9148179948e+00    0.5036476    0.2732734 -63.73  0.001648742    4.573    0.781
        12  -8.9582    150.6947    192.8456   8.3548896128e+01   1.1928193931e+01    0.2142181    0.1827775  14.33   0.00113936    1.167    0.143
        13  -8.4673     80.9945    183.4665   9.9537343459e+01   2.5640807805e+01     0.204596    0.1411086  34.14 5.304184e-05    1.465    0.317
        14  -8.1844     74.5313    182.5342   1.0110865627e+02   2.6803246246e+01    0.1448269    0.1332474  79.03  0.000164306    1.036    0.035
        15  -9.2605     99.4073    180.9002   9.4255990790e+01   2.3439808021e+01    0.2738453     0.216149  23.78 0.0006479819    1.363    0.266
        16  -9.3121    238.3071    178.3622   6.2746829811e+01   3.0502239739e-01    0.1385011    0.0889306 -13.09 0.0007039265    1.739    0.425
        17  -9.7006    186.7434    174.9523   7.1902188610e+01   9.3176586642e+00    0.3471694    0.3078682 -60.79  0.001348385    1.345    0.256
        18  -9.5264     85.2710    174.5935   9.6987781846e+01   2.7226305183e+01    0.3103227    0.2436294   4.14  0.001091947    1.603    0.376
        19  -9.6872     88.3195    172.6901   9.5838304086e+01   2.7238668663e+01    0.2445911    0.1793851  52.44 0.0004821441    1.421    0.296
        20 -11.3506     62.3506    172.8001   1.0297349796e+02   3.0925389059e+01    0.4757378    0.2958907 -34.54  0.002110631    2.111    0.526
        21 -11.1591     67.2776    168.0714   1.0090388947e+02   3.1482444690e+01    0.3456424     0.279037 -26.45 0.0006973128    1.492    0.330
        22 -16.4660     16.2037    242.7095   1.2025745548e+02   1.9868910953e+01     7.208082     2.853446  21.11   0.03062804    4.077    0.755
        23 -10.4645    103.8111    171.7067   9.1457864794e+01   2.4985399828e+01    0.4601721    0.2873022  35.48  0.001406108    1.607    0.378
        24 -11.9049     84.3963    152.7977   9.3359783628e+01   3.2927277374e+01     1.091346    0.6110119 -51.86  0.001578079    1.697    0.411
        25 -12.3161     76.8333    158.7316   9.6645342869e+01   3.2542060423e+01     1.106967    0.5947264  62.34 0.0005389088    2.816    0.645
        26 -12.7263     64.1941    154.8492   9.9655059807e+01   3.5321665981e+01     0.515403    0.3745685 -32.20  0.001144087    1.617    0.382
        27 -11.6706    139.3292    217.8612   9.0515470020e+01   8.5675825959e+00    0.4621864    0.3873678 -74.88  0.002583567    1.491    0.329
        28 -10.5718     28.9490    155.6519   1.1000011779e+02   3.9101517426e+01    0.2681936    0.1946046  34.98 0.0007122327    1.507    0.336
        29 -10.1783    134.2282    147.0629   7.8219355429e+01   2.5449913513e+01    0.7141706     0.212515 -52.56  0.001982641    3.728    0.732
        30  -8.7375    174.8046    149.3822   6.8974091067e+01   1.6874202333e+01    0.2045673    0.1435197  29.53 0.0004249728    1.583    0.368
        31 -10.9490     22.6179    146.9245   1.1074727349e+02   4.1910082350e+01    0.4672024    0.2433352  67.89  0.002010759    2.463    0.594
        32 -10.3614     54.4326    146.9120   1.0123755627e+02   3.8639660717e+01    0.3386383    0.2659963 -52.19  0.001785835    1.205    0.170
        33 -10.0434     33.1252    143.3840   1.0714973214e+02   4.1880351027e+01    0.4816111    0.3275845   1.90  0.002434187    1.924    0.480
        34 -10.0355     99.3959    138.8914   8.6065130214e+01   3.3981835031e+01     0.590084    0.3698938 -20.36  0.002215778    2.497    0.599
        35 -11.6434     86.5337    138.2167   8.9770870364e+01   3.6326839720e+01    0.3269928    0.2762992 -47.12 0.0004821663    1.138    0.121
        36 -13.5143     35.8231    196.9117   1.1266819549e+02   2.8054510859e+01     1.272092    0.8292236  77.83  0.006798217    1.495    0.331
        37  -9.3750     44.7520    165.7956   1.0685793006e+02   3.4862567688e+01    0.2564478    0.1903241  70.91 0.0005707513    1.399    0.285
        38  -8.5454    110.4385    167.2797   8.8837301210e+01   2.4950334445e+01    0.2080166    0.1490597 -69.20 0.0008453554    1.569    0.363
        39  -9.4548     96.9774    125.1695   8.3610385750e+01   3.7821797523e+01    0.2951966    0.2387988  -5.28  0.001400216    1.469    0.319
        40  -9.0661    106.5951    118.5218   7.9051785374e+01   3.7653017717e+01    0.2503011    0.2211622 -32.19 0.0004485939    1.127    0.112
        41 -10.2242    107.4327    130.3605   8.1731597130e+01   3.4639817148e+01    0.5932978    0.3674152  24.30  0.002399992    1.962    0.490
        42 -10.0810    231.3401    113.7350   5.0550551008e+01   1.2877493961e+01    0.2877548    0.2381399 -41.95 0.0007497197    1.045    0.043
        43 -11.7407    245.8262    108.4144   4.7404822603e+01   1.1187207074e+01    0.5421883    0.1687129 -41.68  0.002123026    2.595    0.615
        44  -9.2104    205.3519    110.2564   5.3905534155e+01   1.8549496399e+01    0.2818202    0.2023529  45.32  0.001120721    1.565    0.361
        45  -8.3200     30.3188    108.2816   1.0225630561e+02   5.1115708292e+01    0.1427572   0.09065807 -35.41 0.0003652107    1.583    0.368
        46 -11.0821    247.0102     92.2008   4.3922320892e+01   1.3638597011e+01    0.3040335    0.1305222 -39.64  0.001403848    1.958    0.489
        47 -10.7890    240.2950    169.6275   6.0697902032e+01   1.5116525500e+00    0.2207009    0.1861481 -42.65 0.0006703163    1.253    0.202
        48  -8.8717     46.7160     61.7298   8.3674579700e+01   5.9948890594e+01    0.1611592    0.1566202  33.59 0.0006294321    1.319    0.242
        49  -9.6387    119.9439    212.4768   9.4202110252e+01   1.2801366729e+01    0.2192652    0.1307496  35.17  0.001021984    1.562    0.360
        50 -11.4054    197.4471     48.4832   4.0453791307e+01   3.0423877098e+01    0.5411256     0.416211  45.70  0.001323132    1.578    0.366
        51 -14.8200      9.6325    208.3089   1.1954706581e+02   2.7950206315e+01     2.509721     1.137408 -62.58  0.003851519    2.127    0.530
        52 -10.5359     13.4749     59.8754   9.8000774827e+01   6.3610448292e+01    0.2530499    0.2205136 -40.70 0.0004177663    1.145    0.126
        53  -9.5927    197.9398     23.8541   3.4610411721e+01   3.3441301759e+01    0.2624433    0.1778108 -19.39 0.0009613305    2.022    0.505
        54  -8.9257    189.4954     14.9603   3.3406338002e+01   3.6308764181e+01    0.1722575    0.1147771 -38.96 0.0007201834    1.556    0.357
        55 -10.1942    110.0897    203.7418   9.5236774998e+01   1.6312199205e+01    0.4516809    0.2200437  33.61  0.001024529    1.979    0.495
        56  -9.6101    122.4363    199.3554   9.1506331808e+01   1.5300344350e+01    0.3105426    0.2549897 -86.14  0.001613141    1.470    0.320
