#   1 NUMBER                 Running object number                                     
#   2 MAG_AUTO               Kron-like elliptical aperture magnitude                    [mag]
#   3 X_IMAGE                Object position along x                                    [pixel]
#   4 Y_IMAGE                Object position along y                                    [pixel]
#   5 X_WORLD                Barycenter position along world x axis                     [deg]
#   6 Y_WORLD                Barycenter position along world y axis                     [deg]
#   7 A_WORLD                Profile RMS along major axis (world units)                 [deg]
#   8 B_WORLD                Profile RMS along minor axis (world units)                 [deg]
#   9 THETA_WORLD            Position angle (CCW/world-x)                               [deg]
#  10 FWHM_WORLD             FWHM assuming a gaussian core                              [deg]
#  11 ELONGATION             A_IMAGE/B_IMAGE                                           
#  12 ELLIPTICITY            1 - B_IMAGE/A_IMAGE                                       
         1 -13.6343    191.1229     26.3973   7.2456426535e+01   3.3712086623e+01     1.606757     1.325199 -18.32  0.007810846    1.290    0.225
         2 -13.7370    205.6010      8.1334   6.5480676100e+01   3.1954060146e+01     1.373088     1.108301  37.37  0.007834245    1.392    0.282
         3 -13.1784      3.3249      4.5080   1.1857477587e+02   7.2734687992e+01     1.011455    0.9848102 -48.77  0.008508501    1.646    0.393
         4 -12.7072      2.5556     17.8114   1.2452846805e+02   7.0564112885e+01     1.234935    0.2564344 -54.91  0.004788996    4.013    0.751
         5  -9.7860    248.6730    248.6705   1.1373919441e+02  -9.0482756772e+00    0.1153542   0.06401607  16.25 0.0007050903    1.706    0.414
         6 -11.1532    139.5624    250.1396   1.3184949950e+02   7.3875761918e+00    0.3247116    0.1213273  46.29  0.001664093    2.060    0.515
         7  -9.6129     47.0621    249.6597   1.4672397675e+02   2.0074634011e+01    0.1416588   0.09452161  59.96 0.0005380395    1.101    0.092
         8 -12.1913     31.9765    247.2708   1.4886552922e+02   2.2144985356e+01     5.475182      2.13589  28.46     0.017275   11.446    0.913
         9 -14.1013      8.2121    207.0969   1.5045978220e+02   3.1412105700e+01     7.511419          nan  41.08  0.005611673    6.304    0.841
        10 -12.8173      3.0481    178.0040   1.4968231862e+02   3.7372272881e+01      1.51944    0.3813158 -74.23  0.002176498    3.037    0.671
        11 -15.0453     12.8339    158.3078   1.4635732469e+02   4.0537553224e+01     6.239745     2.126815 -89.31   0.02588561    3.598    0.722
        12 -10.9558    125.7732    250.1281   1.3414484075e+02   9.4678908856e+00    0.3632334    0.1096668  47.22  0.001693915    2.560    0.609
        13  -9.5610     82.5804    243.7478   1.4068916835e+02   1.6567734259e+01    0.1399367   0.08825004  88.42 0.0009480827    1.664    0.399
        14 -10.7345      2.0238    240.7537   1.5296097034e+02   2.6207899871e+01    0.3353508     0.121151 -81.29  0.002157445    2.379    0.580
        15 -10.4760     13.1965    241.2414   1.5135609045e+02   2.5059010694e+01    0.2538241    0.1086909 -83.79  0.001396686    2.048    0.512
        16  -9.5057     95.0000    241.9622   1.3848340941e+02   1.5145805380e+01    0.1532997   0.06008046 -63.03 0.0008060117    2.967    0.663
        17 -10.8612      2.7735    248.8344   1.5316628647e+02   2.4851130199e+01    0.3593052    0.2013543  71.31  0.002447978    1.221    0.181
        18  -9.3521    184.6493    237.6931   1.2264764854e+02   1.9141401466e+00    0.1194595   0.07807205  20.43 0.0005616847    1.709    0.415
        19 -10.4599    146.8538    230.3279   1.2826052602e+02   9.0585101621e+00    0.2545455   0.08437739  48.02  0.001098873    2.594    0.615
        20 -10.9626      4.7920    228.7837   1.5205380891e+02   2.7927002089e+01    0.2179611    0.1591895 -63.87  0.001807336    1.870    0.465
        21 -10.3305    177.3448    227.1983   1.2243577835e+02   4.4850536127e+00     0.336939    0.2176077 -77.12   0.00158118    3.729    0.732
        22 -10.8636    172.6644    222.1098   1.2253230501e+02   5.9761723478e+00    0.3228211    0.2275921  21.64  0.001286477    1.572    0.364
        23  -9.6630    121.9642    227.3118   1.3232275978e+02   1.3475562325e+01    0.2029244   0.06584671  55.40 0.0007045989    4.311    0.768
        24 -10.2795     98.8690    249.1742   1.3848926283e+02   1.3500917813e+01    0.1723274     0.115668  62.77 0.0007175406    1.236    0.191
        25  -9.1499    152.5037    213.0163   1.2489801752e+02   1.0761395497e+01    0.1545035    0.1247599 -52.97 0.0003476847    1.467    0.318
        26  -9.0850     32.9902    207.6502   1.4629305453e+02   2.8843725319e+01    0.1478684    0.1024873  64.27 0.0004344042    1.150    0.130
        27 -12.1508     22.5946    201.2866   1.4767108371e+02   3.1105942526e+01    0.3644915    0.1590166  57.23  0.002189868    1.935    0.483
        28 -11.1101     15.2898    198.2340   1.4874895206e+02   3.2390694441e+01    0.2612779    0.1771369  62.79  0.001068424    1.214    0.177
        29 -11.6267     65.5200    200.2087   1.3978176020e+02   2.6398002168e+01    0.2896998    0.2103968 -53.73 0.0006814996    1.734    0.423
        30 -10.1920    194.1501    197.2983   1.1463263352e+02   5.8048452227e+00    0.4785782     0.242756 -58.06  0.001787533    4.450    0.775
        31  -8.6799     51.4885    197.4113   1.4215044626e+02   2.8677447244e+01    0.1147587   0.08715826  73.54 0.0002836188    1.045    0.043
        32  -9.8173     43.7477    192.4410   1.4316490310e+02   3.0541554381e+01    0.3085719    0.2333569  48.49  0.001139855    1.362    0.266
        33 -11.9127     71.2023    192.0136   1.3784970776e+02   2.7229564502e+01    0.2415756     0.207075 -67.63 0.0004708975    1.322    0.244
        34 -13.4069     67.8523    177.0468   1.3683418982e+02   3.0669666586e+01      0.46213    0.2679024 -46.02  0.002041964    2.330    0.571
        35  -8.5529    103.7287    180.2687   1.2978618202e+02   2.4779459958e+01      0.12514   0.08919311  73.12 0.0001816215    1.474    0.322
        36 -10.9895     80.6795    179.0440   1.3441905433e+02   2.8504224234e+01    0.2276176    0.1929541 -85.23 0.0004124908    1.099    0.090
        37  -9.1744    250.7513    171.9961   9.9852209867e+01  -8.3464814243e-01    0.1620783   0.09984678 -25.74 0.0003772459    1.541    0.351
        38 -11.9105     87.8861    169.2984   1.3157929522e+02   2.9454101800e+01     0.570007    0.5261245  88.75  0.003793087    1.108    0.097
        39  -9.2166    193.0184    156.5334   1.0694356493e+02   1.2485210884e+01    0.2699925     0.177282 -74.46  0.001028678    3.370    0.703
        40 -10.1369     99.6941    153.0604   1.2639468996e+02   3.1036345123e+01    0.2763648    0.2514786 -87.86 0.0008565523    1.021    0.021
        41  -9.2966    102.4649    148.9015   1.2502319638e+02   3.1470441123e+01    0.2175349    0.1924448  -3.50 0.0003841448    1.490    0.329
        42 -12.0833     88.4226    152.6224   1.2891905776e+02   3.2904909792e+01    0.2650945    0.2418364 -41.53 0.0004093557    1.305    0.234
        43 -12.6227     67.1266    143.8451   1.3252796046e+02   3.7853452890e+01      0.71523    0.4581967  71.60  0.003781368    1.783    0.439
        44 -11.9884     58.2373    134.0843   1.3317488179e+02   4.1153816849e+01     1.250725    0.4892993 -77.63  0.004056939    4.604    0.783
        45  -8.5452    192.2613    144.3084   1.0440985199e+02   1.4735784461e+01      0.14306      0.10956   5.21 0.0002285128    1.527    0.345
        46  -9.9742    110.5905    137.8420   1.2099540744e+02   3.2456160490e+01     0.344694    0.2372093 -25.23  0.001414984    2.145    0.534
        47 -11.4907      2.5804    152.7406   1.4803024884e+02   4.2514778248e+01    0.3905094    0.2115667 -84.40  0.002508434    1.431    0.301
        48 -11.0964     33.5643    132.4772   1.3900869399e+02   4.4218845124e+01    0.2840783    0.1580255 -82.92  0.001256692    1.707    0.414
        49  -9.3660     87.1925    136.9185   1.2650452821e+02   3.6524495441e+01      0.20523    0.1637784  80.87 0.0006117296    1.314    0.239
        50 -10.6726     98.0936    135.2005   1.2350444718e+02   3.5166668153e+01     0.250506    0.2254963 -35.32 0.0005140579    1.262    0.208
        51  -9.5290    107.6476    124.3137   1.1887139391e+02   3.5909656309e+01    0.1981979    0.1868316  41.29 0.0003917513    1.130    0.115
        52 -12.7645     40.3961    235.1527   1.4687426089e+02   2.3189441036e+01    0.2548992    0.2145014 -86.26 0.0007825071    1.395    0.283
        53 -14.5933     46.6736    228.0172   1.4539386140e+02   2.3677918051e+01     3.120887     1.230341  37.57  0.006578111    2.613    0.617
        54 -10.4568    168.0352    113.2008   1.0189732436e+02   2.5748059993e+01    0.3329134    0.2881492 -85.12 0.0007232516    1.396    0.284
        55 -11.5869    126.9691    245.6105   1.3347511985e+02   9.9340961966e+00    0.3138361     0.139001  46.92  0.001744113    1.749    0.428
        56  -9.6142    203.4151    111.7329   9.4424931654e+01   1.7899079256e+01    0.2090604    0.1410095 -20.74 0.0005811463    1.605    0.377
        57  -9.1825     34.4342     93.1011   1.3254396046e+02   5.2917967518e+01    0.2329496    0.1402669  49.30 0.0009407472    2.039    0.510
        58  -8.6695    184.5314     77.4778   8.8692146493e+01   2.8187127064e+01    0.1532381    0.1463406   7.04 5.072686e-05    1.053    0.051
        59 -10.6864     13.3677     65.1424   1.3362080033e+02   6.0655351085e+01    0.3610147    0.1668856  37.63  0.001943631    2.756    0.637
        60 -11.0261      7.1448     63.0779   1.3535374024e+02   6.1479466014e+01    0.3187864    0.1970059  38.82  0.001176116    2.104    0.525
        61 -10.5423      2.3148     61.6515   1.3675601659e+02   6.2048545436e+01    0.2147215    0.1433766 -80.43    0.0011031    1.523    0.343
        62  -9.5615     30.5483     61.4304   1.2665249827e+02   6.0094165066e+01    0.2293745    0.1403224  32.86  0.001191299    1.984    0.496
        63 -10.4455      9.4797     54.3136   1.3255013011e+02   6.3154998461e+01    0.1669951     0.105957  15.57 0.0007298085    1.993    0.498
        64 -11.2161      2.8643     47.7532   1.3348138105e+02   6.4871175720e+01    0.2526498    0.1586053 -67.67  0.001637256    1.434    0.303
        65  -9.8144    238.4909    248.9949   1.1538928497e+02  -7.6270861647e+00    0.1224166   0.09564068 -54.97 0.0008105445    2.576    0.612
        66 -10.0980    152.6950    248.9960   1.2952129704e+02   5.5216714499e+00    0.1507698    0.1261007  47.18 0.0004703319    1.090    0.083
        67 -10.3114     81.4950    248.7902   1.4127185109e+02   1.5928046836e+01    0.2173527    0.1231791  64.26  0.001217335    1.524    0.344
