#   1 NUMBER                 Running object number                                     
#   2 MAG_AUTO               Kron-like elliptical aperture magnitude                    [mag]
#   3 X_IMAGE                Object position along x                                    [pixel]
#   4 Y_IMAGE                Object position along y                                    [pixel]
#   5 X_WORLD                Barycenter position along world x axis                     [deg]
#   6 Y_WORLD                Barycenter position along world y axis                     [deg]
#   7 A_WORLD                Profile RMS along major axis (world units)                 [deg]
#   8 B_WORLD                Profile RMS along minor axis (world units)                 [deg]
#   9 THETA_WORLD            Position angle (CCW/world-x)                               [deg]
#  10 FWHM_WORLD             FWHM assuming a gaussian core                              [deg]
#  11 ELONGATION             A_IMAGE/B_IMAGE                                           
#  12 ELLIPTICITY            1 - B_IMAGE/A_IMAGE                                       
         1 -16.3330    238.3901     92.4136   3.0372502051e+01   1.7977443449e+01      2.89128        1.373 -47.32   0.01701597    1.624    0.384
         2 -12.1534     62.7027     69.4106   6.1072715631e+01   5.5884718749e+01    0.8014799    0.1319896 -43.41  0.001935396    6.932    0.856
         3 -11.4050     73.3387     56.3617   5.2873476830e+01   5.6171706578e+01    0.7433159    0.2355898 -37.66  0.002561785    3.830    0.739
         4 -11.0403     40.9512     13.9752   4.9060614435e+01   6.8191926065e+01    0.1846102    0.1445502  33.45 0.0003062102    1.018    0.018
         5 -10.8815     92.3872    230.2158   8.4141061217e+01   1.2561114952e+01    0.1855731    0.1393373 -79.44 0.0009506618    1.719    0.418
         6 -11.1337     84.9893    227.0110   8.5676107416e+01   1.4204875634e+01    0.2371636     0.160328  54.41  0.001142252    1.741    0.426
         7 -10.3063    162.0400    224.8071   6.6509495945e+01   4.9328859401e+00    0.2350204    0.1362199  -7.58  0.001096863    2.080    0.519
         8 -10.0925     99.0236    224.9996   8.1726302813e+01   1.2893934809e+01     0.177902    0.1550956  14.49 0.0005516437    1.034    0.033
         9 -10.9944     13.7858    223.5962   1.0437162284e+02   2.2665666812e+01    0.1966521     0.103898  35.41 0.0009432907    1.662    0.398
        10 -10.5767     59.4986    222.5209   9.2007779684e+01   1.8315812104e+01    0.1421713    0.1296799  33.01 0.0001175912    1.020    0.020
        11 -10.7139    126.1515    220.6145   7.4197427351e+01   1.0330776354e+01    0.2156762    0.1985407 -61.58 0.0006507646    1.317    0.241
        12 -10.5260    143.5116    216.9824   6.9453630788e+01   8.8192404651e+00    0.2054218    0.1311363 -47.83  0.001029036    1.580    0.367
        13 -10.1177    112.3046    216.6482   7.7090797857e+01   1.3034416512e+01    0.1431653    0.1100924  60.03 0.0005237312    1.706    0.414
        14 -11.1028     18.8219    215.0552   1.0244261285e+02   2.4321451334e+01    0.2373826    0.2043996  -2.97 0.0008456344    1.298    0.229
        15 -10.6141     76.6048    211.8065   8.6008753281e+01   1.8851722231e+01    0.2021867    0.1438809 -81.67 0.0009431456    1.731    0.422
        16 -10.4752    116.5098    210.0173   7.4994080192e+01   1.3958358784e+01    0.1926075    0.1323309  88.21  0.000810426    2.558    0.609
        17  -9.9288     71.4768    208.4786   8.7015328154e+01   2.0314122368e+01    0.1475085    0.1362526  34.86  0.000138046    1.055    0.052
        18 -10.3347     99.3156    205.6575   7.8876424657e+01   1.7335405117e+01     0.151371    0.1119519  59.95 0.0003579449    1.710    0.415
        19 -11.2506    186.4820    204.2292   5.8066837969e+01   5.8411062118e+00    0.2287691    0.1771283  17.52  0.001250945    1.325    0.245
        20 -12.0235    165.3984    202.3129   6.2082951356e+01   8.9130065276e+00    0.4091159    0.3308417 -76.21  0.002234188    1.869    0.465
        21 -12.3042    163.3759    194.1919   6.1113335403e+01   1.0828364988e+01    0.4736777    0.3596876  75.78  0.002321803    2.363    0.577
        22 -10.5463    148.8574    198.0159   6.5048432336e+01   1.2067015057e+01    0.2200571    0.1714623 -84.82  0.001087374    2.039    0.510
        23 -11.0490    124.5703    197.1957   7.0835193168e+01   1.5733172739e+01    0.2892641    0.2354689  54.15  0.001494823    1.500    0.333
        24 -10.1099     66.3157    193.9773   8.6581139505e+01   2.4635046491e+01    0.2405167    0.1209882  84.91 0.0007047963    4.291    0.767
        25 -10.4231    186.3334    193.6774   5.6291601500e+01   7.8447017195e+00    0.1191424    0.1054002 -89.08 0.0004479041    1.705    0.414
        26 -10.2484    206.3181    191.6374   5.2245838621e+01   5.7212336000e+00    0.1155361   0.09683024 -71.61 0.0007041572    1.769    0.435
        27 -11.3940    177.8206    197.1223   5.8583536552e+01   8.2932925948e+00    0.1939654    0.1823678 -42.13  0.001124941    1.264    0.209
        28 -10.5096    138.9980    189.0003   6.5805785125e+01   1.5452301341e+01    0.2241948    0.1839716  72.81  0.001139315    1.727    0.421
        29 -10.2161    129.3891    188.1627   6.8041273847e+01   1.7080840330e+01    0.2052958    0.1419193 -64.24 0.0007377752    1.752    0.429
        30 -10.4337    165.6861    186.5645   5.9256277557e+01   1.2061061820e+01    0.2290583     0.171611 -66.58  0.001182511    1.778    0.438
        31 -11.1032    120.2213    183.5845   6.9593786723e+01   1.9536214511e+01    0.4309812      0.18841 -64.55  0.001381647    3.544    0.718
        32 -10.4154    109.3230    185.6511   7.2889643959e+01   2.0702198294e+01    0.1548209     0.117984  65.88  0.000333213    1.746    0.427
        33 -11.2512     94.9131    183.3320   7.6541071733e+01   2.3423596268e+01    0.4443237    0.2711193 -67.45  0.001866146    1.941    0.485
        34 -10.5127    174.7305    183.5916   5.6823359249e+01   1.1375937488e+01    0.1784186    0.1261106  42.07 0.0009507022    1.658    0.397
        35 -10.5951     74.2399    183.2450   8.2641040864e+01   2.6381229600e+01     0.237914    0.1328575 -78.09 0.0008261458    2.441    0.590
        36 -11.0918    147.8357    179.5606   6.1976380372e+01   1.6189494372e+01    0.2808792     0.195165 -66.82  0.001316552    1.895    0.472
        37 -10.7003    138.3755    179.1569   6.4164986716e+01   1.7741741199e+01    0.2077767    0.1381425 -61.17 0.0006914556    1.759    0.432
        38 -11.9369      4.1304    176.7451   1.0376429130e+02   3.5431363123e+01    0.5226572    0.1729471 -62.05  0.001951558    2.597    0.615
        39 -11.4582     77.4616    175.1383   8.0363738020e+01   2.8048048161e+01    0.4010788    0.2258515  67.73  0.001355349    3.172    0.685
        40 -10.8463    177.0946    170.6806   5.3977095631e+01   1.3607462882e+01    0.2378314    0.1780801 -53.17  0.001035916    1.367    0.269
        41 -11.5832    121.6468    167.7405   6.6266088101e+01   2.3051374128e+01    0.6454514    0.3360543 -61.15  0.002484306    2.312    0.568
        42 -10.1250    206.5056    169.5068   4.8367477541e+01   9.6831045707e+00    0.1262145    0.1053624 -37.60 0.0002352213    1.049    0.046
        43 -10.5179    149.6297    168.8242   5.9527671841e+01   1.8245561476e+01    0.2080234    0.1328142 -57.77 0.0009512485    1.732    0.423
        44  -9.8863    168.3123    168.6617   5.5389294643e+01   1.5342023602e+01    0.1334387    0.1105478 -86.22 0.0004209128    1.692    0.409
        45 -11.4662    139.1675    163.9133   6.1053466860e+01   2.1038052962e+01    0.5839752    0.2845432 -61.72  0.002103532    2.855    0.650
        46 -11.0438     79.4052    162.8033   7.7629361815e+01   3.0989969155e+01    0.4682329    0.2764307  89.02  0.001603898    3.105    0.678
        47 -10.1630    146.5047    162.7866   5.9077779747e+01   2.0073090514e+01    0.2172132    0.2054035  64.98 0.0006272567    1.222    0.181
        48 -10.5668    144.0426    159.5046   5.9006514367e+01   2.1205516751e+01    0.2345173    0.1958916 -60.63 0.0003793879    1.294    0.227
        49 -11.1869    205.9728    161.9731   4.7110345575e+01   1.1121339632e+01    0.1924558    0.1498027 -71.42  0.001137429    1.723    0.420
        50 -10.8246    177.5000    159.5404   5.1792680998e+01   1.5762572722e+01    0.2899255    0.1219357 -47.17  0.001204374    2.147    0.534
        51 -11.0805     92.8043    159.1891   7.2809597230e+01   2.9853980554e+01    0.3981144    0.2258881 -69.76  0.001505462    2.313    0.568
        52 -11.7985    197.0755    157.1506   4.7738417259e+01   1.3270860122e+01    0.2977397    0.1653929 -48.82  0.001517307    1.616    0.381
        53 -11.5377    188.7678    156.5474   4.9099127044e+01   1.4618899852e+01    0.3688705    0.2065353 -51.27  0.001426181    1.702    0.412
        54 -12.9163    189.2887    148.5649   4.7489992283e+01   1.6060231964e+01    0.5508141    0.2652609 -50.54  0.002527938    1.950    0.487
        55 -10.1944    128.3716    158.1936   6.2618207916e+01   2.4159216846e+01    0.2185724    0.1419438 -61.28 0.0008711565    1.757    0.431
        56 -10.5724    105.6729    157.6920   6.8711377023e+01   2.8124592128e+01    0.3050667    0.1981428 -81.39   0.00117482    2.462    0.594
        57 -11.0364    167.7381    156.5354   5.3170505473e+01   1.7916967497e+01    0.2968878    0.1628928 -57.72  0.001288325    2.112    0.527
        58 -11.7892    204.9080    154.2969   4.5894585434e+01   1.2664210570e+01    0.2303357    0.1538167 -51.18 0.0009457865    1.384    0.277
        59 -10.7587     49.2617    154.5065   8.6174391039e+01   3.7303197549e+01    0.3815551    0.2044199  67.20  0.001292433    3.093    0.677
        60 -10.1533     95.3377    154.2882   7.1082710483e+01   3.0682721187e+01    0.1615908    0.1193447 -14.68 0.0007019952    1.636    0.389
        61 -10.8155     81.1673    153.7124   7.5377887206e+01   3.3090174238e+01    0.3023079    0.1947682 -78.18  0.001209728    2.096    0.523
        62 -11.1988     67.9445    153.3351   7.9625363009e+01   3.5154434887e+01    0.4200023    0.2731432  61.22  0.001683621    2.017    0.504
        63 -10.7233    133.1538    152.4595   6.0231284016e+01   2.4647464362e+01    0.3173884    0.2366478  85.27  0.001426081    2.026    0.506
        64 -10.1492    182.0000    149.9834   4.9091345382e+01   1.6934172566e+01    0.2302959   0.06879996 -46.23 0.0008064792    2.971    0.663
        65 -12.0359    200.3365    147.8123   4.5451382014e+01   1.4515178767e+01    0.2589688    0.2072843 -47.11  0.001217904    1.096    0.088
        66 -10.8963     39.0029    146.7293   8.8546781505e+01   4.0602366581e+01    0.3241523    0.1826959  75.35  0.001177748    2.743    0.635
        67 -11.5331    148.7040    142.8373   5.4508442403e+01   2.4023184161e+01      0.77153    0.3182441 -54.85  0.002763884    2.762    0.638
        68 -11.3158    106.5576    143.8688   6.5602660094e+01   3.1345129237e+01    0.5073259    0.2990411 -75.69  0.001788665    2.940    0.660
        69 -11.5894     55.3789    143.7275   8.2187150949e+01   3.9442118647e+01    0.7020771    0.3452488 -72.81   0.00250255    2.581    0.613
        70 -11.1332     87.7540    142.2373   7.0969813244e+01   3.4971767609e+01    0.5200312    0.2224071 -61.02  0.001747131    2.729    0.634
        71 -10.5080    165.6627    142.5482   5.0800404258e+01   2.1113968657e+01    0.2673753    0.1209846 -47.18   0.00110782    2.038    0.509
        72 -11.2869    124.4012    141.1572   6.0089232250e+01   2.8783315252e+01    0.5750079    0.2639842 -60.89   0.00194869    2.987    0.665
        73 -10.7493    181.9889    140.7556   4.7289418653e+01   1.8720580555e+01     0.255421    0.1601708 -56.47   0.00128414    1.645    0.392
        74 -10.7821    172.2078    136.9210   4.8357112584e+01   2.1112327943e+01    0.3117629    0.1738432 -55.36  0.001427796    1.870    0.465
        75 -10.9943     22.4701    135.6596   9.2967541772e+01   4.5236920895e+01    0.6405191    0.2704492 -79.05  0.002225383    2.904    0.656
        76 -11.7753    188.7968    135.0042   4.4952191583e+01   1.8692217279e+01    0.3153632    0.1938268 -52.50  0.001322788    1.523    0.343
        77 -10.1068    162.6059    135.1944   4.9908842830e+01   2.3135814902e+01    0.2095545    0.1227796 -38.12 0.0009606066    1.717    0.417
        78 -10.9239    179.4032    132.6918   4.6153714719e+01   2.0699214840e+01    0.3265154    0.1500529 -49.72  0.001423574    2.027    0.507
        79 -10.4761    112.6836    132.6905   6.1399204257e+01   3.2885819561e+01    0.3046597    0.1918319 -74.42  0.001168446    2.481    0.597
        80 -11.2743    131.7892    129.2046   5.5562914214e+01   3.0080439754e+01    0.6307309    0.2317957 -53.77  0.002076497    3.085    0.676
        81 -11.8505     83.0848    130.8780   7.0029354543e+01   3.8596686904e+01    0.5863388    0.3404285 -70.17  0.002227516    2.357    0.576
        82 -10.9365    142.9134    129.6636   5.3002569740e+01   2.7882376090e+01    0.4784136    0.1949199 -49.03  0.001787978    2.396    0.583
        83 -11.7925    192.7652    129.2380   4.3157578843e+01   1.9104389779e+01     0.293314    0.1923521 -38.20  0.001293933    1.435    0.303
        84 -11.2988    168.7247    128.3377   4.7261705446e+01   2.3406003356e+01    0.3801924    0.1750501 -50.75  0.001603326    2.102    0.524
        85 -11.0345    152.8167    127.7001   5.0367551139e+01   2.6438310260e+01    0.4443465      0.18825 -52.98  0.001676061    2.514    0.602
        86 -12.3087     98.9223    124.4203   6.3521038037e+01   3.7359651067e+01     0.990922     0.412887 -52.24  0.003520648    2.458    0.593
        87 -10.7977     72.7994    128.3101   7.2944081516e+01   4.0926755065e+01     0.370716    0.2243875 -75.95  0.001411762    2.403    0.584
        88 -11.6358     12.3010    126.3137   9.5563037791e+01   4.8556480873e+01    0.7734961    0.2197331 -71.08  0.002461041    3.400    0.706
        89 -11.5965    180.1194    123.0809   4.4077280935e+01   2.2389294132e+01    0.4199212    0.1800499 -41.54  0.001788337    2.195    0.545
        90 -11.2080    117.2200    123.8357   5.8116506676e+01   3.4045253181e+01    0.4999274    0.2779211 -56.07   0.00204865    1.960    0.490
        91 -11.8061     58.8373    122.5033   7.6695992451e+01   4.4525988565e+01    0.7214839    0.3878517 -82.24  0.002294475    3.721    0.731
        92 -11.4204    188.7421    122.8812   4.2567747308e+01   2.0935315148e+01    0.3134994    0.1517882 -49.90  0.001462482    1.880    0.468
        93 -12.0907     43.0267    120.2605   8.2289536837e+01   4.7213357605e+01    0.9589099    0.4579287 -82.62  0.002828295    4.380    0.772
        94 -11.6450     29.1344    121.3479   8.8040048500e+01   4.8460021220e+01    0.7189184    0.2848612 -73.27  0.002397962    3.155    0.683
        95 -10.3066     17.0113    244.6995   1.0486162999e+02   1.7465936186e+01    0.1828267    0.1470041  36.66 0.0005293045    1.098    0.090
        96 -11.2332    182.9715    107.9888   4.0497508586e+01   2.4623055023e+01    0.2839903    0.1633539 -45.28  0.001453637    1.567    0.362
        97 -11.8578    141.5170    116.7849   5.0431827689e+01   3.0822351183e+01    0.7492608    0.2441343 -50.87  0.002443016    3.298    0.697
        98 -12.1316    189.1812    106.1834   3.9144880343e+01   2.3824067255e+01    0.2955419    0.1709905 -44.76  0.001553766    1.543    0.352
        99 -12.4723     44.9331    101.1378   7.7287491090e+01   5.1771852712e+01    0.8521661    0.4816077  70.31  0.002681901    4.407    0.773
       100 -11.1397     43.4151     93.3622   7.6004697526e+01   5.3822103018e+01    0.3929426    0.1596333 -46.09  0.001477171    2.417    0.586
       101 -13.0264     21.7226     98.8106   8.6866060852e+01   5.4945326004e+01      1.05913    0.5179217 -79.28   0.00393416    3.041    0.671
       102 -11.7850    150.0154    100.4399   4.4836135615e+01   3.2319793941e+01     0.668625    0.1848054 -47.23  0.002165445    3.592    0.722
       103 -11.4956    139.7486    102.2669   4.7440262280e+01   3.4053035945e+01    0.5377715    0.2239995 -43.18  0.002090887    2.415    0.586
       104 -11.0353    130.4861    117.3211   5.3161986228e+01   3.2876233485e+01    0.4197127    0.2420369 -66.37  0.001632028    2.532    0.605
       105 -11.1775    166.5641    102.2476   4.2083027486e+01   2.8720826835e+01    0.3374046    0.1247125 -41.69  0.001305844    2.651    0.623
       106 -11.7509      6.6624    100.4596   9.3971961040e+01   5.5677933971e+01    0.5122958     0.108075 -62.24  0.001657747    3.423    0.708
       107 -11.2188    175.7362    100.4803   4.0115486614e+01   2.7282748707e+01    0.2724307    0.1522134 -33.77  0.001275948    2.106    0.525
       108 -11.5741    128.3139     99.7143   4.9455968490e+01   3.6891441570e+01    0.4131594    0.2319977 -39.48  0.001808464    1.913    0.477
       109 -10.9363    159.6321     98.9598   4.2624262959e+01   3.0670181373e+01    0.3204907    0.1224305 -43.78  0.001258356    2.508    0.601
       110 -11.6284     81.7104     97.7597   6.2385716365e+01   4.6610713227e+01    0.5740743    0.2066178 -53.43  0.001886476    3.195    0.687
       111 -12.4079    108.2012     95.7461   5.3651141451e+01   4.1823153208e+01    0.7523575    0.3599841 -50.80  0.002986002    2.258    0.557
       112 -11.2932     70.7362    118.5438   7.1457975979e+01   4.3690775915e+01    0.3236315    0.2006832 -72.20  0.001291909    2.195    0.544
       113 -12.5867     63.3486     93.1623   6.7807332338e+01   5.0865564216e+01    0.8932561    0.3836481 -57.77    0.0032103    2.843    0.648
       114 -11.4804     94.8615     94.2394   5.7165059469e+01   4.4825122965e+01    0.5953538    0.2098751 -44.75  0.002028655    2.990    0.666
       115 -11.8650    176.9782     92.0180   3.8110387227e+01   2.8500214344e+01    0.2822049     0.166648 -45.00  0.001472731    1.570    0.363
       116 -11.0928    164.9840     92.5205   4.0214926202e+01   3.0749813630e+01    0.2578528    0.1851742 -31.55  0.001382869    1.640    0.390
       117 -11.3162      2.4214    114.8292   9.7978719337e+01   5.2217273486e+01    0.6613337    0.2452105 -86.67  0.002094068    4.025    0.752
       118 -11.2192    138.5322     89.9641   4.4734071589e+01   3.6604197777e+01    0.4167453    0.1900885 -45.15  0.001738531    2.192    0.544
       119 -11.9744    124.7911     87.6282   4.7250392232e+01   3.9924620867e+01    0.6882261    0.3231722 -37.21   0.00275168    2.475    0.596
       120 -12.1811      5.2562     88.2831   9.2456079673e+01   5.8783780503e+01    0.6828657    0.2103554 -50.74  0.002610144    2.543    0.607
       121 -10.4416    158.0000     90.0187   4.0896487334e+01   3.2581984172e+01    0.2239551   0.07289581 -42.69 0.0008084961    2.985    0.665
       122 -11.4380     34.5965     86.4785   7.8143441059e+01   5.6542042093e+01    0.7697615    0.2579716 -54.44  0.002777449    2.829    0.647
       123 -12.1737     86.2190     84.2383   5.7128758980e+01   4.8560664323e+01    0.6754312    0.2863286 -48.97  0.002559592    2.584    0.613
       124 -10.7683    158.4548    119.6176   4.7433063026e+01   2.6999679194e+01    0.3890435    0.1646485 -44.87  0.001561485    2.234    0.552
       125 -11.0592    179.5928     84.7881   3.6168656714e+01   2.9193655273e+01    0.1890462    0.1041503 -53.24 0.0009541061    1.704    0.413
       126 -12.5988     48.0758     81.6720   7.0834007066e+01   5.5796654076e+01    0.7200181    0.3358252 -55.59  0.002905529    2.398    0.583
       127 -11.4045    140.8603     81.1110   4.2073031100e+01   3.7674019725e+01    0.3561392    0.1795128 -31.17   0.00144333    2.757    0.637
       128 -11.2951     24.3811     80.2013   8.1341189886e+01   5.9125182375e+01    0.3409379    0.2410834  81.81   0.00161244    2.271    0.560
       129 -12.1563     24.7862     74.2186   7.9563856925e+01   6.0421370815e+01    0.7432402    0.3213775 -24.93  0.002520111    3.641    0.725
       130 -10.7540     74.3369     79.0582   5.9678793562e+01   5.1878302365e+01    0.4286167    0.1389208 -51.52   0.00135959    3.820    0.738
       131 -11.0392    150.0014     78.3833   3.9643624051e+01   3.6205934804e+01    0.2752812    0.1443858 -31.91  0.001192614    2.487    0.598
       132 -10.6758    119.3086     78.1685   4.6081649589e+01   4.2796420112e+01    0.2787229    0.1295604 -35.01  0.001092021    2.664    0.625
       133 -10.7325    172.4952    119.5371   4.4711527435e+01   2.4415140947e+01    0.2890386    0.1227076 -45.64  0.001207212    2.154    0.536
       134 -11.0060    174.6041     77.2592   3.5298147372e+01   3.1368926524e+01    0.2467175    0.1082264 -45.78  0.001135262    2.100    0.524
       135 -11.7047    108.6214    111.6392   5.7580910524e+01   3.8405292395e+01    0.7635903    0.2811626 -52.30  0.002543676    2.984    0.665
       136 -11.7466    192.9290    113.6537   4.0062216233e+01   2.1866616846e+01    0.2692038    0.1679325 -52.07  0.001467944    1.434    0.303
       137 -11.7901     92.3082    109.1055   6.1853328084e+01   4.2113183045e+01    0.9323404    0.2860277 -51.72  0.002849552    3.486    0.713
       138 -10.4628    157.4955     74.9946   3.7516055593e+01   3.5194361564e+01    0.1980794    0.1241673 -42.92 0.0008794445    1.597    0.374
       139 -11.0612      9.9145     74.7582   8.7269758476e+01   6.1657206291e+01    0.2175854    0.1592639 -25.62 0.0006334608    1.228    0.186
       140 -11.8871     78.4943    110.7042   6.6837889111e+01   4.4263628424e+01    0.7100025    0.3696848 -69.29  0.002381583    3.289    0.696
       141 -11.4746     82.2456     66.4997   5.3132104845e+01   5.2665957311e+01    0.3595586    0.2277573 -14.68  0.001522046    2.609    0.617
       142 -10.8045    155.3174    240.6790   7.0403536133e+01   2.7359716852e+00    0.1187889    0.1007866  48.90 0.0003629466    1.663    0.399
       143 -11.4815    128.1058     72.5313   4.2568217055e+01   4.1856235803e+01    0.5465067      0.23877 -36.20  0.002198899    2.694    0.629
       144 -11.0074    158.5442     81.6800   3.8883560559e+01   3.3888062968e+01    0.2491423    0.1272548 -37.95  0.001137695    2.104    0.525
       145 -11.1649     94.7451     68.5698   4.9894481459e+01   4.9718639541e+01    0.5895376    0.1689314 -46.82  0.001873336    4.093    0.756
       146 -11.8138    104.2752     80.7069   5.0675792395e+01   4.5543253132e+01    0.5868905    0.2462045 -47.91   0.00225206    2.602    0.616
       147 -11.4702    159.5158    110.3450   4.5186551739e+01   2.8585257624e+01    0.4231463    0.1268676 -46.03  0.001449705    3.154    0.683
       148 -10.3847    163.3856     69.7913   3.5354881701e+01   3.4793668193e+01     0.174077     0.120528 -32.30 0.0009485376    1.734    0.423
       149 -11.6844     50.9103     66.9345   6.5134777239e+01   5.8376547882e+01     0.664225    0.2060843 -53.54  0.002086383    4.429    0.774
       150 -11.5956     81.9138     71.5956   5.4812282733e+01   5.1822773065e+01    0.3931591    0.2651492 -67.23  0.001795465    2.177    0.541
       151  -9.9631    170.6629     69.6694   3.4220209270e+01   3.3330039641e+01    0.1183493    0.1010492  22.72  0.000705205    1.735    0.424
       152 -11.3882     17.8574     62.9657   7.9973054479e+01   6.3551376086e+01    0.3404246    0.1439721 -40.68  0.001453859    2.280    0.561
       153 -11.2475    121.9749    110.5768   5.3699259509e+01   3.5980747025e+01    0.4700693    0.2127634 -46.92  0.001821328    2.221    0.550
       154 -10.7327    147.2810     65.5488   3.7032757551e+01   3.8826610318e+01    0.3282824    0.1223175 -33.65  0.001206303    3.580    0.721
       155 -11.5913    203.5042     65.4675   2.9158066564e+01   2.7656614602e+01    0.2369063    0.1010569 -41.59  0.001199427    2.129    0.530
       156 -11.2212    138.6081     65.0061   3.8485841855e+01   4.0778984452e+01    0.2966768    0.1259285 -40.22  0.001261987    2.461    0.594
       157 -11.6455     14.1654    109.4083   9.2184408694e+01   5.2878865154e+01      0.55662    0.2804187 -76.36   0.00229187    2.254    0.556
       158 -11.2759     37.1425     61.7538   6.9738016561e+01   6.1474667884e+01    0.3850977    0.1923822 -45.46   0.00175429    2.068    0.516
       159 -11.2378    174.5111    109.9766   4.2338164828e+01   2.5816644399e+01    0.3659048    0.1207613 -44.31  0.001375749    2.779    0.640
       160 -10.5500    110.1947     61.0397   4.3543413098e+01   4.7622165729e+01    0.3508911    0.1150804 -31.79  0.001035812    5.269    0.810
       161 -10.8528    121.4911     63.6012   4.1632095844e+01   4.4739892585e+01    0.3257816    0.1331302 -40.65  0.001329669    2.609    0.617
       162 -11.6971    185.9515    114.9691   4.1437700218e+01   2.2847710758e+01    0.3739442    0.1699384 -46.68  0.001708044    1.954    0.488
       163 -10.2052    100.1335     57.8605   4.5173014497e+01   5.0315104619e+01    0.4431483   0.07775711 -42.11  0.001201279    5.978    0.833
       164 -10.6997     24.8618     57.3224   7.4498922630e+01   6.3936518690e+01    0.2691285    0.1407111 -40.67  0.001283127    1.896    0.473
       165 -11.6963      8.4002     50.4078   8.1529372948e+01   6.6981290100e+01    0.3943072     0.132112 -40.67  0.001594448    2.789    0.641
       166 -12.0847     45.2185     49.6089   6.1741226686e+01   6.2451175500e+01    0.4248544    0.2438218 -30.04 0.0006989829    2.038    0.509
       167 -11.6732     66.0358    108.9099   7.0862541871e+01   4.6786691683e+01    0.4777046    0.2669203 -67.96  0.001830557    2.457    0.593
       168 -10.6744     30.4450     49.6084   6.8939524127e+01   6.4680839214e+01    0.3662703    0.1395172 -58.99  0.001150376    5.514    0.819
       169 -10.9896     92.0121     48.0448   4.4330737282e+01   5.3542089655e+01    0.5244333    0.1341387 -40.99  0.001757291    4.282    0.766
       170 -10.4974    147.6554    239.3282   7.1914644513e+01   3.8764785052e+00    0.1256135    0.1007118  50.70 0.0001341665    1.748    0.428
       171 -10.3098    113.5592     41.9317   3.7240603245e+01   4.9610419575e+01    0.1689841    0.1161858   4.90 0.0008076039    2.607    0.616
       172 -12.2440      4.9165     39.0273   7.9940528027e+01   6.9461525443e+01    0.5510299    0.1639154 -57.97  0.002091745    3.978    0.749
       173 -11.0779     16.8245     41.7034   7.3593398415e+01   6.7797887457e+01     0.390545    0.1286512 -40.93  0.001568114    3.075    0.675
       174 -11.0148     53.6125     50.3806   5.8348556521e+01   6.0884248725e+01    0.4827671    0.1317613 -44.39  0.001631544    4.176    0.761
       175 -10.3477     37.3327     36.9934   6.0662494859e+01   6.5770826457e+01    0.2040399   0.09476828 -21.33 0.0007051257    4.348    0.770
       176 -11.3068     27.6155     29.5081   6.2589926430e+01   6.8399241980e+01    0.3451118     0.136495 -28.72  0.001317444    3.884    0.743
       177 -10.4431     12.6639     21.2904   6.7821437626e+01   7.1642972137e+01     0.112026   0.08794308  41.45 0.0003926837    1.637    0.389
