#   1 NUMBER                 Running object number                                     
#   2 MAG_AUTO               Kron-like elliptical aperture magnitude                    [mag]
#   3 X_IMAGE                Object position along x                                    [pixel]
#   4 Y_IMAGE                Object position along y                                    [pixel]
#   5 X_WORLD                Barycenter position along world x axis                     [deg]
#   6 Y_WORLD                Barycenter position along world y axis                     [deg]
#   7 A_WORLD                Profile RMS along major axis (world units)                 [deg]
#   8 B_WORLD                Profile RMS along minor axis (world units)                 [deg]
#   9 THETA_WORLD            Position angle (CCW/world-x)                               [deg]
#  10 FWHM_WORLD             FWHM assuming a gaussian core                              [deg]
#  11 ELONGATION             A_IMAGE/B_IMAGE                                           
#  12 ELLIPTICITY            1 - B_IMAGE/A_IMAGE                                       
         1 -12.1431    119.8701     37.3521   4.0961166115e+00   5.0473332314e+01    0.9593789    0.4197848 -53.92  0.001700752    2.747    0.636
         2 -11.6957    179.6974     20.4405   3.5101795544e+02   3.8557533915e+01    0.9046367    0.6213808  22.92  0.004744041    2.675    0.626
         3 -10.0701    186.6349     14.9762   3.4908309701e+02   3.7668513089e+01    0.2393969    0.1814507 -65.49 0.0006915704    1.055    0.052
         4 -11.8237    147.5259     27.0553   3.5625566508e+02   4.5124388965e+01     1.702376    0.6583852  83.23  0.006132868    3.432    0.709
         5 -11.7464    104.4732     11.9397   3.5749119605e+02   5.7353072861e+01    0.5340065    0.3358493 -23.06  0.001834779    1.842    0.457
         6 -12.2336    113.0149     25.1376   1.0206224706e+00   5.3761920211e+01    0.7521629    0.3105395  61.15  0.003138214    2.161    0.537
         7 -12.6759    105.5537     19.8645   4.4433824066e-01   5.6231554635e+01    0.3767855    0.2963764 -76.97 0.0006368091    1.271    0.213
         8 -11.7306     57.9415     29.5354   1.9185739448e+01   6.6105472248e+01     0.756928    0.4319929 -18.76  0.001476463    2.681    0.627
         9  -9.9557     11.9602      1.9285   3.0967201762e+01   7.8535541096e+01    0.2726302    0.1768701  29.43  0.001607513    1.397    0.284
        10  -9.9717     21.9856      3.2418   2.3473787219e+01   7.6785701424e+01    0.2611195     0.177154 -19.59  0.001004772    1.612    0.380
        11 -10.2617      5.5983     10.2665   4.3232503890e+01   7.7901003708e+01     0.449624    0.3288176 -44.30  0.002796095    1.359    0.264
        12 -11.8064     26.5685     27.8036   3.5767662438e+01   7.2039874977e+01    0.5258541     0.394348 -43.87  0.002405082    1.364    0.267
        13 -11.1879     20.9972     21.4701   3.6387987398e+01   7.4002604656e+01     0.722858     0.487919   9.53  0.003907496    1.609    0.379
        14 -11.7052     23.4115     10.5923   2.7762210394e+01   7.5485443666e+01    0.7099286    0.4762719  33.43  0.003391266    1.364    0.267
        15 -11.8900      9.0656     19.5274   4.5215374470e+01   7.5785165866e+01    0.4649257    0.2917804 -12.74 0.0003567436    1.742    0.426
        16 -11.1667     16.2643     14.6142   3.6108654404e+01   7.5870142937e+01    0.4952235    0.3070771 -11.10  0.001808339    2.060    0.515
        17 -11.6463     15.8502      9.5125   3.3101434066e+01   7.6793612932e+01    0.6110843    0.3026448  44.37  0.001495939    2.288    0.563
        18 -12.7085    245.9963     21.5858   3.4700122874e+02   2.5683265527e+01    0.5643326    0.4695309 -75.61  0.004604305    1.292    0.226
        19 -11.8681    236.3598      4.9288   3.4414536523e+02   2.9088610194e+01    0.3600229    0.3246996 -53.17  0.002439041    1.370    0.270
        20 -12.4507    236.3869     15.7776   3.4631840496e+02   2.7953145518e+01    0.4097106    0.2842897 -75.52  0.002231276    1.312    0.238
        21 -12.2799    243.9275     13.8340   3.4558521897e+02   2.6866947662e+01    0.5009823    0.3726884  22.45  0.003304233    2.754    0.637
        22 -11.3778    247.5967      4.8204   3.4369794832e+02   2.7182563533e+01    0.3377565    0.2269992 -35.11  0.002519337    1.425    0.298
        23 -11.5261    242.6370      2.8932   3.4350709912e+02   2.8210416219e+01    0.3630397    0.2131409 -65.75  0.002595663    1.344    0.256
        24 -10.6819    225.7318     13.3501   3.4634435729e+02   3.0114640710e+01    0.2260223    0.1364959 -48.89 0.0004630978    1.214    0.176
        25 -10.5411    134.6095     21.8300   3.5633164117e+02   4.8847796104e+01    0.6108649    0.3851073 -34.81  0.002984485    1.615    0.381
        26 -11.4541    127.0903     15.8659   3.5537251326e+02   5.1347307823e+01    0.4916074    0.3450258 -17.07  0.001692314    1.780    0.438
        27 -10.6478    132.1779     14.8230   3.5433101230e+02   5.0212294105e+01    0.3362982    0.2486077  38.85  0.001274281    1.724    0.420
        28 -10.0967    136.8685     14.3771   3.5359422814e+02   4.9118621963e+01    0.3051975    0.1925747  72.08  0.001099856    1.455    0.313
        29 -12.2075     48.6716     12.7639   1.4193326826e+01   7.0435793814e+01    0.8778487    0.2597826  50.67  0.003268774    2.896    0.655
        30 -11.5263     35.5778     17.2935   2.3920078533e+01   7.2377884618e+01    0.4777779    0.2998512 -28.00  0.001277105    1.772    0.436
        31 -11.8589    164.3461     18.2323   3.5180088470e+02   4.2226640481e+01    0.4015917    0.2697409  44.81  0.002207164    2.009    0.502
        32 -10.6570    191.2274     12.2038   3.4807942162e+02   3.6996323810e+01    0.6144025    0.2540387 -24.25  0.002811971    2.915    0.657
        33 -10.2168     88.8078      8.1327   3.5892792457e+02   6.1603450629e+01    0.4195761    0.3322421  86.96  0.001637073    1.208    0.172
        34 -11.1737     85.9312     14.2237   2.3574386965e+00   6.1688258731e+01    0.4443605    0.4167289 -53.56  0.001933385    1.151    0.131
        35  -9.6631     84.6459      9.7810   6.1626367766e-01   6.2463165619e+01    0.3123595    0.1448215 -28.43 0.0006535227    2.336    0.572
        36  -9.9789    121.4145     11.5546   3.5465305775e+02   5.3190959779e+01    0.3741107    0.2223715 -86.61  0.001870784    1.691    0.409
        37 -11.4945    211.9039      9.5870   3.4624555967e+02   3.3110338257e+01    0.3856896    0.2846716  -7.20  0.001262701    2.111    0.526
        38  -9.5187     98.9506     11.1359   3.5818384363e+02   5.8804105474e+01    0.2302164    0.1926147 -34.86  0.001379312    1.312    0.238
        39 -11.2949     63.7674      9.9266   6.5729462266e+00   6.7424974536e+01    0.4460708    0.2211228  52.44  0.001326565    1.751    0.429
        40 -10.3826     61.9864      6.4903   5.2604237685e+00   6.8194767486e+01    0.3044826     0.213937  53.45  0.001352354    1.247    0.198
        41 -10.6252    168.6469      9.5324   3.4902425005e+02   4.2175073168e+01    0.3574661    0.1874755  65.59  0.001502337    1.927    0.481
        42  -8.8592    144.7027      9.7367   3.5123954087e+02   4.7708466426e+01    0.1186295   0.09200875  51.83  0.000301874    1.510    0.338
        43 -10.1411      1.3018      7.5868   4.6086275266e+01   7.8804387195e+01    0.3488384    0.1015262 -55.29  0.001410274    3.319    0.699
        44 -10.2876      1.9316      1.9425   4.1523155216e+01   7.9759780949e+01    0.2168266    0.1614533 -17.32 0.0009556143    1.233    0.189
        45 -10.3096    185.5658      6.9706   3.4715613973e+02   3.8730458201e+01    0.2127946    0.1501749  66.90 0.0009795267    1.583    0.368
        46  -9.5169    154.0259      6.6429   3.4941958586e+02   4.5811985710e+01    0.1794126    0.1328351  88.28 0.0003881923    1.198    0.166
        47  -9.6576     77.9592      7.2064   1.0064607083e+00   6.4340337957e+01     0.201078    0.1634759 -84.70 0.0007146363    1.280    0.219
        48  -9.7875     70.6059      5.2201   1.9400597245e+00   6.6294417895e+01    0.2875866    0.2012605  58.57  0.001617587    1.245    0.197
        49  -9.5429     74.5836      3.0000   3.5973742442e+02   6.5542433773e+01    0.3662253    0.1619002  70.66  0.001606353    2.117    0.528
        50 -11.1289     40.5213      3.9933   1.2503303465e+01   7.3180239981e+01    0.3507947    0.2827906  35.34  0.001395382    1.120    0.107
        51  -9.1893    148.7538      5.4068   3.4951922182e+02   4.7167189394e+01    0.1760305    0.1033385  68.37 0.0009463694    1.620    0.383
        52 -10.2657    128.9255      4.3466   3.5117844642e+02   5.2031381478e+01    0.3428761     0.159148 -30.74            0    2.175    0.540
        53 -11.0047    133.9996      2.3962   3.4998040719e+02   5.0971836157e+01    0.4613618    0.2336409  78.30  0.001286914    1.755    0.430
        54 -10.5431    223.5776      2.4195   3.4415198291e+02   3.1634514248e+01    0.1949953    0.1705192 -57.10 0.0006726471    1.280    0.219
        55 -10.7830    218.7684      2.7906   3.4443554020e+02   3.2492613347e+01    0.2609425    0.2051818 -54.84  0.001967243    1.128    0.113
        56  -9.8181     30.0891      3.6325   1.8140656136e+01   7.5285735789e+01    0.3093191    0.1474492 -50.03  0.001286009    3.491    0.714
        57  -9.1068     33.5571      1.9653   1.4811864126e+01   7.4816246533e+01     0.234206    0.1507356   0.42 0.0006478317    2.011    0.503
        58 -11.3224    206.8324      2.1115   3.4483073560e+02   3.4855856296e+01     0.519469    0.1925674  88.37  0.002557943    2.733    0.634
        59  -8.8381    122.3634      4.7223   3.5208262459e+02   5.3606466978e+01    0.1547046    0.1261676 -14.01 0.0006609731    1.515    0.340
        60 -11.1353    113.5599      2.0993   3.5224201157e+02   5.6009640741e+01    0.4287521    0.2184918  82.36 0.0008233616    1.816    0.449
        61 -10.2189    105.5199      2.1006   3.5336678869e+02   5.8003143129e+01    0.2841735    0.1743836 -63.75  0.001007459    1.695    0.410
        62  -9.2024    185.9759      1.4589   3.4576062079e+02   3.9184082646e+01    0.1630775    0.1014395  85.80 0.0003669107    1.492    0.330
        63  -9.6650    152.6921      1.3834   3.4798046519e+02   4.6615481219e+01    0.2177502    0.1053974  85.60 0.0006536034    1.893    0.472
        64  -9.0217     82.0746      1.0000   3.5702422899e+02   6.3891129281e+01    0.2100758   0.06580467  69.54 0.0005160175    2.781    0.640
        65  -9.5676     49.1628    122.3349   5.2544598278e+01   4.5815249048e+01    0.2750298    0.1903789   4.22  0.001213748    1.795    0.443
        66 -10.3188     43.7121    117.3670   5.3777243962e+01   4.7864602379e+01    0.5773231    0.2694511 -78.44  0.002053189    2.555    0.609
        67  -8.5059    218.2939    116.3009   8.8613035102e+00   1.7334897560e+01    0.1177219   0.08801006 -14.69 0.0002475162    1.571    0.363
        68 -10.4935      7.7150    114.3183   6.8055646740e+01   5.1974808464e+01    0.4071999    0.2464973 -53.29 0.0008608236    1.597    0.374
        69 -11.9792      2.7496    111.5626   6.9867855584e+01   5.3018602494e+01    0.5046259     0.366471 -89.34  0.001237802    1.277    0.217
        70 -11.3822      3.9388    104.8348   6.8736341749e+01   5.4827903394e+01     0.526121    0.3647383  45.22  0.002691787    1.491    0.329
        71  -9.9814     78.8233    114.7386   4.0108871273e+01   4.3401764317e+01    0.3160404    0.2639151 -28.08 0.0008855713    1.358    0.264
        72  -9.0665     58.6642    115.3006   4.7572236444e+01   4.6445625995e+01    0.1635098    0.1141728  63.63 0.0007035082    1.659    0.397
        73 -10.9809     35.5024    102.7712   5.4504041847e+01   5.2847841948e+01     0.649833    0.3112059   4.35  0.001567903    3.230    0.690
        74 -11.1458      9.7508     96.9939   6.5223996439e+01   5.6672606016e+01     1.235234    0.6750714 -33.59  0.005407846    2.033    0.508
        75 -10.9148     36.2478     92.2592   5.2026520924e+01   5.5622637208e+01    0.8384982    0.4982372 -21.84  0.003165941    2.301    0.565
        76 -11.7356     28.6335     85.3783   5.4146504589e+01   5.8300439324e+01      1.44546    0.5112818  21.65  0.004723434    2.965    0.663
        77 -11.7759     22.6204     94.8124   5.8873354399e+01   5.6316087700e+01    0.7183939    0.6833336  34.13  0.002525018    1.105    0.095
        78 -10.7317     15.9636    108.3576   6.3899998281e+01   5.3092682519e+01    0.4528176    0.4252393  16.01  0.002096609    1.150    0.130
        79 -11.3981     17.7774    101.1998   6.2121605244e+01   5.4950630943e+01    0.5908874    0.4951374  75.80  0.001215751    1.211    0.175
        80 -12.2426     25.3103    113.2206   6.0595490293e+01   5.0965207534e+01     1.282773    0.4609388  10.00  0.003691157    3.880    0.742
        81 -12.2670     26.2352    106.6634   5.9211566836e+01   5.2712432587e+01    0.7642051    0.4359308 -57.91  0.001887837    1.622    0.383
        82  -8.7460    171.2042    112.9504   1.5560682144e+01   2.6029421145e+01    0.1863484    0.1005341 -43.28 0.0004168159    1.655    0.396
        83 -10.0027    249.4088    111.7899   4.2409993850e+00   1.3470350731e+01    0.1689704   0.08592782 -31.49 0.0009545437    1.701    0.412
        84 -10.0971     49.0001    111.7891   5.0627798458e+01   4.8734774116e+01    0.2702852    0.2442596  31.88 0.0005687944    1.137    0.120
        85 -10.6399    104.6195    108.7088   3.0287190582e+01   4.0120010866e+01    0.4845252    0.4414987 -15.69  0.002514313    1.237    0.192
        86  -9.1698     75.7004    111.2926   4.0396942919e+01   4.4822810103e+01    0.2373472     0.182523  49.06 0.0003793796    1.329    0.248
        87 -11.4051     79.9098    107.9068   3.8090581183e+01   4.4959950697e+01    0.5257015    0.3779386  20.77  0.001390493    1.641    0.391
        88  -9.9580     58.5705    109.6517   4.6403995771e+01   4.7979454599e+01     0.267584    0.2414963  68.18 0.0004506583    1.136    0.120
        89  -9.8722    139.9122    106.6225   2.0474558410e+01   3.3437238519e+01    0.2440669      0.19847 -29.76 0.0004413743    1.330    0.248
        90  -9.4482    143.4902    105.9891   1.9505299954e+01   3.2837743691e+01    0.2977827    0.1899413  77.93  0.001186165    2.589    0.614
        91  -9.7092    181.0756    105.3112   1.2058698570e+01   2.5572248834e+01    0.3248477    0.1866555 -26.59  0.001455549    2.156    0.536
        92  -9.4092    175.6323    106.3704   1.3235978069e+01   2.6407988813e+01    0.2049099    0.1519511 -69.78 0.0007125135    1.594    0.373
        93 -10.2428     91.3520    102.5573   3.2831122954e+01   4.4171268302e+01    0.4142373    0.3408748 -26.37  0.002004825    1.413    0.292
        94  -9.6390     47.1419    102.4871   4.9462073440e+01   5.1509410004e+01    0.4612947    0.2419463 -47.74  0.001850535    1.926    0.481
        95 -10.4771     50.9443    100.2562   4.7371690818e+01   5.1591075857e+01    0.6347324    0.2680435 -50.33  0.002305347    2.300    0.565
        96  -9.7966     85.9961    103.3146   3.4819911704e+01   4.5001124072e+01     0.217867    0.1995942  40.35  0.000426255    1.110    0.099
        97  -8.9748    120.5330    100.9806   2.3779619764e+01   3.8642469028e+01    0.2319212    0.1458931 -45.81  0.001013334    1.547    0.354
        98 -12.0243     68.3955     95.3839   3.9112179553e+01   5.0138710037e+01    0.5585641    0.4384291  16.10  0.000625489    1.475    0.322
        99 -11.4875     78.8958     93.4843   3.4654448695e+01   4.8732628413e+01    0.9199823    0.7044288 -46.87  0.004407688    1.313    0.238
       100  -9.8785     81.6081     83.4083   3.0725671681e+01   5.0603081222e+01    0.5245738    0.2688052  31.17  0.001934775    2.420    0.587
       101 -10.2780     72.1582     83.9221   3.4405031096e+01   5.2287460394e+01    0.2560471    0.2328835 -49.33 0.0004577661    1.100    0.091
       102 -11.2180     74.6684     78.9434   3.1906926232e+01   5.2982808969e+01    0.6437497    0.4126494  58.62  0.001535791    1.859    0.462
       103  -9.9062     76.0071     75.2275   3.0205870138e+01   5.3568919467e+01    0.3583333    0.2673816  56.10   0.00126781    1.422    0.297
       104  -9.8328    135.7379     99.5086   1.9607758766e+01   3.5769247774e+01     0.381965    0.2235923  41.28  0.001419051    1.903    0.475
       105  -9.2958    166.9670     98.9698   1.3015535264e+01   2.9449483442e+01    0.2155411    0.1726471  -6.39  0.001057974    1.673    0.402
       106  -9.8093    156.7570     98.9935   1.4956854468e+01   3.1507145326e+01    0.2210385    0.2041197  81.58 0.0004551006    1.143    0.125
       107 -10.0488    210.4321     98.0266   6.0833321424e+00   2.1525786937e+01     0.195206    0.1822404 -82.36 0.0003086679    1.227    0.185
       108  -9.5074     67.0053    113.3557   4.4025731036e+01   4.5705936172e+01     0.435453    0.2051676 -69.36  0.001506958    2.581    0.612
       109  -9.2586     59.6515     97.1393   4.3034845232e+01   5.1121266525e+01    0.2872382    0.1825869  18.45 0.0006201846    1.894    0.472
       110 -10.1898     42.9180     94.3546   4.9478372487e+01   5.4245467807e+01    0.3247183     0.318895   4.63  0.001348703    1.055    0.052
       111  -9.0700     43.5764     90.5244   4.8284862525e+01   5.5177229562e+01     0.202829    0.1794673 -48.36 8.745465e-05    1.110    0.099
       112  -9.6157    125.6805     93.8661   2.0522295007e+01   3.9071876880e+01     0.251875    0.2016939  64.38 0.0004877054    1.328    0.247
       113 -10.0038    121.9947     93.5161   2.1362802955e+01   3.9934703066e+01    0.2773999      0.19753 -56.22 0.0007692762    1.415    0.293
       114  -9.9942     50.5243     91.3368   4.5405545114e+01   5.4005661479e+01    0.3943997     0.242326  22.60  0.001695854    1.791    0.442
       115 -10.2373     52.1276     87.3916   4.3681015179e+01   5.4790226208e+01     0.344681    0.2526433 -58.49 0.0008247491    1.336    0.251
       116  -9.6017    154.2436     90.7768   1.3351235116e+01   3.3580164306e+01    0.3020701    0.2141675   6.13  0.001302876    2.553    0.608
       117 -11.0142     98.2703     90.6749   2.7306721077e+01   4.5571481554e+01    0.2832034    0.2625037  59.46 0.0003680872    1.079    0.073
       118 -11.6168      6.3964     88.1913   6.5679007164e+01   5.9282963677e+01    0.7236227    0.3862026  17.99  0.003289437    1.977    0.494
       119 -10.6224      2.2922     80.7917   6.6780807510e+01   6.1490625342e+01    0.6297308    0.3524591  85.68  0.002207527    1.911    0.477
       120 -11.0697      2.0844     71.0625   6.5502833863e+01   6.4086098411e+01    0.5017201    0.2208146 -68.69  0.001967686    1.976    0.494
       121 -13.3613      6.1167     60.9795   6.1308900252e+01   6.6490420486e+01       0.8641    0.5229324 -22.86  0.001628134    1.744    0.427
       122  -9.9604     66.7957     88.5165   3.7852966660e+01   5.2131491758e+01    0.3149531    0.2406958 -20.75 0.0007408796    1.639    0.390
       123  -9.5086    183.4103     87.6215   7.5254543024e+00   2.8188728405e+01    0.2871536   0.08778925 -49.05 0.0009569477    3.416    0.707
       124 -10.1274    118.9652     85.7224   1.9933433656e+01   4.2215217729e+01    0.4060902    0.3275349   2.56  0.001314436    1.745    0.427
       125  -9.8056    119.8773     79.5310   1.7871481311e+01   4.3264630869e+01    0.4768824    0.2514381 -64.38  0.001659449    2.972    0.664
       126  -9.8200     90.4020     85.4353   2.8298226572e+01   4.8374033264e+01    0.3746736    0.2662171  79.58  0.001600635    1.953    0.488
       127 -11.3170     44.8048     84.0466   4.6091718267e+01   5.6702209418e+01    0.5921413    0.4619311  87.21  0.001836283    1.506    0.336
       128  -9.2871     38.3326     77.6638   4.7482953680e+01   5.9199116878e+01    0.2746418    0.1255928  38.51  0.001048162    2.202    0.546
       129 -12.4276     61.0091     83.4526   3.8763397645e+01   5.4369556379e+01     0.307106    0.2904103 -73.48 0.0003498037    1.070    0.065
       130 -10.7177     58.3157     76.6764   3.7877922559e+01   5.6471245581e+01    0.6584987     0.281138 -43.48  0.002348596    2.562    0.610
       131  -9.6179    250.2986     84.3478   3.5893436489e+02   1.7180542931e+01    0.1063091   0.07890117 -17.32 0.0007036098    1.682    0.406
       132 -10.0581    143.4112     84.1304   1.3764798765e+01   3.7153499760e+01    0.2451951    0.2077335  71.49 0.0004924883    1.228    0.186
       133 -10.2683    113.2632     82.8979   2.0619993128e+01   4.4049351607e+01    0.3895433    0.3087507  74.66  0.001723557    1.403    0.287
       134  -9.5816    104.6312     86.8564   2.4250541570e+01   4.5081268237e+01    0.2590625    0.2128478  33.15 0.0006591831    1.351    0.260
       135 -10.1868     67.5318     81.3338   3.5447515796e+01   5.3748823373e+01    0.3572517    0.2823967  11.46  0.001259337    1.528    0.346
       136  -8.9305    196.4179     81.2249   4.1752490967e+00   2.6719195070e+01    0.1838101    0.1015557 -47.63 0.0003747728    1.542    0.351
       137  -9.4032    103.1232     79.3792   2.2429956914e+01   4.7003415136e+01    0.3173287     0.183521 -46.99 0.0007594455    1.718    0.418
       138  -9.8099    103.3933     74.3979   2.0780212927e+01   4.7973070019e+01    0.2991512    0.2605935 -87.41  0.001553923    1.214    0.176
       139 -10.6230     89.1771     77.0954   2.6112894457e+01   5.0477511888e+01    0.5362606     0.305269  50.13  0.001890004    1.784    0.439
       140 -10.2480     94.2229     75.5830   2.3970647977e+01   4.9730558466e+01    0.4773078    0.3041648 -61.23   0.00175931    1.820    0.450
       141 -11.0777     53.0860     76.4345   4.0130216364e+01   5.7385677177e+01    0.6675521    0.4671635  64.84  0.003006897    1.837    0.456
       142  -8.0602     47.0922     75.2134   4.2542835698e+01   5.8605450914e+01    0.5343267     0.265197 -42.28  0.002093768    2.186    0.543
       143 -11.0335     14.1321     74.4189   5.9378671569e+01   6.2489465593e+01     0.556019    0.3491958 -85.91  0.002068795    1.746    0.427
       144  -9.2466     11.4991     67.6568   5.9480529294e+01   6.4440245373e+01    0.2944864    0.2056877   2.24  0.000768221    1.530    0.346
       145  -8.2610     15.9489     67.2046   5.6807907479e+01   6.4225288365e+01    0.2473929    0.1816629  19.99 0.0008284666    1.411    0.291
       146 -11.1707    247.6819     74.7669   3.5731082748e+02   1.8870634475e+01    0.2625152    0.1626969 -58.49   0.00170942    1.509    0.337
       147  -8.7351    158.6905     75.7457   8.5528758461e+00   3.5327642155e+01    0.1275761    0.1109388  19.63 0.0002200432    1.518    0.341
       148  -8.7063    112.6222     75.2674   1.8465630408e+01   4.5737156056e+01    0.1554189    0.1153363  88.72 0.0006990473    1.682    0.405
       149 -11.6763     27.6116     73.2310   5.1814856164e+01   6.1590228190e+01    0.5096485     0.345356  18.46 0.0002862024    1.544    0.352
       150 -10.5596     34.3812     71.3154   4.7733987231e+01   6.1301575628e+01    0.4946423    0.2338247  36.06  0.001677793    2.106    0.525
       151 -10.2140     40.8038     72.9440   4.4929398314e+01   6.0061886501e+01    0.3155279    0.2568004   4.87  0.000725367    1.343    0.255
       152 -10.4820     40.3462     68.7279   4.3892091986e+01   6.1162445075e+01    0.3299087     0.286211  17.51  0.001049064    1.177    0.151
       153 -11.5834     39.6298     56.5767   4.0208633688e+01   6.4129677146e+01    0.5257658    0.2570922  32.42 0.0006758613    2.022    0.505
       154 -11.6470     43.4762     60.9844   3.9744867144e+01   6.2547596828e+01    0.5004342    0.2674155 -55.37 0.0009690066    1.883    0.469
       155 -11.8571     46.4533     59.4916   3.7698685730e+01   6.2426429642e+01    0.7889101     0.397262  38.51  0.002823905    1.956    0.489
       156  -9.6654    238.6802     74.3345   3.5802447035e+02   2.0337369510e+01    0.1231369   0.06859784 -57.18 0.0007049364    1.701    0.412
       157  -9.9440    152.1996     72.8717   8.9343186732e+00   3.7247904954e+01    0.4040796    0.1859588  46.32  0.001608083    2.596    0.615
       158  -9.8061     81.4697     70.7724   2.6708139727e+01   5.3445862853e+01    0.6206691    0.4695413  38.33  0.002563474    1.356    0.263
       159 -11.9814    122.8701     68.5081   1.3766504244e+01   4.4690741809e+01    0.4591498    0.3174018  51.32  0.002027212    1.477    0.323
       160 -10.2737    219.6323     67.1350   3.5834195997e+02   2.4550801447e+01    0.3448378    0.1586525  67.35  0.001762423    2.647    0.622
       161 -10.6069    106.5305     58.2644   1.4525690516e+01   5.0342710770e+01    0.3258559    0.2655872 -81.38 0.0003221866    1.334    0.250
       162 -10.8830    101.9714     66.9159   1.8746341021e+01   4.9778428401e+01    0.2569182    0.2395054  77.73 0.0003465818    1.044    0.042
       163 -10.5464    105.3939     63.4101   1.6593652183e+01   4.9666069597e+01    0.4399458    0.3082831  32.95  0.001799836    1.783    0.439
       164 -10.5625    201.6884     63.6939   3.5946464348e+02   2.8364283044e+01    0.2988177    0.2086237 -28.20  0.001727277    1.556    0.357
       165 -10.1214     58.5186     62.0490   3.2875782078e+01   5.9805008623e+01     0.405449    0.2850114 -58.25  0.001943027    1.531    0.347
       166 -10.4446     92.5894     62.5328   2.0089605098e+01   5.2735374041e+01    0.3546228     0.256326  72.59 0.0009095346    1.632    0.387
       167  -9.8510    159.9623     62.2352   4.6700672505e+00   3.7284984708e+01    0.3646598    0.1715794  49.55  0.001538445    2.472    0.596
       168  -9.7651     64.3732     60.8179   2.9865661243e+01   5.8982313023e+01    0.3841368    0.2947483 -51.04  0.001937178    1.336    0.252
       169  -9.7888    150.8402     60.8272   5.7856635999e+00   3.9564811713e+01    0.2306731    0.2150693 -61.27 0.0005439763    1.089    0.082
       170 -10.9678    118.2399     56.3100   1.0929870690e+01   4.7927711876e+01    0.9196789    0.4934669 -70.29  0.003173687    3.374    0.704
       171 -10.6749    109.8158     39.6794   7.0777763003e+00   5.2588151277e+01    0.6178324    0.4034157 -18.56  0.001986209    2.067    0.516
       172 -10.3930    124.4891     56.8976   9.7084483739e+00   4.6349739746e+01    0.3764224    0.2580117 -33.25 0.0006506912    1.581    0.367
       173 -10.7745    126.0578     52.9181   8.0810120508e+00   4.6630876158e+01    0.4608507    0.2471479 -26.32  0.001386374    2.447    0.591
       174 -10.0884    243.2424    249.2565   2.7607732646e+01  -4.4256771356e+00    0.1389071   0.06967311 -42.53  0.000897399    2.428    0.588
       175 -10.2115    112.4893     50.4930   1.0312989264e+01   5.0263564282e+01    0.3190633    0.2568686  79.56  0.001339641    1.251    0.201
       176 -11.7562    116.9406     45.2605   7.4676563190e+00   5.0023337830e+01    0.7399722    0.5446525 -40.18  0.003114722    1.385    0.278
       177  -9.7104    113.5490     60.4462   1.3444012609e+01   4.8314100394e+01    0.2624939    0.2473395 -69.15   0.00107429    1.042    0.041
       178  -9.5419     84.3814     60.9830   2.2248387637e+01   5.4844295169e+01    0.2875919    0.2046537  64.87 0.0008721708    1.573    0.364
       179 -10.0691     87.9976     55.9741   1.9194201874e+01   5.5007683595e+01    0.6384388    0.2299484 -36.39   0.00204311    3.338    0.700
       180  -9.7670     88.1801     49.1056   1.6528503806e+01   5.6205022184e+01    0.3243219    0.2313409 -15.28  0.001497795    1.956    0.489
       181 -10.2981     82.0266     47.9520   1.8098844275e+01   5.7799164485e+01     1.161872    0.7941008   9.90  0.004899398    2.510    0.602
       182 -10.9069     73.5089     49.4885   2.1781215784e+01   5.9385932941e+01    0.2970658    0.2775948 -59.98 0.0007810303    1.118    0.106
       183 -11.0432     72.3433     45.6011   2.0627361251e+01   6.0343745672e+01     0.288691    0.2417241 -54.08 0.0005771118    1.276    0.216
       184 -10.3450     26.0233     59.4942   4.8865693451e+01   6.5194098610e+01    0.6525901    0.2588058  27.57  0.002561404    2.458    0.593
       185 -11.1972     23.9951     56.3477   4.9093856728e+01   6.6173552238e+01    0.6178374     0.381056   9.53  0.002925996    1.803    0.445
       186  -9.1814    136.5999     59.7389   8.0852547147e+00   4.3029107707e+01    0.2496264    0.1223356  61.63 0.0009358453    2.084    0.520
       187  -8.9358    222.6729     57.3583   3.5594643900e+02   2.5355563922e+01    0.1318916   0.06921141 -58.35 0.0007043754    1.783    0.439
       188  -9.3694     33.3323     56.8589   4.3794280027e+01   6.4938522225e+01    0.2380572    0.1750901  36.00 0.0006657694    1.381    0.276
       189 -10.8160     32.2082     52.5202   4.2906953114e+01   6.6086175133e+01    0.4895617    0.2846595  14.15  0.001512701    2.041    0.510
       190 -10.4213    156.9065     54.2868   2.9340192643e+00   3.9206677286e+01    0.4412917    0.2766561 -65.06  0.002156899    1.691    0.409
       191 -10.3454    155.0546     48.7864   1.6482336567e+00   4.0448937093e+01    0.4015916    0.2380682 -18.72  0.001306669    2.506    0.601
       192  -9.0090     91.3491     56.6943   1.8384155558e+01   5.4120387177e+01    0.1533009    0.1147886 -87.09 0.0007042137    1.702    0.413
       193  -9.9990      2.4625     54.7987   6.2347673766e+01   6.8241436064e+01    0.2894632     0.180213 -42.56 0.0006527675    1.464    0.317
       194  -9.2083     66.5278     53.1873   2.6036426820e+01   6.0125781251e+01    0.4669566     0.134265 -52.26  0.001245222    5.070    0.803
       195  -9.1041    187.5626     54.2316   3.5880718835e+02   3.2548322596e+01    0.1729024    0.1173882 -28.81 0.0009434016    1.606    0.377
       196  -9.6229     52.4368     48.0583   3.0269269730e+01   6.3850690048e+01    0.2954353    0.2164144 -14.17 0.0008261484    1.760    0.432
       197 -10.2443     61.5037     46.9732   2.5631526728e+01   6.2336555694e+01    0.4136309     0.234095 -33.46  0.001669876    2.074    0.518
       198 -10.4816     60.5856     51.7424   2.8004148025e+01   6.1584332356e+01    0.4251393    0.2576365 -48.92  0.001640296    1.720    0.419
       199  -9.4682     52.3501     52.3273   3.2055771852e+01   6.2991755405e+01    0.2192799    0.1452327  33.35 0.0006282256    1.515    0.340
       200 -10.8645     56.0951     49.7073   2.9213769084e+01   6.2845276785e+01    0.5172516    0.2919327  24.17 0.0009135864    2.439    0.590
       201 -10.9384    244.5660     51.4491   3.5296878627e+02   2.2397436139e+01    0.3854324    0.1563909 -68.59  0.001680116    3.878    0.742
       202  -9.6951    202.1347     52.5351   3.5681923893e+02   2.9851126069e+01    0.2123216    0.1919991  -6.33  0.001094855    1.507    0.337
       203 -10.8914    152.9875     35.6486   3.5811470617e+02   4.2751717464e+01    0.3509043    0.2432719  82.73 0.0006470967    1.402    0.287
       204 -11.1487    144.9726     41.9027   1.1561895429e+00   4.3786922949e+01    0.6174884    0.2064239 -38.85  0.002356846    2.669    0.625
       205 -12.3899     41.1153     44.5813   3.4672670094e+01   6.6502463903e+01     1.342266    0.5062947  38.04  0.003266655    2.557    0.609
       206 -10.5127     20.6909     45.4948   4.7524751986e+01   6.9064604538e+01    0.4432024    0.2476472 -39.31  0.001238569    1.792    0.442
       207 -10.6607     13.8845     45.8528   5.2254377352e+01   6.9641928970e+01    0.5803802    0.2221378 -36.77  0.002152831    3.010    0.668
       208 -11.1350     18.2501     40.3919   4.7283543734e+01   7.0470101740e+01    0.3411136    0.2186705 -35.48  0.001752849    1.546    0.353
       209 -10.9069     26.4909     42.6557   4.2635616915e+01   6.9020107470e+01     0.398042    0.3127069  61.81 0.0008856864    1.645    0.392
       210 -10.2062     22.5895     37.0156   4.2888176300e+01   7.0713592526e+01    0.5392106    0.1867798  37.49  0.002061324    2.905    0.656
       211  -9.4596    175.1582     49.1679   3.5900672685e+02   3.5896678418e+01    0.1928027    0.1362827 -69.62  0.001074035    1.355    0.262
       212  -9.6004    132.7616     47.1973   4.9034602202e+00   4.5922289300e+01    0.3538186    0.1938518 -57.69  0.001236101    2.016    0.504
       213  -9.5580      2.0713     46.9093   6.0838580618e+01   7.0202166176e+01    0.4506363    0.1901985 -63.40  0.001996241    2.055    0.513
       214  -8.9584    161.5711     46.7824   1.4054311805e-01   3.9250759840e+01    0.1897831    0.1092088 -48.19 0.0009312888    1.560    0.359
       215  -9.7662    199.6578     44.4841   3.5516990554e+02   3.1423343759e+01    0.3354991    0.1600092 -89.91  0.001530453    2.792    0.642
       216 -10.2738    138.5413     44.4447   2.9957510900e+00   4.4950159523e+01    0.3258194    0.2080022  29.06  0.001408496    2.654    0.623
       217 -11.6989     75.7400     55.5058   2.3309935142e+01   5.7769004786e+01    0.7559989    0.3582545 -49.99  0.002533913    2.292    0.564
       218  -9.9493    155.8517     42.2441   3.5964661829e+02   4.1196432686e+01    0.2684284    0.2165924 -27.36 0.0009790852    1.424    0.298
       219 -10.5882     56.8400     41.7235   2.5442279514e+01   6.4240692906e+01    0.2910303    0.2267813  51.28 0.0004087448    1.291    0.226
       220 -10.9075      3.7130     36.6853   5.6784908207e+01   7.2524796041e+01     0.547771     0.390673 -62.62  0.003106909    1.365    0.268
       221 -10.5125      9.5520     29.8886   4.9633610387e+01   7.3601897326e+01    0.4777682    0.3369365   9.69  0.002725661    1.387    0.279
       222 -11.5333     79.2003     35.4078   1.3821069087e+01   6.0514103489e+01    0.6984282    0.5075291 -39.07  0.002926349    1.457    0.314
       223 -10.7779    249.4821     38.6416   3.5013073120e+02   2.3162755063e+01    0.2428821    0.1428301 -54.29 0.0005710713    1.282    0.220
       224  -8.8037    207.0033     37.9504   3.5299191770e+02   3.0812576031e+01    0.1445345    0.1125701 -57.24 0.0003275363    1.002    0.002
       225 -10.0651     60.5073     36.9304   2.1620930348e+01   6.4356614587e+01    0.2903427    0.2351011 -51.33 0.0007600962    1.356    0.263
       226 -10.9896     63.5849     33.3497   1.8646821408e+01   6.4305961094e+01    0.9454425    0.2502531  47.14  0.003030933    3.494    0.714
       227 -10.1941    228.2266     36.8251   3.5113429289e+02   2.6989174777e+01     0.372223    0.1665064  59.99  0.002022293    2.759    0.638
       228  -9.3905    188.3494     37.2923   3.5451245505e+02   3.4673856459e+01    0.1139923   0.09703824  35.65 0.0001958003    1.671    0.402
       229  -9.4742     99.9446     36.3066   8.1783129948e+00   5.5473841308e+01    0.2006991    0.1771538  66.06 0.0006382976    1.066    0.062
       230 -10.9416    126.0093    240.4149   4.7753971823e+01   8.2289769239e+00    0.2231819    0.1896496 -63.81  0.001512029    1.555    0.357
       231 -10.3478    131.9518    240.5044   4.6491346832e+01   7.5462909499e+00    0.1877585    0.1011841  24.59 0.0008139457    1.569    0.363
       232 -10.7364    175.8252     34.4786   3.5506056370e+02   3.7721333879e+01    0.7991526    0.3707941 -42.93  0.003147924    1.818    0.450
       233  -9.5646    150.4871    237.5034   4.2252356410e+01   5.9701652368e+00    0.1196592   0.09725769   6.53 0.0001163057    1.016    0.015
       234 -11.2153    149.3410     22.5781   3.5466811468e+02   4.5224428794e+01    0.8062139    0.2491354  71.33  0.003047173    3.075    0.675
       235 -10.5738    157.1518     29.1383   3.5568075692e+02   4.2609534523e+01    0.3276966    0.2148473 -60.69 0.0008319517    1.399    0.285
       236 -12.6703    165.0579     27.4176   3.5429440059e+02   4.1002623696e+01    0.4189171     0.278099  84.42  0.001920472    1.445    0.308
       237 -10.4643    169.4072     22.9894   3.5262812804e+02   4.0542461999e+01    0.2266975    0.1792175  88.74 0.0003101462    1.184    0.155
       238  -8.8666    177.4765    236.4787   3.6825335292e+01   3.2161233081e+00    0.1148763   0.09087661  -0.51 3.014152e-05    1.032    0.031
       239 -11.5279    107.0494     31.5418   4.6610113382e+00   5.4409274256e+01    0.5467322    0.3507171  30.37  0.001840862    2.243    0.554
       240  -8.8262    199.6905    234.6661   3.2555026772e+01   1.2208693149e+00    0.1171874   0.06744747 -11.14 0.0007042774    1.675    0.403
       241  -8.9659     15.4147    233.8024   7.2859868869e+01   2.1093818969e+01    0.1478194    0.1084736 -70.14 0.0005539266    1.583    0.368
       242 -10.8009    240.2348     32.4340   3.4946002280e+02   2.5422710922e+01    0.2244146    0.2046844 -57.09  0.001349314    1.327    0.246
       243  -9.1179    216.8277     31.8292   3.5085845828e+02   2.9679501423e+01     0.166385    0.1032809 -57.60 0.0003504788    1.288    0.224
       244 -10.3433     46.6482     23.7608   2.1508538368e+01   6.9294640928e+01     0.378651    0.2747677  21.22  0.001005495    1.544    0.353
       245  -9.7921     46.8149     19.9911   1.9319408342e+01   6.9830823118e+01    0.2654093    0.1907486  50.29 0.0007700389    1.327    0.246
       246 -10.6772    247.4119    230.6797   2.4410420638e+01  -2.5808882629e+00    0.1822363    0.1062212  14.40 0.0008855943    1.630    0.387
       247 -11.3865     48.2649     30.3991   2.4190117579e+01   6.7903879021e+01    0.7628049    0.3653585  42.40  0.002501853    1.972    0.493
       248  -8.7642     23.5144    231.4979   7.0852405599e+01   2.0870459343e+01    0.1252152    0.1004328  45.77 3.453578e-05    1.006    0.006
       249  -8.8175    189.7433    229.6396   3.3603049407e+01   2.9400757813e+00    0.1179355   0.07013708 -15.19 0.0002876084    1.622    0.383
       250 -10.7683    248.1236    225.0908   2.3500435661e+01  -1.9622824810e+00    0.1694924    0.1018528 -14.26  0.001244912    1.298    0.229
       251  -9.7463     10.3850    217.8209   7.3461812991e+01   2.4946483870e+01    0.1640183    0.1088201 -71.95 0.0009481495    1.651    0.394
       252 -10.3454    247.9917    206.3137   2.0705957895e+01   4.1338513154e-01    0.2323939   0.09575187 -21.80  0.001185156    2.723    0.633
       253  -8.3707    123.7496    206.2547   4.3860804226e+01   1.4796134925e+01    0.1180218   0.09757882  52.49 0.0006754754    1.422    0.297
       254 -10.5513    238.0661    204.0208   2.1776965746e+01   1.6549496250e+00    0.1972652    0.1669331 -43.68  0.001519419    1.714    0.417
       255 -11.3094      5.7908    199.8273   7.3947261897e+01   2.9445144474e+01     0.525149    0.1459345 -72.32  0.001992838    3.405    0.706
       256  -8.7072    190.7437    203.0090   2.9379045622e+01   6.8973929104e+00    0.1480526    0.0908642 -37.75 0.0004252467    1.488    0.328
       257 -12.2347    127.1531     28.3598   3.5965914845e+02   4.9884165152e+01    0.7668548    0.3886229  77.59  0.002019806    2.061    0.515
       258 -10.7487    189.2545     27.4760   3.5198929780e+02   3.5695411388e+01     0.333115    0.2712646  28.90  0.002079165    1.879    0.468
       259 -10.8638    200.5262     26.5175   3.5084871375e+02   3.3487238172e+01    0.3756291    0.2198994 -17.45  0.001425552    2.493    0.599
       260 -11.0798    183.2144     25.9560   3.5213169264e+02   3.7159627260e+01    0.3683457    0.2068324 -46.15  0.001535682    1.480    0.324
       261 -10.9026    249.3946    196.5877   1.8994618286e+01   1.5537707867e+00    0.3145517    0.1490033 -43.47  0.001867546    2.120    0.528
       262 -11.7120    246.2302    193.1969   1.8895041729e+01   2.3131957007e+00    0.5473089    0.2230477 -22.16  0.002596858    3.098    0.677
       263 -10.4559    234.0306    196.4291   2.1169698688e+01   3.0977303731e+00    0.2111394    0.1329819 -36.94 0.0009527592    1.399    0.285
       264  -9.8142    237.6570    188.1503   1.9294864505e+01   3.8789082630e+00    0.2173254   0.08327301 -44.01  0.001086262    2.533    0.605
       265 -11.5327      6.4650    185.8497   7.3185841332e+01   3.2795442386e+01    0.3999269    0.2667036  46.68  0.001652314    1.299    0.230
       266 -11.6336      3.0817    182.3001   7.3990273149e+01   3.3927504621e+01    0.5978433    0.2868779 -59.27  0.002739407    2.250    0.556
       267 -10.0316    243.4850    186.0090   1.8116051984e+01   3.5703969429e+00    0.1705502   0.08379173 -36.57  0.001031696    1.591    0.371
       268 -10.8718    230.0548     26.6561   3.4888759411e+02   2.7861995848e+01    0.2129461    0.1922857  60.32 0.0009743472    1.566    0.361
       269  -9.6676     97.1179     25.8788   4.6987128314e+00   5.7582578403e+01    0.2496209    0.1878767  68.37  0.001182036    1.227    0.185
       270 -10.0069    206.1419     25.2303   3.5013552181e+02   3.2517230797e+01    0.1926464    0.1488833 -59.86 0.0003934903    1.013    0.012
       271  -8.4891    139.6876    182.6888   3.6478742185e+01   1.7335625245e+01    0.1409663    0.0998766 -13.29 0.0004792967    1.630    0.386
       272 -11.3559    249.3334    174.9346   1.5488837674e+01   4.4906499811e+00     0.386328    0.1989193 -39.74  0.002414142    1.586    0.370
       273  -9.6457     50.9711    170.5084   5.8789819855e+01   3.2538705191e+01    0.3053596    0.1918057  87.49  0.001163612    1.791    0.442
       274  -8.9458    242.2187    177.4084   1.6868316276e+01   4.9052313566e+00    0.1246715    0.1046834  35.74 0.0009461146    1.662    0.398
       275 -10.6129     68.7458     20.2935   1.0305339995e+01   6.5052928720e+01    0.3782301    0.2988124 -42.73  0.001647494    1.382    0.277
       276  -9.7162     53.4432     21.9641   1.7256164498e+01   6.8188610862e+01    0.2614481    0.1722656  35.93 0.0009987928    1.525    0.344
       277 -11.7527      8.9785    166.3938   7.1467211409e+01   3.7600017391e+01    0.5789822    0.2710425  33.33  0.002465925    1.915    0.478
       278 -10.2805     39.1870     21.3956   2.4222398086e+01   7.1081165575e+01    0.3717786     0.212919  42.93  0.001635279    1.628    0.386
       279  -9.9176     32.3604     21.1541   2.8230085439e+01   7.2321863266e+01    0.2352301    0.2067687 -51.05 0.0004128964    1.339    0.253
       280 -12.1409     13.1753    160.1462   6.9758185537e+01   3.8948057111e+01    0.5617535    0.3869942 -34.54  0.002827417    1.767    0.434
       281  -9.4747    216.6831     19.9789   3.4826526193e+02   3.1075837659e+01    0.1668477    0.1176307 -49.59 0.0004406875    1.108    0.098
       282 -10.5941     18.2205    165.2143   6.8507279668e+01   3.7196008005e+01    0.2861753    0.2329761 -45.69  0.001021591    1.391    0.281
       283  -8.7277      1.4653     20.4612   5.2683090244e+01   7.6237190984e+01     0.126239    0.1073192 -22.56 0.0001514727    1.016    0.016
       284  -9.5732     74.9744     19.0719   7.6636397604e+00   6.3759058134e+01     0.224073    0.1491821  33.22 0.0008109719    1.739    0.425
       285  -8.4222     80.2838     18.3280   5.7422015598e+00   6.2588324609e+01    0.1364406   0.09858485  31.53 0.0002660165    1.606    0.377
       286  -9.0726    157.2874    165.6755   2.9503114873e+01   1.8110455414e+01    0.1275906    0.1098895 -88.20 0.0007008864    1.606    0.377
       287  -9.8471    205.0374    163.1523   1.9990649127e+01   1.1601898659e+01    0.2184189     0.152267 -35.67 0.0007699464    1.207    0.172
       288 -10.5171    249.0035    161.5185   1.3259566655e+01   6.4027763984e+00    0.2269262     0.118396 -28.00 0.0009378406    1.614    0.380
       289  -9.6485    214.9328    161.0863   1.8021679338e+01   1.0617949861e+01    0.1863554    0.1482514 -26.88 0.0005079919    1.007    0.007
       290  -9.1995    147.1718     16.0232   3.5291818740e+02   4.6470273764e+01    0.1886154     0.128796  57.04  0.001044234    1.589    0.371
       291  -8.5405    120.2877     16.0626   3.5644062987e+02   5.3002422613e+01    0.1950045    0.1065314   6.89 0.0007023761    4.152    0.759
       292  -9.6831    111.7365     14.9712   3.5741420105e+02   5.5236664761e+01    0.2452249    0.1557921  89.37 0.0009135251    1.584    0.369
       293  -8.7700     93.6840     15.7158   1.2146059451e+00   5.9627065730e+01    0.1363893    0.0948635  41.01 0.0002895141    1.582    0.368
       294  -9.5701    218.9544     13.0205   3.4662391091e+02   3.1405184970e+01    0.1593627    0.1371985  34.37  0.001148623    1.839    0.456
       295  -8.9985    155.7738     13.4095   3.5124419825e+02   4.4722603976e+01     0.179853    0.1045608  65.48 0.0009509941    1.700    0.412
       296 -10.5963     28.5633    160.3958   6.4812220207e+01   3.7575821747e+01    0.3287495    0.2095279  53.63  0.001452429    1.505    0.336
       297 -10.0121    223.5044    156.5012   1.5884593434e+01   1.0224504491e+01    0.1204909   0.09463403 -28.40 0.0008106817    1.001    0.001
       298  -9.7896    104.4689    154.3089   4.0358610360e+01   2.9121833755e+01    0.2908869    0.2829262 -54.26  0.001627695    1.039    0.037
       299 -10.5841      9.6394    155.0035   7.0566402187e+01   4.0591745251e+01    0.2784868     0.164985  50.76  0.001336588    1.573    0.364
       300 -12.0109     22.2202    149.4496   6.5921467909e+01   4.1121583340e+01     0.713413    0.3864425 -30.72  0.001805987    2.515    0.602
       301 -10.1640     16.6883    147.7700   6.7669592836e+01   4.2036589274e+01    0.3057936    0.2399305 -65.60  0.001131183    1.260    0.206
       302 -10.6640      4.3111    153.4400   7.2219898328e+01   4.1374479833e+01    0.3612916    0.1447576  34.20   0.00115477    2.227    0.551
       303  -9.4800    240.4414    152.2931   1.2760793867e+01   8.7347502679e+00    0.1593895   0.08687154 -42.84 0.0009428365    1.554    0.357
       304 -10.1730     45.2728    149.7592   5.8105646959e+01   3.8729266908e+01    0.4092552     0.364653 -44.76  0.002200732    1.210    0.173
       305 -10.8261    228.5509     15.4994   3.4665023729e+02   2.9372746050e+01    0.2141107    0.1475172 -58.74 6.723237e-05    1.081    0.075
       306 -10.3379     47.7208    145.1693   5.6656964764e+01   3.9698432859e+01     0.376137     0.229186  33.81  0.001198662    1.582    0.368
       307 -10.9633     10.9822    125.4815   6.7804718487e+01   4.8644439124e+01     0.707521    0.2964272 -48.20  0.002723609    2.496    0.599
       308 -11.8763      4.3909    142.2768   7.1523397156e+01   4.4406526758e+01    0.7365092    0.3828397  41.76   0.00271024    1.816    0.449
       309 -11.7038     11.6677    136.1771   6.8483894311e+01   4.5614044195e+01    0.6869997    0.3429346 -47.21  0.002340176    2.166    0.538
       310 -10.9303     14.3106    140.7328   6.7913847702e+01   4.4159510480e+01    0.3887812    0.2499143  25.85  0.001332231    1.579    0.367
       311 -10.4165    249.7288    145.4551   1.0359678265e+01   8.6034554191e+00    0.3095198   0.07586701 -35.39  0.001209014    3.512    0.715
       312 -10.9345     32.9697    143.8962   6.1623873510e+01   4.1658554834e+01     0.308767    0.2941765  80.85 0.0006538051    1.031    0.030
       313 -10.8763     40.4516    137.9584   5.8216401254e+01   4.2518512892e+01    0.4701475    0.2947361 -82.07  0.001365567    1.643    0.391
       314  -9.9805     39.7329    133.0882   5.7797873061e+01   4.3951079088e+01    0.3289913    0.2390925  -6.06 0.0005175057    1.701    0.412
       315  -9.2791    227.9236    139.9021   1.2172827504e+01   1.2218411031e+01    0.1823999    0.1306758 -58.07   0.00112677    1.729    0.422
       316 -11.0185     24.2424    136.8557   6.3959925471e+01   4.4433893199e+01    0.5944194    0.3157475 -48.60  0.002520727    1.990    0.497
       317 -10.6585     20.6374    133.8594   6.4968982202e+01   4.5577539634e+01    0.3478151    0.3061379  44.53  0.001034005    1.136    0.120
       318 -11.3047     30.0742    132.9142   6.1352655904e+01   4.4998466862e+01    0.5129697    0.3913648 -62.97  0.001452175    1.267    0.211
       319  -9.2553     26.6921    127.0919   6.1905535667e+01   4.6947444862e+01    0.2061119    0.1742461 -76.72 0.0003064985    1.117    0.105
       320  -9.3351     22.9804    126.3322   6.3245367750e+01   4.7489696044e+01    0.1978666    0.1891001  54.52  0.000477485    1.072    0.067
       321  -9.5229      2.0698    125.3559   7.1228606790e+01   4.9216339768e+01    0.3103121    0.1564274  73.53  0.001314302    2.017    0.504
       322  -9.3695     26.0030    131.2466   6.2673812993e+01   4.5845321387e+01    0.2202491    0.1969717 -46.28 0.0004614251    1.183    0.155
       323 -10.8508    104.3569    122.4675   3.3733559827e+01   3.6882387976e+01    0.3702553    0.2941519  38.85  0.001266158    1.282    0.220
       324  -9.6232     58.2408    122.7172   4.9209367257e+01   4.4494540783e+01    0.4647076      0.17723  46.06  0.001515001    2.899    0.655
