#   1 NUMBER                 Running object number                                     
#   2 MAG_AUTO               Kron-like elliptical aperture magnitude                    [mag]
#   3 X_IMAGE                Object position along x                                    [pixel]
#   4 Y_IMAGE                Object position along y                                    [pixel]
#   5 X_WORLD                Barycenter position along world x axis                     [deg]
#   6 Y_WORLD                Barycenter position along world y axis                     [deg]
#   7 A_WORLD                Profile RMS along major axis (world units)                 [deg]
#   8 B_WORLD                Profile RMS along minor axis (world units)                 [deg]
#   9 THETA_WORLD            Position angle (CCW/world-x)                               [deg]
#  10 FWHM_WORLD             FWHM assuming a gaussian core                              [deg]
#  11 ELONGATION             A_IMAGE/B_IMAGE                                           
#  12 ELLIPTICITY            1 - B_IMAGE/A_IMAGE                                       
         1 -12.0977    248.7396     22.5292   8.9280794079e+00   2.3506905726e+01    0.4512416    0.3187051 -37.36  0.003260213    1.349    0.258
         2 -12.1690    248.0416     16.9296   7.9048316133e+00   2.4230504557e+01    0.4385014    0.3768925  15.03  0.003008293    1.908    0.476
         3 -11.1812      2.7721      9.6617   6.5839923204e+01   7.5759998057e+01    0.2188041    0.1710809 -42.27  0.001426977    1.369    0.270
         4 -10.9496    154.8477    229.2167   6.4551554551e+01   6.3634239422e+00    0.3122871    0.1807021 -48.92  0.001672867    2.017    0.504
         5 -11.9545     74.4622    246.1096   8.4361886511e+01   1.3604844055e+01    0.4855033    0.2969316 -64.62  0.002829778    1.932    0.482
         6 -13.7577     43.4288    176.2527   8.5369613462e+01   3.2512820842e+01     1.292793    0.8899661  53.16  0.004843155    1.417    0.294
         7 -16.3175     30.1163    183.6581   8.9810280972e+01   3.2062109955e+01     8.601094      3.51537  67.52    0.0313375    3.388    0.705
         8 -13.8001      2.0037    247.3466   1.0000086063e+02   2.0724704929e+01    0.5349523    0.2587235 -84.51 0.0006230599    2.109    0.526
         9 -15.9925      7.2505    225.3629   9.8059450094e+01   2.4674048133e+01      3.36599     1.094348  26.44   0.01539604    2.699    0.630
        10 -12.3012    126.6508    229.1954   7.0712213926e+01   1.0131237557e+01    0.3794416    0.2884632  46.37  0.002257844    1.429    0.300
        11  -9.9639     77.0856    230.8915   8.2348138381e+01   1.6226709416e+01    0.1945973    0.1509501  53.71 0.0004787695    1.255    0.203
        12 -12.0518    111.2691    228.6903   7.4146600622e+01   1.2278047892e+01    0.3797063     0.244079  23.45  0.002070461    1.402    0.287
        13 -10.9390    144.0175    229.2878   6.6885605625e+01   7.7895357462e+00    0.1848585    0.1462219  19.84  0.000526162    1.071    0.066
        14 -11.9512     99.8754    228.8300   7.6801171901e+01   1.3750165991e+01    0.3921124    0.1942497  36.27  0.001912815    1.704    0.413
        15  -9.4255     91.9127    213.5296   7.6871034607e+01   1.7881921240e+01     0.202597    0.1202157  28.82 0.0004201235    1.516    0.340
        16  -8.7214    168.0000    206.9032   5.8299392745e+01   8.3879745700e+00    0.1971004      0.07146 -45.45 0.0007892278    2.852    0.649
        17  -9.5824    130.5141    206.1144   6.6524849561e+01   1.3958298935e+01    0.1857091    0.1347568 -49.02 0.0005996128    1.510    0.338
        18 -10.8523    127.8731    196.6198   6.5660406537e+01   1.6254064538e+01    0.2383448    0.2051384 -55.79 0.0004953335    1.324    0.245
        19 -11.6277     81.9955    194.4066   7.6960623156e+01   2.3398785590e+01    0.4954617     0.335562  73.18  0.002146102    1.896    0.473
        20  -9.7483    105.3037    196.3110   7.1196519922e+01   1.9681675442e+01    0.1405829    0.1051332 -13.77 0.0002113925    1.611    0.379
        21  -9.2608    134.2767    194.6423   6.3805810614e+01   1.5682768531e+01    0.1329349    0.1096649  70.58   0.00070083    1.656    0.396
        22 -10.5786     77.3370    184.4306   7.6871777381e+01   2.6345390013e+01     0.458353    0.2652454  75.29  0.001752362    2.710    0.631
        23 -10.4607     99.0824    180.7541   7.0428937287e+01   2.4076679493e+01    0.2839644     0.237008  15.49 0.0007772503    1.216    0.178
        24  -9.4494    172.4913    177.5032   5.2136914663e+01   1.3030350003e+01    0.2204538    0.1291048 -53.06  0.000794875    2.074    0.518
        25 -13.5563     73.4982    166.2706   7.5327735179e+01   3.1268305452e+01     1.418099     1.057699 -12.09  0.004912703    1.699    0.411
        26 -12.6091     74.6327    152.8071   7.2804538293e+01   3.4470005284e+01    0.7480364    0.5280131  50.56 0.0005912045    1.485    0.327
        27 -12.4646     60.9767    164.1497   7.8722169443e+01   3.3468462939e+01    0.6286708    0.4418328  25.04  0.002614581    1.449    0.310
        28 -12.0776     65.4091    160.0279   7.6783109692e+01   3.3929655839e+01    0.5246379    0.3454475  10.04 0.0008329655    1.860    0.462
        29 -12.6563     62.3838    147.6364   7.5762681818e+01   3.7489028377e+01    0.5728168    0.4364364 -12.30  0.001554692    1.611    0.379
        30 -10.8211    247.1406    163.7214   3.6414994880e+01   4.4794680663e+00     0.415918    0.1530587 -44.65  0.001869566    2.768    0.639
        31  -8.6012    110.2841    166.6508   6.5003515719e+01   2.5560234997e+01    0.1481312    0.1159297  73.06 0.0005060444    1.653    0.395
        32 -15.4465      9.6313    149.2652   9.2836001697e+01   4.2417598796e+01     7.637802     1.585159 -82.09  0.003320688    6.419    0.844
        33 -11.2258     53.6975    160.4298   8.0401483062e+01   3.5315445211e+01    0.3341565    0.2340251  52.35 0.0004685227    1.457    0.314
        34 -15.5214     12.0973    242.7652   9.7748228319e+01   2.0738265178e+01     1.939614    0.8348566  38.73   0.01077497    1.752    0.429
        35 -13.2451     69.4015    144.5591   7.2999621861e+01   3.7310687607e+01    0.8588007    0.5655189  68.51  0.002980578    1.989    0.497
        36 -10.5694    134.2455    147.7458   5.4949088205e+01   2.5647852935e+01    0.5799036     0.133313 -51.83  0.001430187    5.414    0.815
        37 -12.2970     82.7891    147.0967   6.9277917726e+01   3.4679560322e+01    0.6803002    0.5040157 -13.51  0.001708008    1.717    0.418
        38 -10.8612     82.0135    140.4990   6.8250503001e+01   3.6448633938e+01    0.3239776     0.201938  53.34  0.001122978    1.859    0.462
        39 -11.8358     24.2106    147.4265   8.8039964615e+01   4.1751505446e+01    0.3621936    0.2728138  61.46  0.001017094    1.339    0.253
        40 -11.1532     20.5124    147.5092   8.9234218065e+01   4.2042811294e+01    0.2814507    0.2381361  47.34 0.0008756705    1.189    0.159
        41 -12.4019     57.5078    129.1891   7.4146833955e+01   4.2899571844e+01    0.4978011    0.3886387 -71.80   0.00251544    1.312    0.238
        42 -11.3216     17.6218    134.1307   8.8742082855e+01   4.5759442607e+01    0.3161295    0.2353471   1.29  0.001252619    1.564    0.360
        43 -10.3984    105.8722    130.3340   5.8813009094e+01   3.4848207055e+01    0.3171488    0.2723715 -55.53  0.001611429    1.195    0.163
        44  -9.9456    109.0204    127.0223   5.7127811687e+01   3.5039612911e+01    0.2935163    0.2167961 -25.92  0.001078385    1.579    0.367
        45 -10.9633     98.7107    134.8208   6.1940565488e+01   3.5063874299e+01    0.4673474    0.3082543  -6.62  0.001832186    2.412    0.585
        46 -13.6271      3.5131    177.1151   9.6567141427e+01   3.5887467146e+01     1.219842    0.6044126  83.16  0.004073438    1.966    0.491
        47 -10.8686     95.5967    122.7033   6.0145240609e+01   3.8529046685e+01    0.3191822    0.2728781  -6.76 0.0006472869    1.311    0.237
        48 -10.4370     32.6609    118.3631   8.1185415176e+01   4.8592900561e+01    0.2610172    0.2301691 -46.02 0.0005749795    1.104    0.094
        49  -8.9616    105.9820    116.9097   5.5576575046e+01   3.7957831043e+01    0.1801063    0.1748962 -30.39 0.0003898249    1.025    0.024
        50 -11.5986     85.2940    133.6751   6.5829275461e+01   3.7622473603e+01    0.3220788    0.2812681 -34.77   0.00049067    1.181    0.153
        51  -9.4346     76.1602    111.3776   6.3827106998e+01   4.4637030020e+01    0.2150748    0.1359099  44.49  0.000316827    1.653    0.395
        52  -8.9036    138.6687    112.3327   4.5553142179e+01   3.2363634103e+01    0.1542608    0.1210103 -86.65 0.0007052138    1.725    0.420
        53  -9.3944    205.2090    110.1833   3.1945438378e+01   1.9453743925e+01    0.1938952    0.1717833 -15.05 0.0006993933    1.189    0.159
        54 -10.2026     24.0239    105.2824   8.2348860197e+01   5.2786571804e+01    0.1918098    0.1834939 -24.19 0.0008401043    1.083    0.076
        55 -10.6707     45.8500     91.2749   7.0419456722e+01   5.4035672005e+01     0.233745    0.1764909  47.64  0.001177625    1.488    0.328
        56 -15.7483      7.4347    208.8569   9.7263567164e+01   2.8210973707e+01     1.978692     1.527372 -69.26  0.009064462    1.391    0.281
        57 -11.6869     13.4588     60.4740   7.7837204778e+01   6.4653185904e+01    0.3644628    0.2176338 -66.28  0.001105791    1.697    0.411
        58 -12.3497      9.2642     59.8491   7.9941849083e+01   6.5088695184e+01    0.7749113    0.2380569  29.95  0.002504196    3.286    0.696
        59 -11.4902    198.5094     58.6400   2.1022473007e+01   2.8731580059e+01    0.3012054    0.2747266 -79.37 0.0008707165    1.087    0.080
        60 -10.0430     63.8003     58.4464   5.2737388750e+01   5.8594159308e+01    0.2734706    0.1957272  58.72  0.001317145    1.815    0.449
        61 -12.5978    209.4917     51.5874   1.8136321281e+01   2.7431957677e+01    0.6713307    0.6034029 -46.77  0.003167508    1.147    0.128
        62 -12.9960    221.5124     42.6710   1.4995640130e+01   2.6190286371e+01    0.5809225    0.5709403  66.53  0.002127445    1.319    0.242
        63 -10.1856    119.0321    241.7906   7.3995724002e+01   8.8835348729e+00      0.18705    0.1745985 -21.42 0.0005306315    1.222    0.182
        64 -10.8658    111.5105    240.0140   7.5453601323e+01   1.0161052710e+01    0.2290576    0.2220728 -45.52 0.0008346439    1.246    0.198
        65  -9.0739     60.1978     21.1353   3.8413232581e+01   6.5338317049e+01    0.1644408    0.1545696  63.37 0.0005020864    1.271    0.213
