#   1 NUMBER                 Running object number                                     
#   2 MAG_AUTO               Kron-like elliptical aperture magnitude                    [mag]
#   3 X_IMAGE                Object position along x                                    [pixel]
#   4 Y_IMAGE                Object position along y                                    [pixel]
#   5 X_WORLD                Barycenter position along world x axis                     [deg]
#   6 Y_WORLD                Barycenter position along world y axis                     [deg]
#   7 A_WORLD                Profile RMS along major axis (world units)                 [deg]
#   8 B_WORLD                Profile RMS along minor axis (world units)                 [deg]
#   9 THETA_WORLD            Position angle (CCW/world-x)                               [deg]
#  10 FWHM_WORLD             FWHM assuming a gaussian core                              [deg]
#  11 ELONGATION             A_IMAGE/B_IMAGE                                           
#  12 ELLIPTICITY            1 - B_IMAGE/A_IMAGE                                       
         1 -11.7605    121.8595     37.9687   8.8796387873e+01   5.0588077958e+01       2.3194      1.54487  18.90   0.01053818    1.896    0.473
         2 -11.6182    162.7362     25.6519   7.5769406342e+01   4.1940617330e+01     1.813379    0.8550229  64.72  0.007310141    2.003    0.501
         3 -12.3031     87.0222     51.9098   1.0423957155e+02   5.5547380349e+01     1.912288    0.6598701 -37.59  0.005375981    2.904    0.656
         4 -12.4000    147.7962     21.3143   7.6956439952e+01   4.6342690711e+01     3.070771     1.199026 -13.36  0.009629103    4.147    0.759
         5 -12.2043    164.8662     10.5932   7.0443483866e+01   4.3024794352e+01     1.272433     1.076935   7.27  0.007114551    1.354    0.262
         6 -12.3681    134.9789      5.0609   7.3396699501e+01   5.1261636836e+01     1.999098    0.6734404  60.59   0.00760953    2.466    0.595
         7 -12.1631     70.1977     19.9709   9.7102455338e+01   6.3642594523e+01     1.453526    0.5999404  37.50  0.006386645    2.523    0.604
         8 -12.0816    111.9425     22.3279   8.5246641008e+01   5.4973028983e+01     1.056929    0.6036949  60.04    0.0049035    1.830    0.453
         9 -12.0263    130.2640     20.0718   8.0029959269e+01   5.0901504650e+01     1.192119    0.3808459  55.30  0.003200673    2.663    0.624
        10 -11.5596    113.3187      9.1329   7.9486798266e+01   5.6122505398e+01     1.126483    0.6747519  39.77  0.004792855    1.569    0.363
        11 -11.7724    127.0514     15.2331   7.8863408767e+01   5.2223362362e+01     1.328174    0.3353516  48.05  0.004267471    3.453    0.710
        12 -11.0999    117.1198     15.6051   8.1245970503e+01   5.4559130149e+01    0.3231173    0.2746831 -53.75 0.0003723264    1.398    0.285
        13 -13.0659    100.0064      6.7362   8.1741206406e+01   5.9362432272e+01     0.821891     0.447332 -32.40 0.0005370482    1.934    0.483
        14 -11.6232     93.1704      8.8182   8.4530330355e+01   6.0614279554e+01    0.6004872    0.4168455 -28.22  0.002335599    1.487    0.327
        15 -12.8911    114.5909     67.0226   1.0104580348e+02   4.7309419089e+01     2.389968     1.590451  38.91   0.01115323    1.575    0.365
        16 -11.9265    132.4500     38.1234   8.6256753254e+01   4.8043211559e+01     2.206714     1.103757  -5.34  0.006579219    4.574    0.781
        17 -11.1003    106.9568     30.3065   8.9803066804e+01   5.5040423169e+01     1.203751    0.5809171  46.24  0.004647013    1.978    0.494
        18 -10.4192     54.8019     18.0938   1.0219633627e+02   6.6350181412e+01    0.4872776    0.2865742  -7.12  0.002096211    2.144    0.534
        19 -12.1581     53.4759     33.0948   1.0928169929e+02   6.4148372224e+01    0.9120157    0.7154827 -53.02  0.005380074    1.504    0.335
        20 -11.1764     97.0859     61.8454   1.0449953671e+02   5.1829973047e+01     1.090147    0.6132365 -23.42  0.004065852    2.460    0.593
        21  -9.8572     31.3716     11.4954   1.0953683825e+02   7.0337567953e+01    0.3208789    0.2127329 -13.41  0.001561433    1.413    0.292
        22 -11.6435     78.3142      7.2205   8.8291745326e+01   6.3759945475e+01    0.6738872     0.432774  -7.03  0.002493633    1.586    0.370
        23 -10.1913     26.7233      4.6625   1.0843131271e+02   7.1854331918e+01    0.6355214    0.4132605  -3.34  0.004133468    1.515    0.340
        24 -12.0710     28.8192     25.8832   1.1709024269e+02   6.8232928996e+01     1.103695    0.5003308 -39.72  0.005018292    1.808    0.447
        25 -12.5554     40.7899     16.6125   1.0754986180e+02   6.8458981830e+01     1.317314    0.5598606 -41.15  0.006596636    2.106    0.525
        26 -12.4182     50.4500     11.1037   1.0064072537e+02   6.7967503147e+01    0.4114146    0.2738268  20.76 0.0004329013    1.495    0.331
        27 -12.2498      9.5661     26.7326   1.2655042268e+02   6.9591860764e+01     1.038411    0.4055424  12.61  0.005252772    3.338    0.700
        28 -12.1879     18.7832     13.6768   1.1686446151e+02   7.1220689732e+01    0.8161278    0.4339345 -43.18  0.004884585    1.510    0.338
        29 -11.4098     68.2555      5.1209   9.0677406656e+01   6.5841021877e+01    0.7145283     0.375125  28.57  0.003594991    1.997    0.499
        30 -12.2381     57.8031      4.1078   9.4064761149e+01   6.7727599149e+01    0.9213684    0.4189448  51.94  0.004361168    2.796    0.642
        31 -11.0838     13.0222      8.8458   1.1772489003e+02   7.2483619828e+01    0.3146958    0.2446073  -0.01  0.001295163    1.301    0.231
        32 -11.4151      2.8814     18.7363   1.2711914136e+02   7.1450421846e+01    0.3562129    0.1516085 -50.13  0.001263507    1.678    0.404
        33 -13.1457      4.2143      8.8794   1.2257380481e+02   7.3097762771e+01     1.173812    0.6235995 -52.76  0.007460035    1.646    0.392
        34 -10.1391    177.6296     19.9697   7.1587661387e+01   3.8652412102e+01    0.3560757    0.2592569 -46.73   0.00109273    1.420    0.296
        35 -10.0307    185.2583     14.3257   6.8807955543e+01   3.7244076834e+01      0.52218    0.3707815  50.54  0.002077996    1.416    0.294
        36 -11.7795    184.7258     26.4797   7.2571637606e+01   3.6010204613e+01     0.671507    0.4337853  21.64  0.001137209    2.182    0.542
        37  -9.9809    216.9047     15.2345   6.5427905947e+01   2.8901025599e+01    0.6654503    0.3818413  -7.99  0.002898086    2.538    0.606
        38 -10.2268    212.3148     15.8401   6.6069278446e+01   3.0005741960e+01    0.5540099    0.3090453 -27.06  0.002587421    1.881    0.468
        39 -10.8577    234.4380     12.7863   6.3136274298e+01   2.4810946405e+01     1.207782    0.4820274 -76.14  0.003979076    4.112    0.757
        40 -11.5814    222.9150      2.2560   6.1490128533e+01   2.8756930818e+01    0.5479387    0.3096133  74.03  0.001029367    1.635    0.388
        41  -9.8033    229.7281      3.2999   6.1185020120e+01   2.6969881412e+01    0.4657892    0.2372257  42.07  0.001862666    2.801    0.643
        42 -10.7841    243.5856     19.4897   6.3969735396e+01   2.1855997786e+01    0.7755214    0.3311858  76.81  0.003302913    2.442    0.591
        43  -9.5598    230.7991     21.9307   6.5771819860e+01   2.4658290044e+01    0.4913214    0.2362683 -56.73  0.001638609    2.188    0.543
        44  -9.9339    231.8516     17.5342   6.4557390212e+01   2.4908901739e+01    0.4031919    0.2603773 -55.92 0.0009635026    1.452    0.311
        45 -10.6158    201.9712     19.5117   6.8252626708e+01   3.2273108924e+01    0.5203819    0.3962129  42.17  0.001779629    1.483    0.326
        46  -9.9713    242.7157     13.1176   6.2508527092e+01   2.2787630248e+01    0.2924177    0.2486647 -75.58 0.0009430387    1.046    0.044
        47  -9.3146    221.8907     11.3734   6.3923160182e+01   2.8064314150e+01    0.4305902    0.1935352 -52.30  0.001389529    2.226    0.551
        48  -9.3025    178.6539     14.2681   6.9665800542e+01   3.9000479367e+01    0.3366293    0.2990043  87.93  0.001917976    1.064    0.061
        49 -10.0532    190.8636      8.0301   6.6249126144e+01   3.6412276188e+01    0.5490482    0.2135374  50.93  0.001222176    2.600    0.615
        50  -9.8625    196.8273      3.5809   6.4308913886e+01   3.5286417994e+01    0.7848555    0.2832679 -37.95  0.003118464    2.585    0.613
        51 -11.3979    204.0773      6.7678   6.4447952954e+01   3.3089641823e+01    0.5169668    0.4335957  48.23 0.0009447261    1.312    0.238
        52 -11.6494    209.0791      3.6647   6.3104647222e+01   3.2111367418e+01    0.6175651    0.3517319  88.53  0.001215005    1.744    0.426
        53  -9.0873    180.4415      7.5492   6.7359738565e+01   3.9208073159e+01    0.3706684    0.2129733 -34.61   0.00175156    1.783    0.439
        54 -10.4889    173.4831      8.6415   6.8602003104e+01   4.0941229541e+01    0.2991006    0.2475238 -28.64  0.001138194    1.310    0.237
        55 -10.4545    175.0100      4.5143   6.7105662020e+01   4.0931103732e+01    0.4622371    0.3449666 -79.10  0.002452128    1.379    0.275
        56 -10.8144    248.0467      5.9538   6.0395621722e+01   2.2319193844e+01    0.5503291    0.3770475 -57.71  0.002723594    1.274    0.215
        57  -8.7267    241.9503      1.6807   5.9845602925e+01   2.4196000436e+01    0.2148953    0.1455674 -64.10 0.0007044506    1.316    0.240
        58  -9.2960    157.7376      7.3011   7.0410028276e+01   4.5214882778e+01     0.292551    0.2023631 -69.73  0.001231094    1.686    0.407
        59  -8.3707    189.5311      1.4187   6.4465985576e+01   3.7396402139e+01    0.1382627    0.1221756  77.92 0.0001038206    1.040    0.039
        60 -12.7567     70.2877     31.0985   1.0195142077e+02   6.1971030804e+01     1.692789    0.7848278  44.37  0.007799124    2.342    0.573
        61 -12.0501     88.6014     27.1086   9.3963072123e+01   5.9281181444e+01     1.785835    0.8788409 -28.80  0.008100472    2.016    0.504
        62  -8.2813    110.4018      1.3718   7.6896307513e+01   5.7518073269e+01    0.1316239    0.1136805  38.20 0.0001075064    1.018    0.017
        63 -11.1108      3.2047     89.3628   1.4242013271e+02   5.6898044409e+01    0.5932272    0.3370509 -70.11  0.003484941    1.320    0.243
        64  -8.5191    125.1663    250.1811   1.3352054568e+02   9.1038024332e+00     0.163296    0.1070156  60.00  0.001074507    1.326    0.246
        65 -11.4061      4.8628     80.3599   1.4063296357e+02   5.8786672200e+01     1.022929    0.2707154 -63.48  0.004646727    2.465    0.594
        66 -11.1213     41.8218     88.4742   1.3004782234e+02   5.4145259252e+01     1.431548    0.3580718 -53.96  0.005396586    2.993    0.666
        67 -12.0552     28.2600     84.5132   1.3368006434e+02   5.6279043035e+01    0.9722272    0.6819183 -52.42  0.004313772    1.233    0.189
        68 -12.5057      5.4652    115.3188   1.4478665081e+02   5.1012798469e+01     1.144184    0.2439152 -59.66  0.004764477    3.262    0.693
        69 -11.7448     17.3260    102.5032   1.3998358450e+02   5.3072228981e+01    0.8739565    0.4592546  80.98  0.004309996    2.263    0.558
        70 -10.7776     27.1706    101.9255   1.3701129128e+02   5.2434503171e+01    0.4503911    0.3981977  -1.76  0.003158201    1.479    0.324
        71 -11.1982     22.0240     96.5137   1.3771427166e+02   5.4073802999e+01    0.4461081    0.3623278 -32.59  0.001847032    1.463    0.317
        72 -11.7624     15.8851     61.6826   1.3336028035e+02   6.2181365861e+01    0.9347164    0.4782003 -11.03  0.003758118    3.011    0.668
        73 -11.0134     13.8966     56.7818   1.3302036828e+02   6.3343983284e+01    0.2643604    0.2065795  32.21  0.001668665    1.609    0.379
        74 -10.0807    105.9715    119.5130   1.1793748996e+02   3.7839328278e+01    0.3225574    0.2498518  67.73  0.001638352    1.407    0.289
        75 -10.4040    105.5727    116.3076   1.1731674373e+02   3.8636506353e+01    0.5395103    0.2341907  31.88  0.001835689    3.337    0.700
        76  -9.6376     40.7485    116.9575   1.3543363162e+02   4.7727057577e+01    0.3976974    0.2066483  77.66  0.001763725    2.718    0.632
        77  -9.6571     12.7866    117.2616   1.4306440565e+02   5.0080271215e+01    0.2331331    0.1893388  62.91  0.001038215    1.302    0.232
        78  -9.1499     51.4207    117.1076   1.3248710898e+02   4.6534332165e+01    0.2473638    0.1747643  26.22 0.0009649896    1.761    0.432
        79  -8.7350     27.8509    115.9082   1.3883994102e+02   4.9188446024e+01    0.1769417    0.1294621 -63.32  0.000300255    1.201    0.168
        80 -10.5197    132.8636    110.9089   1.0886436407e+02   3.4386720076e+01    0.7633228    0.4577141 -37.73  0.003218712    1.821    0.451
        81  -9.6438    133.6007    102.8098   1.0656229473e+02   3.5949861114e+01    0.2836084    0.2509961 -81.21  0.001452737    1.221    0.181
        82 -10.1305     37.8217     97.9135   1.3312976510e+02   5.2393433996e+01    0.4891006    0.3146652  -5.09  0.002565641    2.498    0.600
        83  -9.1822    195.1989    112.3737   9.5238813697e+01   1.9683321778e+01    0.2226438    0.1460015  62.80 0.0009565353    1.730    0.422
        84  -9.3181     92.5827    111.5500   1.1979106413e+02   4.2002757517e+01    0.2991157     0.256512  -0.19  0.001619049    1.514    0.339
        85  -9.9908    105.5173    109.1965   1.1565463326e+02   4.0247309888e+01    0.4331987    0.2838963 -56.94  0.001646145    1.503    0.334
        86  -9.1013     75.8989    102.3664   1.2250823258e+02   4.6742389798e+01    0.3063839    0.1744142 -61.35  0.001244824    1.670    0.401
        87 -10.6532     67.3455    107.9095   1.2622168671e+02   4.6676709964e+01    0.7395584    0.3708235 -46.36  0.003331934    2.034    0.508
        88 -10.2105     73.8490    108.1547   1.2438135646e+02   4.5711439375e+01    0.3549131    0.3084436  79.49  0.001030831    1.188    0.158
        89  -9.3435     34.3784    109.6289   1.3610410720e+02   5.0035682493e+01    0.3065403     0.231926 -53.35  0.001944407    1.290    0.225
        90  -8.7370     38.6094    107.3066   1.3451250626e+02   5.0163600955e+01    0.2146792    0.1385569 -44.58 0.0007094976    1.655    0.396
        91  -9.6425    120.4810    109.0051   1.1157977210e+02   3.7383446816e+01    0.2965627     0.230208  46.26 0.0006809835    1.308    0.236
        92  -8.7952     97.5855    103.9352   1.1658258149e+02   4.2865504709e+01    0.2974663    0.1850512  59.85  0.001312808    1.980    0.495
        93  -9.7226     55.5736    101.9263   1.2849752770e+02   4.9558577388e+01    0.3373305    0.2319788 -38.49 0.0006578208    1.637    0.389
        94  -9.2233    183.6915    101.4119   9.4683894878e+01   2.4457004746e+01    0.3101212    0.2538913  -7.39   0.00148381    1.443    0.307
        95  -9.2740    140.6921    101.3378   1.0438233189e+02   3.4682273562e+01    0.2847988    0.1883267 -54.85 0.0009477509    1.628    0.386
        96  -9.2190     81.3108    102.1710   1.2086495749e+02   4.5967795716e+01    0.2660303    0.1942379  33.84  0.001167879    1.540    0.351
        97 -10.4172     86.8522    100.2818   1.1878574921e+02   4.5514609482e+01    0.5274344    0.3775135 -21.41    0.0016311    1.962    0.490
        98  -9.5813     91.5971     96.8030   1.1652522373e+02   4.5504346138e+01    0.3357914     0.250701 -79.24  0.001154147    1.608    0.378
        99 -11.6045     53.0796     87.1217   1.2610637401e+02   5.3226299692e+01       1.7373     0.743418  17.58  0.006173767    4.661    0.785
       100  -9.6705    114.5087    100.4684   1.1097897692e+02   4.0449032539e+01    0.3725235    0.2664296 -63.32 0.0008561054    1.530    0.346
       101 -11.1846    117.4269     98.2086   1.0958046177e+02   4.0350851992e+01    0.7916238     0.575372  89.54  0.002764194    1.944    0.486
       102  -8.8921     63.1908     98.3161   1.2542916078e+02   4.9435659146e+01    0.3284309    0.1176875 -46.93  0.001241562    2.779    0.640
       103 -10.0422    159.1497     96.7111   9.8705132234e+01   3.1309283863e+01    0.4486386    0.3980142  77.33  0.001757395    1.206    0.171
       104  -9.6016    187.8310     93.3380   9.1672551874e+01   2.4911415967e+01    0.3579641    0.2983928 -51.43  0.001127927    1.231    0.188
       105 -11.0499     95.9790     47.4649   9.9730807466e+01   5.4651103925e+01     1.540325     1.016629   8.59   0.00694793    2.153    0.536
       106  -8.4319    235.4988    249.4918   1.1466730607e+02  -8.0539948698e+00    0.1121537    0.0823826  25.45 0.0008105467    1.021    0.021
       107  -8.4206     25.5834    248.7894   1.4978270786e+02   2.2580941621e+01    0.1317725   0.06860942  79.66 0.0008022329    1.544    0.352
       108 -12.9015    104.5269     82.6472   1.0882892232e+02   4.6225388038e+01     2.662116     1.304678  53.47   0.01033257    2.470    0.595
       109  -9.6182     17.2703    249.5228   1.5107147206e+02   2.3344055774e+01    0.1837445   0.06450458  45.55 0.0007122404    2.080    0.519
       110  -9.7200    142.0806    243.9375   1.2990763604e+02   7.3584858004e+00    0.2419451    0.2015768  22.80 0.0008912085    1.477    0.323
       111  -9.5358     34.9981    245.5816   1.4816861831e+02   2.2065376490e+01     0.263189   0.09175301 -64.60  0.001472262    3.250    0.692
       112  -8.9690    210.7335    239.9034   1.1738756859e+02  -3.2447860311e+00    0.1735797    0.1299543   4.13  0.001178703    1.436    0.304
       113  -9.6926     12.4186    232.2884   1.5109566367e+02   2.6729743335e+01    0.2135179    0.1036977  59.98  0.001490389    1.455    0.313
       114  -8.6851    227.6842    231.7084   1.1327512027e+02  -4.9847151589e+00    0.2694032   0.08645307  42.94  0.001199765    2.612    0.617
       115  -9.0156    136.6263    224.8281   1.2863585161e+02   1.1172558751e+01    0.1537228    0.1126032 -78.62 0.0007109505    1.699    0.411
       116  -8.5877    244.5601    204.4752   1.0587515602e+02  -4.4999509037e+00    0.1232695   0.09793896  14.73 0.0002007113    1.022    0.022
       117 -10.3688     26.8746    191.5407   1.4636537028e+02   3.2848749994e+01     0.342716    0.2285232  79.62  0.002176809    1.148    0.129
       118 -11.3146     18.2156    186.1152   1.4765695477e+02   3.4800735218e+01    0.3485675    0.3222524  24.90  0.001672686    1.673    0.402
       119 -10.6947     12.4323    185.7369   1.4873340267e+02   3.5419895181e+01    0.4537554    0.1792416  74.32  0.002347485    2.417    0.586
       120 -10.7380      5.4987    185.6111   1.5002707863e+02   3.6064352168e+01    0.5117254    0.1438775  57.47  0.002449411    3.053    0.672
       121 -10.9732     89.1025     89.3262   1.1531055220e+02   4.7584644360e+01    0.6375469    0.4762425 -38.19  0.003167317    1.357    0.263
       122  -9.6660     82.3491     90.3932   1.1764954476e+02   4.8457256339e+01    0.3136629    0.2500514  35.77  0.001044367    1.377    0.274
       123  -9.2478    206.6133     91.7461   8.7735070139e+01   2.0561649975e+01     0.314632    0.2381972 -46.55  0.001159532    1.324    0.245
       124  -9.1857    194.2743     90.1253   8.9554382307e+01   2.3881903008e+01    0.3636301    0.2541678  -4.37  0.001528558    2.012    0.503
       125  -9.4433     74.5199     89.1150   1.1974556840e+02   4.9943512742e+01    0.2916343    0.2432897  13.42  0.001654253    1.445    0.308
       126  -9.7729     38.8354    176.6609   1.4282745312e+02   3.4620594166e+01    0.3252321    0.1436727 -76.86  0.001541251    2.010    0.503
       127 -10.1877    152.7732     87.1327   9.7455607899e+01   3.4703958598e+01    0.4152925    0.3132129  41.37  0.001132685    1.367    0.268
       128  -9.2066    238.5977     86.2075   8.1171771726e+01   1.3877922298e+01    0.2081614    0.1337434 -21.21 0.0009553331    1.689    0.408
       129  -9.9488    160.9821     82.9643   9.4358300938e+01   3.3487126420e+01    0.6457881    0.5152532 -69.91  0.003039405    1.469    0.319
       130 -10.2337     82.4891     83.3740   1.1572362370e+02   4.9977896232e+01    0.7363997     0.302324 -53.27  0.002874836    2.335    0.572
       131 -11.0758     81.5465     69.0925   1.1182935845e+02   5.3153083563e+01     1.105032    0.5992553  28.38  0.004733551    2.332    0.571
       132 -11.2650     68.6294     76.0231   1.1815728397e+02   5.3670076901e+01      0.80853    0.5954617 -29.67  0.004407339    1.465    0.317
       133 -10.3643     56.0525     60.2339   1.1790830255e+02   5.8676689017e+01    0.4338095    0.3845748 -15.12  0.001372908    1.156    0.135
       134  -9.9575     74.5479     75.7083   1.1611044747e+02   5.2870371470e+01    0.2381388    0.1969623  42.82 0.0005616867    1.339    0.253
       135 -10.3664     80.9433     74.9346   1.1380086783e+02   5.2035498285e+01    0.4737208    0.2553108  39.28  0.000591824    2.012    0.503
       136 -10.3100     58.2964     77.0071   1.2189478162e+02   5.4839137317e+01    0.4223258     0.385975 -82.96  0.001858412    1.198    0.165
       137 -11.4690     59.0551     69.4654   1.1957151757e+02   5.6367923100e+01    0.7079098     0.490855 -73.37  0.003720686    1.797    0.443
       138  -9.8512    217.8365     79.5973   8.2627875942e+01   1.9818339373e+01    0.7392617    0.3471456 -14.43  0.002081936    4.746    0.789
       139 -10.2583    150.1894     75.7877   9.4669410398e+01   3.7471047046e+01    0.6929748    0.4484484 -22.57  0.002896113    1.876    0.467
       140 -10.6503    134.2153     80.3710   9.9988328951e+01   4.0389716208e+01    0.6869603    0.3920412 -36.55  0.002837279    1.796    0.443
       141  -9.8669    132.4675     68.2528   9.6634249675e+01   4.3092645452e+01    0.4688569    0.3079294  58.11  0.001451712    1.626    0.385
       142  -8.7995    135.5672     63.9819   9.4457603615e+01   4.3135508211e+01     0.346757    0.2110151 -37.53 0.0008989787    1.641    0.391
       143 -10.9698    142.9830     77.4300   9.6895929085e+01   3.8904335856e+01    0.8002753    0.5158989  -7.06  0.002996886    2.638    0.621
       144 -10.1006    138.5177     74.4064   9.7061438375e+01   4.0532261679e+01    0.4194749    0.2641528 -42.23  0.001825187    1.585    0.369
       145  -9.7098    143.8427     70.8750   9.4647775799e+01   3.9913520129e+01    0.3597145     0.247758 -47.51  0.000897771    1.508    0.337
       146 -10.5460    139.7567     67.9267   9.4702058006e+01   4.1430846238e+01    0.5682291    0.4645393  16.53  0.001990826    1.427    0.299
       147  -9.6580     17.3983     82.4676   1.3687592473e+02   5.7555687410e+01    0.2590883    0.1535317   6.46  0.001491143    2.381    0.580
       148  -9.3309      1.5131    177.9416   1.5035956735e+02   3.7933198708e+01    0.1645781   0.08072912 -85.24  0.001026191    1.577    0.366
       149  -8.8438     13.4769     77.2227   1.3726906276e+02   5.8971754366e+01    0.2299799   0.09905762 -75.09  0.001114189    2.183    0.542
       150  -9.4824     62.8653    167.7294   1.3673245967e+02   3.3636899219e+01    0.2993266    0.1839654 -83.15  0.001632124    1.537    0.350
       151  -9.6444     36.7593     75.4775   1.2891831250e+02   5.7537047879e+01    0.2478651    0.1808799 -60.29  0.001222836    1.148    0.129
       152 -10.2092     19.9724     73.1847   1.3428309216e+02   5.9421595839e+01    0.3790381    0.2665465 -21.11  0.001606239    1.728    0.421
       153  -8.6770    192.7103     74.0888   8.5378802315e+01   2.7012204624e+01    0.2585084    0.1833242 -49.53  0.001177662    1.451    0.311
       154  -9.7195    214.8906     71.7206   8.0990791857e+01   2.1788313971e+01    0.3786904    0.2379312 -24.04  0.001053657    1.737    0.424
       155 -10.1881     25.5375     66.5770   1.3088028693e+02   6.0441134267e+01    0.3792376    0.1824054 -43.08  0.001978203    1.904    0.475
       156  -9.5211     56.1030     48.5351   1.1405056242e+02   6.0990960853e+01    0.9655331    0.7022312  -8.31  0.005528397    1.578    0.366
       157  -9.0437      9.1096    167.6624   1.4824641000e+02   3.9404074636e+01    0.1985567    0.1182626  83.71  0.001172771    1.306    0.234
       158 -10.6599     32.0964     70.7799   1.2947849888e+02   5.8987532052e+01    0.5765602     0.335021 -51.57  0.003139735    1.400    0.286
       159 -11.3230     48.8679     25.4957   1.0800926307e+02   6.6029686634e+01    0.4357982    0.2114232  33.71  0.001535169    2.231    0.552
       160  -9.9148     45.1338     44.7434   1.1703790456e+02   6.3060474180e+01    0.2831517    0.2111188 -47.82 0.0003619355    1.212    0.175
       161 -10.9355     34.6766     58.3664   1.2538588964e+02   6.1402939760e+01    0.7753176    0.4341242 -33.69  0.004147715    1.866    0.464
       162 -10.8474     30.8682     43.0698   1.2235581114e+02   6.4845455619e+01    0.3939275    0.3452881  56.68  0.001452201    1.553    0.356
       163 -10.7154     44.3310     38.5066   1.1513483592e+02   6.4325460626e+01    0.5684147    0.3369359 -17.22  0.002867302    2.116    0.527
       164  -9.1177     13.6089    164.8769   1.4712903529e+02   3.9600708388e+01    0.2093254    0.1376131  55.68  0.001436323    1.402    0.287
       165 -11.9877     46.2270     69.3003   1.2405983832e+02   5.7923882138e+01     1.012321    0.4843899  43.46  0.004438476    2.594    0.615
       166 -11.3766     40.7510     63.3867   1.2446829482e+02   5.9759275053e+01    0.5828977    0.3536552 -12.27  0.002761368    2.413    0.586
       167 -11.4710     40.9509     49.7871   1.2038839455e+02   6.2532914615e+01    0.7728619    0.3404122  24.31  0.003643872    2.800    0.643
       168 -11.1981     38.6394     44.7996   1.1969618333e+02   6.3754497907e+01    0.4210603    0.3187077 -82.55  0.002014806    1.996    0.499
       169 -10.1163    150.8308     66.9716   9.1772187471e+01   3.8897238703e+01    0.4650518    0.3337626  44.35  0.001215397    1.405    0.288
       170  -9.2840    155.3618     70.7454   9.1927457895e+01   3.7104466823e+01     0.309837    0.2390499 -29.12 0.0007062261    1.354    0.261
       171  -9.0043    155.8377     66.8082   9.0592402229e+01   3.7674482009e+01    0.3010942    0.2652215 -80.85  0.001313437    1.255    0.203
       172 -10.2794    250.2914     67.2178   7.4917920559e+01   1.4046219450e+01    0.6278703    0.1873697 -28.29   0.00200903    3.621    0.724
       173  -8.5806    202.4568     68.4866   8.2107585294e+01   2.5430224467e+01    0.1500197    0.1461651 -65.07 0.0001367887    1.011    0.011
       174 -11.6546    164.8712     62.8359   8.7413242379e+01   3.6049177390e+01    0.7988824    0.6703252  -7.75  0.002504422    1.361    0.265
       175 -10.5313    164.5985     56.6367   8.5521402588e+01   3.7124639779e+01    0.5473886     0.434498  26.39   0.00173425    1.446    0.309
       176  -9.7174    178.3872     60.2712   8.3963593938e+01   3.2962182583e+01    0.3313184    0.2802676 -31.46 0.0006931555    1.212    0.175
       177 -11.3839    174.3004     57.1884   8.3792687881e+01   3.4514539479e+01     1.117252    0.6380038 -22.54  0.001590388    2.064    0.515
       178  -8.6288     66.3749     67.2207   1.1636767852e+02   5.5854620157e+01    0.1860474    0.1180199 -58.45 0.0004321053    1.607    0.378
       179  -9.2763    103.7573     61.7611   1.0243811315e+02   5.0541035546e+01    0.3832141    0.2362963 -49.75  0.001441403    1.722    0.419
       180 -10.5774      2.4750    159.7788   1.4909325007e+02   4.1586743523e+01    0.5790088    0.1939434 -84.13  0.002828436    2.497    0.599
       181 -10.1082    108.0764     52.7994   9.8031559258e+01   5.1275421303e+01    0.3914724    0.2344848  50.15  0.001103095    1.730    0.422
       182  -8.8112    189.1245     64.6875   8.3316032169e+01   2.9465790498e+01    0.2491939    0.1901727 -88.11  0.001156142    1.531    0.347
       183  -8.7360    198.1155     63.8524   8.1523635558e+01   2.7272233754e+01    0.2339387    0.1991981 -68.57 0.0004842803    1.225    0.184
       184  -8.8156     76.0576     46.2832   1.0589914673e+02   5.8454981776e+01    0.2265177    0.1675411 -28.26 0.0005228876    1.271    0.214
       185 -10.0622     76.3389     51.6688   1.0776903036e+02   5.7423777313e+01    0.5232573    0.3354287 -65.14  0.001886954    2.450    0.592
       186  -8.2863     77.0000     64.0088   1.1173068077e+02   5.4920894423e+01    0.2716342      0.16334 -42.52 0.0006274404    1.523    0.343
       187  -9.2410     77.7071     60.5706   1.1036695932e+02   5.5492922204e+01    0.3623841    0.2531326  50.94  0.001401611    1.713    0.416
       188  -8.6991     61.8159     62.7893   1.1661696553e+02   5.7399845082e+01    0.1628511    0.1445842 -67.94 0.0003524421    1.257    0.205
       189  -8.2831      4.4347     62.8761   1.3785454418e+02   6.2587719585e+01     0.153544   0.08355996  86.40  0.000802518    2.425    0.588
       190  -8.8558    192.7684     53.8059   7.9508364330e+01   3.0193952185e+01    0.2465956    0.1786776 -84.85  0.000365626    1.623    0.384
       191  -9.9923    186.5264     52.9770   8.0309861939e+01   3.1953692114e+01     1.237681    0.6032926  -7.08  0.003167775    5.892    0.830
       192 -10.2767    188.9478     49.3478   7.8820466903e+01   3.1851253944e+01     1.079797    0.4440534 -23.25  0.003611903    3.079    0.675
       193 -10.2264    157.5033     50.3775   8.4956719225e+01   3.9933208656e+01    0.6031975     0.509032 -17.88  0.002715256    1.275    0.216
       194  -8.7120    152.5433     56.4999   8.8017125917e+01   4.0234401610e+01    0.2452157    0.1949671 -28.18 0.0005807726    1.304    0.233
       195 -11.6991    141.6700     51.5644   8.8825450174e+01   4.3748875834e+01    0.8816546    0.3884023  49.46  0.001209889    2.178    0.541
       196 -10.8312    150.1889     51.1062   8.6752208943e+01   4.1689114076e+01    0.5733473    0.4675879  -4.83  0.001469102    1.404    0.288
       197  -8.7273    219.4802     60.4881   7.7282854340e+01   2.2353738817e+01    0.3458539     0.152001  69.02  0.001262125    2.645    0.622
       198 -10.3429    222.0412     57.2124   7.6046715889e+01   2.2195656461e+01    0.4389936    0.3219044 -44.64  0.001426548    1.294    0.227
       199 -10.3611    201.1187     57.3376   7.9179105733e+01   2.7493800091e+01    0.6460753    0.4410506  13.72  0.002742051    2.185    0.542
       200  -9.1959    158.1662     58.4706   8.7440077027e+01   3.8484191216e+01    0.5036855    0.3286887   5.53  0.001960558    2.449    0.592
       201  -9.8658      2.9922     57.6702   1.3739645980e+02   6.3760071881e+01    0.2877196    0.2167075 -86.18  0.002028748    1.398    0.285
       202  -9.6922     60.7242     54.4454   1.1433283853e+02   5.9226494892e+01    0.3516467    0.2593037 -50.93   0.00154034    1.295    0.228
       203 -10.4561     26.3132     53.3360   1.2727323406e+02   6.3172535696e+01    0.3028957    0.2205811 -19.53  0.001000977    1.500    0.333
       204  -9.9032     28.8103     49.2377   1.2510843412e+02   6.3800907714e+01    0.2427699     0.164338 -47.47 0.0003837106    1.181    0.153
       205  -7.4575      7.9386     50.7629   1.3398933735e+02   6.4945944470e+01    0.4026814    0.3015284  68.27  0.002728583    1.805    0.446
       206 -10.6707     71.8363     55.1334   1.1056018264e+02   5.7479893797e+01    0.5957198    0.4558055  74.15  0.001308776    2.051    0.512
       207  -9.5871     67.2649     45.4316   1.0874170323e+02   5.9998716910e+01     0.622955    0.2949259 -33.25  0.002695318    2.196    0.545
       208  -8.4814     16.5538     50.3041   1.3039202784e+02   6.4517435208e+01    0.1707448   0.07803986 -49.85 0.0009232457    1.655    0.396
       209  -9.4540    237.1458     48.5950   7.1869519839e+01   1.9715063765e+01     0.251974    0.2279927  -5.33 0.0006785853    1.286    0.222
       210  -9.7306    149.2293     59.5412   8.9748516939e+01   4.0567326474e+01    0.5584111    0.3215153 -40.55  0.002248633    1.752    0.429
       211  -8.9169    171.2785     48.3082   8.1591205188e+01   3.6656661669e+01      0.26131    0.1861543 -26.94 0.0005085557    1.484    0.326
       212  -8.7790     12.1479     42.0162   1.3002667425e+02   6.6478898687e+01    0.4227955    0.3175262 -11.72  0.002931048    1.478    0.323
       213 -11.1672     22.2430     45.3009   1.2666857387e+02   6.5125068762e+01    0.4285945    0.3458913 -38.98  0.002130411    1.071    0.066
       214 -10.0569     18.4534     40.8195   1.2695913640e+02   6.6295901722e+01    0.2861645    0.1600361  22.57  0.001691407    2.128    0.530
       215 -10.8760     15.5938     33.9096   1.2608635510e+02   6.7839937648e+01    0.5273629    0.3490394 -69.25  0.002826337    1.745    0.427
       216  -8.7634     80.1570     46.6677   1.0462003694e+02   5.7696442556e+01    0.1854982    0.1619975  14.00 0.0005358973    1.153    0.133
       217 -10.6854    192.3605     39.4143   7.5330278840e+01   3.2339277973e+01    0.6090698    0.5665602  31.85  0.001389185    1.183    0.155
       218 -10.5102    206.8383     43.6594   7.4451422964e+01   2.7974712232e+01    0.5476652     0.395124 -74.17  0.001636158    1.526    0.345
       219 -10.8342    202.8460     37.7783   7.3341172876e+01   2.9803135876e+01    0.5527279    0.4065865  47.18  0.002256743    1.454    0.312
       220 -10.2928    199.7938     31.3954   7.1927258688e+01   3.1423591155e+01    0.3731347    0.2786614 -78.99 0.0002932066    1.405    0.288
       221 -10.0591    194.6719     30.9853   7.2508471935e+01   3.2822837812e+01    0.3837035    0.3118038   4.89  0.001146714    1.519    0.342
       222 -10.6797    222.2155     48.1051   7.3593840558e+01   2.3443418510e+01    0.5331626    0.3396286 -57.41  0.002452919    1.647    0.393
       223  -9.0986    249.0496     44.1014   6.9418830576e+01   1.7514669205e+01    0.3883969    0.2140797  -9.96  0.001553629    2.973    0.664
       224  -8.5496    228.8933     39.3362   7.0459361086e+01   2.2964137770e+01    0.1977605    0.1719623  77.70  0.000516902    1.146    0.128
       225  -9.3606    232.3155     43.3457   7.1096623043e+01   2.1593017594e+01    0.3009563    0.2037427  37.48  0.001076892    1.891    0.471
       226 -10.1324    232.5014     40.4887   7.0339927526e+01   2.1926415020e+01    0.5441185    0.2501029  48.43  0.002195073    2.553    0.608
       227  -8.2070      1.5528     44.4424   1.3514593371e+02   6.6561171054e+01    0.1168103   0.07884753 -48.51 0.0002129868    1.152    0.132
       228  -8.8333    215.3269     41.7436   7.2773598369e+01   2.6052332121e+01      0.27386    0.1787431   3.84   0.00115871    2.393    0.582
       229 -10.8999    162.3172     38.9947   8.0263673492e+01   4.0336127877e+01    0.5751397    0.3221793 -27.89  0.002441471    1.880    0.468
       230  -9.1662     77.1928     41.2386   1.0357640947e+02   5.9148746437e+01    0.2450523    0.1820236  50.77 0.0009577519    1.609    0.378
       231  -8.1993      4.7159     41.0231   1.3296750512e+02   6.7096210879e+01    0.1445819    0.1085712 -50.70 0.0007690028    1.007    0.007
       232  -9.6825    180.5299     38.8826   7.7029191571e+01   3.5542532544e+01    0.5052834    0.3277489 -65.05  0.002210121    1.864    0.463
       233  -9.1835    173.5700     39.0660   7.8257826856e+01   3.7361672363e+01     0.288289    0.2042979  88.84  0.001322845    1.631    0.387
       234  -9.5836    168.7471     36.5383   7.8291707550e+01   3.8977107913e+01    0.3420091    0.2802383 -46.52  0.001246646    1.261    0.207
       235  -9.9022     25.4092     38.1902   1.2310240032e+02   6.6267922987e+01    0.1743134    0.1432963 -17.19 0.0003397187    1.213    0.175
       236 -10.0985    210.6047     32.7398   7.0902148942e+01   2.8439539364e+01     0.514845    0.2446659 -25.67  0.001655995    2.267    0.559
       237  99.0000     38.0702     33.9831   1.1609208305e+02   6.5849486156e+01    0.3831726    0.2315018 -26.90   0.00210242    1.627    0.385
       238  -9.8846    246.5111     33.4310   6.7080149457e+01   1.9479945526e+01    0.4987197    0.2187922  58.18  0.001599401    2.352    0.575
       239 -10.9193    237.0759     32.6977   6.7856980241e+01   2.1816774632e+01    0.5108193    0.3936982  83.63  0.002137008    1.286    0.222
       240  -8.9556    242.2876     31.3351   6.6985677032e+01   2.0738427699e+01    0.2224431     0.173444 -11.90  0.000589118    1.566    0.361
       241  -9.7864     22.4658    137.3809   1.4276352613e+02   4.4804084097e+01    0.4880173    0.1486362 -59.34  0.002169091    2.767    0.639
       242 -10.5330     16.5585    158.8021   1.4604664328e+02   4.0632319171e+01    0.3799158    0.2429414 -48.30  0.002372455    2.087    0.521
       243 -11.7837     19.3613    148.2728   1.4453981365e+02   4.2666688963e+01    0.6855407      0.48383 -63.95  0.003096996    1.402    0.287
       244  -9.0650     10.4803    157.5414   1.4725455562e+02   4.1419927404e+01    0.1956184   0.07503821 -67.22 0.0008205848    2.150    0.535
       245 -11.0164     37.9209     27.4338   1.1358013735e+02   6.7025904940e+01     0.352937    0.2578346  18.42  0.001314118    1.473    0.321
       246  -9.6138     33.8627    155.8189   1.4195903845e+02   3.9634717515e+01    0.1658497    0.1445199 -76.10  0.000459641    1.248    0.199
       247  -8.5454     82.9906    155.0000   1.3037952397e+02   3.3613113769e+01    0.2109054   0.07298085  38.48 0.0001151872    2.925    0.658
       248  -9.0250     52.6757    151.8816   1.3716364423e+02   3.8420180833e+01    0.1875481    0.1704493  45.04 0.0008995832    1.331    0.249
       249 -10.0723     67.4537    148.8059   1.3320745412e+02   3.7229830936e+01    0.3970029    0.2137481 -81.79  0.001852658    2.050    0.512
       250 -11.2677     35.0904    150.3198   1.4111491401e+02   4.0723277136e+01    0.6538691    0.2868301  58.11  0.003174508    2.405    0.584
       251 -10.6419     38.9931    146.0066   1.3972134719e+02   4.1280623876e+01     0.431375    0.2834084 -85.48  0.001600788    1.304    0.233
       252  -9.9738      3.1340    146.7949   1.4806432896e+02   4.4289141881e+01    0.6153429     0.246982  81.30  0.003057996    2.467    0.595
       253 -10.3877     27.1521    126.7155   1.4040317292e+02   4.6791328282e+01    0.7077318    0.3048692 -62.23  0.003612099    1.901    0.474
       254  -9.5253     19.5464    118.9423   1.4146609280e+02   4.9190958073e+01    0.4191761    0.2229196 -55.44  0.002378654    1.742    0.426
       255  -7.7277    218.3159     33.3069   7.0112211973e+01   2.6393130629e+01    0.1414307    0.1074801  34.22 0.0003284175    1.628    0.386
       256 -10.2471      3.6713    135.2071   1.4704882679e+02   4.6755608194e+01    0.4235914    0.2928248  82.26  0.002335633    1.178    0.151
       257 -10.1634     19.7045    128.5778   1.4251751596e+02   4.7008577711e+01    0.3632828    0.2404511 -47.38 0.0008554026    1.754    0.430
       258 -10.6551    177.5253     29.0740   7.4456629605e+01   3.7607642497e+01    0.6006784    0.3970788 -22.33  0.002465359    1.666    0.400
       259  -9.9880      9.2062    134.6201   1.4568883960e+02   4.6485766668e+01    0.2246501    0.1886159 -45.45     0.001228    1.537    0.349
       260 -10.5211    226.4247     28.7172   6.7972599863e+01   2.4925895364e+01     0.673558    0.2997018 -48.74  0.002779512    2.200    0.545
       261 -10.4679    104.1665     54.2151   9.9689844928e+01   5.1836895311e+01    0.3690451    0.2743284 -30.19 0.0003783009    1.325    0.245
       262  -9.7501    219.6736     25.1300   6.7766800844e+01   2.7057308737e+01    0.6058183    0.3741037 -73.40  0.001940564    1.779    0.438
       263  -9.7759    214.0241     21.0104   6.7284523858e+01   2.8981688905e+01    0.5591846    0.2587375  88.54  0.002104039    2.774    0.640
       264 -11.6213     13.6853    129.8111   1.4414895942e+02   4.7211110312e+01    0.7491911    0.4069586 -85.19  0.003876436    1.532    0.347
       265  -9.6735      7.0874    142.7453   1.4686832162e+02   4.4869102643e+01     0.360734    0.1677949  63.13  0.001995968    2.118    0.528
       266  -9.1226    193.0724     24.9929   7.0963436794e+01   3.3976193456e+01    0.3654309    0.2053766  20.17  0.001310259    3.162    0.684
       267  -9.0933     97.6248    140.7944   1.2442751259e+02   3.4476472476e+01    0.2004586     0.126595 -70.69  0.000554768    1.671    0.402
       268  -9.4460     48.3318    138.0473   1.3644534315e+02   4.2060753567e+01    0.4797545    0.1801046  51.61  0.002012007    2.971    0.663
       269 -10.1034     54.6508    137.5886   1.3478665093e+02   4.1425281601e+01    0.3244574       0.2476 -78.92  0.001313994    1.127    0.113
       270  -9.3813    241.6052     23.8287   6.5206251078e+01   2.1815629589e+01    0.3242571    0.1756166 -54.69 0.0007589107    1.772    0.436
       271 -11.2462     55.3858    129.2776   1.3336580426e+02   4.3249561106e+01    0.8227304    0.2338729 -59.91  0.002959051    2.875    0.652
       272  -9.8723     64.0919    138.2280   1.3248326705e+02   4.0090115226e+01    0.2514953    0.1629084  59.83   0.00134618    1.588    0.370
       273 -10.8268     64.9729    130.6002   1.3104892645e+02   4.1732490549e+01    0.3904401    0.2654359  37.49  0.002149185    1.625    0.385
       274  -8.6952    201.4153     25.2942   6.9966017971e+01   3.1745543136e+01    0.1910101    0.1278267 -42.05 0.0005627895    1.468    0.319
       275  -8.7404     78.4768    127.5055   1.2692834478e+02   4.0557095299e+01    0.2006917     0.121498  51.63 0.0006318046    1.730    0.422
       276  -9.6161    198.2166     16.7760   6.7920273468e+01   3.3561919855e+01    0.2932919    0.2164958  60.68 0.0008535422    1.306    0.234
       277  -9.6382     74.2693    125.5136   1.2768999797e+02   4.1631515420e+01    0.3562845    0.2010174  42.74  0.001525744    1.844    0.458
       278  -9.8536     71.6982    132.6610   1.2962832606e+02   4.0341845522e+01    0.2333375    0.2072866  -4.81  0.001015273    1.540    0.351
       279 -10.0694     72.4253    129.0675   1.2881883660e+02   4.1070483451e+01    0.3941244     0.298354  65.41  0.001312158    1.353    0.261
       280  -9.6100     35.7488    130.5833   1.3866745936e+02   4.5103394809e+01    0.4861059    0.1598879  56.17  0.001697839    4.654    0.785
       281 -10.2757     38.0051    127.0115   1.3761449596e+02   4.5694249126e+01    0.2212213    0.1823562 -61.44  0.001046096    1.223    0.182
       282  -8.8214    120.3057    131.3226   1.1683869028e+02   3.2489441556e+01    0.1436177    0.1193803 -10.90   0.00044689    1.640    0.390
       283  -9.7160     96.1048    130.1358   1.2278222472e+02   3.7156104837e+01    0.2907691    0.2264168 -41.12  0.001532763    1.463    0.317
       284 -10.4772     48.2987    125.3682   1.3465250772e+02   4.4977466762e+01    0.3419953     0.227868 -72.37  0.001960266    1.290    0.225
       285 -11.1612     67.3370    122.7271   1.2906512410e+02   4.3241885631e+01    0.6708888    0.3994521 -41.09  0.003223412    2.067    0.516
       286 -10.2677     66.8925    114.9920   1.2775591607e+02   4.5097384551e+01    0.5926425     0.217142  46.21  0.001782808    3.034    0.670
       287 -10.1209     92.2279    119.8325   1.2170340984e+02   4.0165700051e+01    0.5744668    0.3277841 -36.92  0.002423791    2.341    0.573
       288  -9.9553     97.2542    114.8030   1.1923307754e+02   4.0462185091e+01    0.3333299    0.2914975  18.06  0.001124213    1.388    0.279
       289 -11.3494     46.5361    102.8743   1.3139623523e+02   5.0367696127e+01     1.397076    0.5270193 -45.29  0.005584033    2.997    0.666
       290 -10.3998      4.0578    100.1391   1.4350844963e+02   5.4467636295e+01    0.4422854    0.3015315 -73.45  0.001981875    1.112    0.101
       291 -10.6309     20.9771    109.4056   1.3987473761e+02   5.1236219766e+01    0.7061657    0.3820606  -2.20  0.003408714    3.572    0.720
       292 -11.9786     12.3726     87.8370   1.3936173389e+02   5.6695666708e+01     0.558681    0.3613351  61.07  0.002357565    1.834    0.455
