#   1 NUMBER                 Running object number                                     
#   2 MAG_AUTO               Kron-like elliptical aperture magnitude                    [mag]
#   3 X_IMAGE                Object position along x                                    [pixel]
#   4 Y_IMAGE                Object position along y                                    [pixel]
#   5 X_WORLD                Barycenter position along world x axis                     [deg]
#   6 Y_WORLD                Barycenter position along world y axis                     [deg]
#   7 A_WORLD                Profile RMS along major axis (world units)                 [deg]
#   8 B_WORLD                Profile RMS along minor axis (world units)                 [deg]
#   9 THETA_WORLD            Position angle (CCW/world-x)                               [deg]
#  10 FWHM_WORLD             FWHM assuming a gaussian core                              [deg]
#  11 ELONGATION             A_IMAGE/B_IMAGE                                           
#  12 ELLIPTICITY            1 - B_IMAGE/A_IMAGE                                       
         1 -14.6937    174.7449     30.9143   2.8991315169e+02   6.4155756120e+00   0.06672426   0.04056723 -44.04  0.004324475    1.694    0.410
         2 -13.3447    178.4682     24.3438   2.8983026296e+02   6.4701129087e+00   0.02612565    0.0217049 -52.88  0.001430582    1.183    0.155
         3 -12.1815    192.4083      1.6523   2.8953134275e+02   6.6520149215e+00   0.02900738  0.008529047  25.69  0.001977955    3.551    0.718
         4 -12.1850    182.4371    241.8339   2.9108768129e+02   3.9219899040e+00   0.01628468   0.01229625 -79.73  0.001327843    1.468    0.319
         5 -10.9732    159.4680    250.0638   2.9140377502e+02   3.9593422688e+00     0.010277  0.006389884 -60.36 0.0008317708    1.575    0.365
         6 -12.0561    207.8894    185.9043   2.9045738924e+02   4.4241085883e+00   0.01654769   0.01383128 -36.81  0.001085685    1.226    0.184
         7 -12.4341    212.4064    182.2997   2.9038330183e+02   4.4397608902e+00   0.02037413   0.01412677 -24.94  0.001190472    1.715    0.417
         8 -12.6870    103.1495    186.1330   2.9167733940e+02   5.0280907301e+00    0.0227605   0.01121489  40.07   0.00204081    2.042    0.510
         9 -10.5202    147.0120    185.5152   2.9116309257e+02   4.7814930091e+00  0.009807071  0.006474918  27.96 0.0003744503    1.512    0.339
        10 -11.3778    119.6926    182.6353   2.9146384752e+02   4.9730795326e+00   0.01784791  0.009146238  56.43  0.001449548    2.739    0.635
        11 -12.1103     99.4715    180.6655   2.9168751613e+02   5.1129039044e+00    0.0122897   0.01192086  -6.82 0.0006124675    1.037    0.036
        12 -11.6640    198.9736    178.5444   2.9051697125e+02   4.5613090394e+00   0.01738185   0.01353265  85.36  0.000995339    1.504    0.335
        13 -12.4892     92.8434    177.8137   2.9174767261e+02   5.1843593792e+00   0.02141794   0.01183845 -43.94  0.002003728    1.887    0.470
        14 -13.0533     95.4858    172.5472   2.9168544669e+02   5.2303052666e+00   0.03185302   0.01705161 -40.92  0.002327815    2.057    0.514
        15 -11.0189    179.0526    174.3183   2.9072333956e+02   4.7259283298e+00  0.009565664  0.008870207  28.81  0.001164584    1.084    0.077
        16 -11.3852    125.8987    172.2737   2.9132967209e+02   5.0575916273e+00   0.01190707  0.009383077 -81.79  0.001321813    1.399    0.285
        17 -12.3562    103.4278    209.3142   2.9181246105e+02   4.7570212904e+00   0.02831613   0.01732901  75.45  0.002512668    2.449    0.592
        18 -11.9865    137.6843    170.9600   2.9118461714e+02   5.0046369368e+00    0.0163498   0.01319382  65.22  0.001815934    1.394    0.283
        19 -11.8172    113.2437    169.9834   2.9146332802e+02   5.1574274349e+00   0.01844236   0.01355575 -58.14  0.001011687    1.332    0.249
        20 -11.4211    145.7205    168.9827   2.9107925166e+02   4.9810756301e+00   0.00955078  0.008881431 -61.12   0.00080619    1.070    0.065
        21 -10.7273    225.4808    166.9870   2.9013960744e+02   4.5416750688e+00  0.009161822  0.005713404  80.66 0.0004654435    2.357    0.576
        22 -11.9457      2.5014    165.8633   2.9272904316e+02   5.8442314691e+00   0.01669138   0.01341135 -65.55  0.001041613    1.251    0.201
        23 -12.2841      1.3865    160.8571   2.9271222192e+02   5.9088528732e+00   0.01521959  0.009349369 -50.43  0.001015028    1.591    0.371
        24 -13.6750      1.5108    154.5715   2.9267332703e+02   5.9812188164e+00   0.02996784   0.01141828 -62.64  0.002370033    2.590    0.614
        25 -14.0753      1.8608    145.8624   2.9261734756e+02   6.0804589345e+00   0.03839991   0.01375425 -64.72  0.002486819    2.912    0.657
        26 -12.5767    106.9099    206.2470   2.9175363243e+02   4.7725503980e+00   0.02142369   0.01346431 -53.42 0.0006981659    1.541    0.351
        27 -11.6632    100.5831    163.4995   2.9157202498e+02   5.3060023580e+00   0.01225365    0.0110844 -35.23 0.0002502977    1.116    0.104
        28 -12.3487    184.1995    215.4399   2.9090948146e+02   4.2183950704e+00   0.01497761  0.009418478 -59.69  0.001514906    1.553    0.356
        29 -12.5786    104.7630    156.0442   2.9147877788e+02   5.3684784607e+00   0.03109195   0.01506995 -41.45  0.002071382    2.317    0.568
        30 -10.9439     23.0253    156.4091   2.9243346246e+02   5.8360149213e+00    0.0132699   0.01078663  63.91 0.0008994661    1.372    0.271
        31 -12.2461    112.4185    209.9934   2.9171187863e+02   4.6971592093e+00   0.02129932   0.01393657   3.37  0.001802239    1.894    0.472
        32 -10.9961    166.0788    208.6472   2.9107956970e+02   4.4022892632e+00   0.01559822  0.009902245  44.22  0.001569534    1.642    0.391
        33 -12.3757    133.6157    145.0457   2.9107694927e+02   5.3293056817e+00    0.0422623    0.0152722 -68.79  0.002976794    3.418    0.707
        34 -11.6167     23.0983    205.4027   2.9272444406e+02   5.2659153267e+00   0.02122587   0.01018405  35.90  0.001725143    2.024    0.506
        35 -10.8590    174.9661    149.0012   2.9061928294e+02   5.0437014601e+00   0.01094182  0.007740034  61.37 0.0006297736    1.677    0.404
        36 -12.4072     15.8010    206.3911   2.9281531177e+02   5.2964307995e+00   0.01386413   0.01190743 -27.04  0.001159036    1.222    0.181
        37 -13.6193     11.5513    205.9532   2.9286220236e+02   5.3259800891e+00    0.0268831   0.01894975  12.99  0.002250648    1.556    0.357
        38 -11.0788     84.9184    145.1876   2.9164508279e+02   5.6093757413e+00   0.01001637  0.008648663  55.30 0.0004413849    1.225    0.184
        39 -10.6055    130.4056    206.1750   2.9147977387e+02   4.6375182856e+00  0.009433712  0.006442457 -79.03 0.0009497827    1.684    0.406
        40 -12.3256    113.1053    140.5851   2.9128914786e+02   5.4998663658e+00   0.02174516    0.0134899 -42.35  0.002160335    1.685    0.406
        41 -12.3956    102.7215    140.9733   2.9141244468e+02   5.5554276722e+00   0.01307829   0.01229942  20.46 0.0004477524    1.071    0.066
        42 -11.8990     22.8354    135.6518   2.9231186419e+02   6.0784152277e+00   0.01360807   0.01118409  11.94 0.0007268526    1.279    0.218
        43 -10.3727    149.6081    133.8336   2.9082359581e+02   5.3669053218e+00  0.008838635  0.006379094 -79.99 0.0002127209    1.569    0.363
        44 -11.6422    120.0433    205.2930   2.9159508879e+02   4.7077067901e+00  0.009195643  0.008600263  27.71 0.0004634035    1.075    0.070
        45 -12.0362    106.4837    128.8526   2.9129609494e+02   5.6745026947e+00    0.0283219   0.01292454 -54.71  0.002485295    2.064    0.516
        46 -11.6094    118.5678    130.6577   2.9116610333e+02   5.5835972828e+00   0.01398785   0.01166321 -34.60   0.00072448    1.240    0.194
        47 -10.8359     33.0070    203.9123   2.9260017240e+02   5.2261783934e+00   0.01034478  0.009208038 -29.01  0.000913427    1.156    0.135
        48 -11.3048    160.7495    128.3139   2.9066080760e+02   5.3664266067e+00   0.01218134  0.009831107 -58.60    0.0013902    1.220    0.180
        49 -11.5399    125.4262    127.2446   2.9106577255e+02   5.5835420097e+00   0.01337021  0.008509861  63.81 0.0008044373    2.054    0.513
        50 -11.8648    135.3024    122.5530   2.9092262995e+02   5.5808386633e+00    0.0252927  0.007007557 -67.67  0.001464451    4.956    0.798
        51 -11.9368     85.5053    121.7396   2.9149803376e+02   5.8784679580e+00   0.01665067   0.01067499  27.41  0.001228436    1.560    0.359
        52 -10.9053    112.9721    119.7353   2.9116591611e+02   5.7428811558e+00   0.01110433  0.009491256 -61.78 0.0004400099    1.163    0.140
        53 -13.4644    197.0115    197.0419   2.9065050371e+02   4.3578441137e+00   0.03558744   0.02618424  40.14  0.002544168    1.374    0.272
        54 -11.3566    168.1869    113.8714   2.9048764751e+02   5.4910059819e+00   0.01522116   0.01187142 -89.66 0.0009819729    1.476    0.322
        55 -12.1652    189.3920    187.1447   2.9067986364e+02   4.5169857397e+00   0.02918728   0.01839272 -75.29  0.002585454    1.811    0.448
        56 -11.3910    187.8294    222.1809   2.9090758399e+02   4.1190544657e+00  0.009385922  0.007691108 -26.88  0.000441153    1.308    0.236
        57 -10.7854    205.5013    110.1847   2.9003126631e+02   5.3171521469e+00   0.01201272   0.00942303  24.21 0.0006321591    1.290    0.225
        58 -10.8516    144.2141    200.4386   2.9128484352e+02   4.6242746010e+00  0.009755351  0.005873881  39.03 0.0009522621    1.663    0.399
        59  -9.8733    148.2959     78.2988   2.9050593812e+02   6.0193982569e+00  0.006825584  0.004923909 -28.37 0.0002687345    1.571    0.363
        60 -10.9380    136.5234    197.5927   2.9135732359e+02   4.7018613534e+00   0.01339564  0.009577589  79.98  0.000864735    1.765    0.433
        61 -12.6383    111.9802    196.4497   2.9163613587e+02   4.8571197304e+00   0.03677327   0.01915212 -14.07  0.002610039    3.855    0.741
        62 -12.4984    162.8458     55.9823   2.9020243270e+02   6.1939420620e+00   0.01367579   0.01172433  64.63 0.0007345792    1.271    0.213
        63 -13.8945    162.1027     47.2612   2.9015869993e+02   6.2994322004e+00   0.03520094   0.02515882 -63.32   0.00138388    1.398    0.285
        64 -11.6880    181.0659    194.9099   2.9082314326e+02   4.4750515132e+00   0.02054488   0.01318988  75.47   0.00148968    2.194    0.544
        65 -19.7115     51.5157    167.8894   2.9216987878e+02   5.5383326153e+00     1.003057    0.3035914 -65.77   0.06711701    3.717    0.731
        66 -12.5237     20.5666    214.0887   2.9280560232e+02   5.1794836339e+00   0.02137076   0.01718805   2.74  0.002422679    1.362    0.266
        67 -11.7038    189.4980     14.9862   2.8964548735e+02   6.5144385688e+00   0.01042495  0.009186477  26.61 0.0008803449    1.140    0.123
