#   1 NUMBER                 Running object number                                     
#   2 MAG_AUTO               Kron-like elliptical aperture magnitude                    [mag]
#   3 X_IMAGE                Object position along x                                    [pixel]
#   4 Y_IMAGE                Object position along y                                    [pixel]
#   5 X_WORLD                Barycenter position along world x axis                     [deg]
#   6 Y_WORLD                Barycenter position along world y axis                     [deg]
#   7 A_WORLD                Profile RMS along major axis (world units)                 [deg]
#   8 B_WORLD                Profile RMS along minor axis (world units)                 [deg]
#   9 THETA_WORLD            Position angle (CCW/world-x)                               [deg]
#  10 FWHM_WORLD             FWHM assuming a gaussian core                              [deg]
#  11 ELONGATION             A_IMAGE/B_IMAGE                                           
#  12 ELLIPTICITY            1 - B_IMAGE/A_IMAGE                                       
         1 -10.9968     16.1024     74.6827   1.2724288578e+02   5.8714855798e+01    0.7866074    0.3967052 -37.85   0.00406519    2.071    0.517
         2  -9.7578     39.6589      5.7210   9.2927944434e+01   7.0853652105e+01     0.824994    0.3513099 -29.15  0.003765718    2.274    0.560
         3 -10.4067     50.6069     36.0957   1.0192017790e+02   6.4112157547e+01    0.8216975    0.6162771 -71.10  0.004337253    2.071    0.517
         4 -10.5202     39.3168     29.9143   1.0481612211e+02   6.6677043966e+01    0.6712539    0.3633887 -55.15  0.003225562    1.998    0.500
         5 -11.7384     43.3130     19.8919   9.8377010686e+01   6.8051357323e+01     0.920788    0.8866335  45.11   0.00553097    1.493    0.330
         6 -10.1677     66.9131     32.6046   9.3301141925e+01   6.2358967451e+01    0.8757772    0.4843403 -50.25  0.003923785    2.228    0.551
         7 -10.1747     86.5427     31.7107   8.5306835315e+01   5.8936622477e+01    0.3250034    0.2868275 -24.51  0.001707672    1.159    0.137
         8 -11.9044    129.5697     15.2236   6.6031535572e+01   5.1129653801e+01     1.734463    0.9557605  51.79  0.007738021    1.614    0.380
         9 -12.0966     82.0245      8.4259   7.5900162921e+01   6.3073919878e+01     2.209834     1.146184  -2.30  0.009118741    2.568    0.611
        10 -11.7691    109.4761      4.2553   6.5943864200e+01   5.7238885299e+01     1.925969    0.7959165  53.20  0.007928685    2.042    0.510
        11 -11.2283    131.6555      3.3331   6.0838473399e+01   5.1722446376e+01     1.382541    0.4106622  64.64  0.004670656    2.996    0.666
        12 -10.5806    121.1752      4.0154   6.3199040293e+01   5.4350365802e+01    0.5920924    0.4722263  62.81  0.002405202    1.225    0.184
        13 -13.8686    166.1527     11.0282   5.8014845088e+01   4.1933220404e+01      3.26783     2.105236  69.22   0.01462283    1.475    0.322
        14 -10.4957    224.7699     28.8077   5.6084126240e+01   2.5177537014e+01    0.5077562    0.4449293   4.10  0.001589029    1.262    0.207
        15  -9.7077    111.1133     16.1220   7.0798106582e+01   5.5619805428e+01    0.5848045    0.2782236  48.17  0.002328359    1.873    0.466
        16  -9.6563    117.3393     18.6202   7.0272314397e+01   5.3820751582e+01    0.5501824    0.2641596 -22.62  0.001984917    2.171    0.539
        17  -9.1231    117.4967     14.4681   6.8475974208e+01   5.4246874614e+01    0.3757893    0.2868534  48.49  0.001969208    1.198    0.165
        18  -9.5388     94.0232     17.7050   7.6450147124e+01   5.9371473960e+01      0.45283    0.3855777 -64.63   0.00221303    1.647    0.393
        19  -9.3108     64.5857     16.6824   8.6827356134e+01   6.5341667479e+01    0.3160003    0.2350495 -46.67  0.001312739    1.726    0.421
        20 -10.3182    248.7059     15.5381   5.0563670302e+01   2.1119321753e+01    0.3546036    0.2884392 -32.91  0.002253649    1.146    0.128
        21  -8.7995     20.3214     13.7856   1.0822828431e+02   7.1609080921e+01    0.5458843    0.1964429 -36.09  0.002416877    2.522    0.604
        22  -9.3969     67.9872     13.0399   8.3548328299e+01   6.5254656045e+01    0.5916324    0.4019607  84.36  0.002031764    5.621    0.822
        23 -11.2992    155.5088     20.6845   6.3051785776e+01   4.3781046219e+01     1.194101     0.434076  65.46  0.004152497    2.700    0.630
        24 -10.6637     71.3856      5.4313   7.8183339535e+01   6.5581735372e+01    0.7218965    0.4512432  33.45  0.003799765    1.468    0.319
        25  -9.0184     54.6149      7.4541   8.6386549141e+01   6.8352345166e+01    0.6354595    0.4573525  85.41  0.002386993    5.429    0.816
        26  -8.6157     49.2966      6.6150   8.8459829810e+01   6.9319572494e+01    0.3011678     0.173779  29.07  0.001594067    1.706    0.414
        27 -10.2717     60.3537      2.6943   8.1134949863e+01   6.7983605755e+01    0.6964045    0.5148908 -11.47     0.004132    1.213    0.176
        28  -8.6833     51.9569      1.9720   8.4506243088e+01   6.9524211580e+01    0.2738806    0.1820442  24.40 0.0009709476    1.396    0.284
        29 -11.0208    198.8143      8.2898   5.3145521642e+01   3.3658850918e+01    0.5585517    0.1932423  57.58   0.00210164    2.579    0.612
        30 -10.1810    243.9659      8.6788   4.9282163428e+01   2.2828572610e+01    0.3450947    0.2392327  29.27  0.001920265    1.904    0.475
        31  -9.8519    250.0066      6.0000   4.8219211246e+01   2.1759565844e+01    0.6128199    0.1962131 -24.31  0.002511087    2.936    0.659
        32 -10.1021    244.5873      2.2943   4.7716032001e+01   2.3286241425e+01    0.4501724    0.2395885  75.23  0.002364466    1.902    0.474
        33  -9.3918    229.6739      6.0368   4.9724487305e+01   2.6326683669e+01     0.233442    0.1670438  46.36  0.001083896    1.580    0.367
        34 -10.1930    192.8328      5.3912   5.2926672455e+01   3.5451046022e+01     0.346988    0.2174879  59.73   0.00143379    1.501    0.334
        35  -9.3127    222.4883      1.5162   4.9137358656e+01   2.8429825682e+01    0.2277178     0.196149  75.11  0.001421876    1.153    0.133
        36  -8.8035     16.8809      2.2292   1.0466219890e+02   7.3979231459e+01    0.2763084    0.2447314 -64.80  0.001920415    1.740    0.425
        37 -10.6003    203.8043      3.9079   5.1399070436e+01   3.2793118642e+01    0.4677981    0.2809275  85.34  0.002296125    1.704    0.413
        38  -8.8422     26.5202      2.4760   9.8657243127e+01   7.2981190002e+01    0.2373864    0.2098369  21.23  0.001661954    1.458    0.314
        39 -10.2348     84.1949     48.1106   9.2873925427e+01   5.6538986332e+01    0.7470379    0.4929847  53.77  0.003495054    1.939    0.484
        40 -10.2115     81.4353     36.8500   8.9375614933e+01   5.9071341211e+01    0.4618303    0.3832102 -48.05  0.002073269    1.424    0.298
        41  -8.6374    111.2495     45.7210   8.2951487716e+01   5.1429377834e+01    0.3083349    0.2031062 -20.97  0.001395913    1.612    0.380
        42  -7.9936    197.3271     44.3156   6.3907342101e+01   3.0079080462e+01    0.1538759    0.1071664  27.82 0.0003631963    1.673    0.402
        43 -10.3513      3.6551     40.4748   1.2602561398e+02   6.7075752737e+01    0.4823808     0.367233  63.03  0.003019214    1.727    0.421
        44 -10.3577    162.9743    242.6711   1.1380614104e+02   6.0886359732e+00    0.3127236     0.242126 -54.90  0.002241265    1.892    0.472
        45 -10.9942    174.1137    241.6411   1.1165364340e+02   4.5997748185e+00    0.4079005     0.264768  18.24  0.002638113    1.500    0.333
        46 -10.5787    204.7771    226.1319   1.0395100625e+02   1.9255808563e+00    0.2932101    0.1987507 -15.57  0.001912963    1.610    0.379
        47  -9.7142     49.8539     27.6661   9.8732108876e+01   6.5799979087e+01    0.3507005    0.2827127 -17.44  0.001448738    1.062    0.058
        48  -8.6297    238.5097    202.9579   9.4228015966e+01  -4.5450157939e-01    0.1677882    0.1052608 -21.00  0.001026275    1.570    0.363
        49 -11.8110     11.2834    141.2864   1.3593645208e+02   4.3765599346e+01    0.8108323    0.4076323 -68.63  0.004688687    1.719    0.418
        50  -8.5395     38.7574     37.5841   1.0804668054e+02   6.5208312470e+01    0.2473136    0.1975194 -53.87   0.00136686    1.294    0.227
        51  -8.4685     27.3866     35.3060   1.1281497491e+02   6.6753903157e+01    0.2176883    0.1748018 -29.17  0.001021566    1.089    0.082
        52  -9.3777     11.6983     34.2461   1.2045978378e+02   6.8058019062e+01     0.449429    0.3092174 -36.32  0.002346662    1.245    0.197
        53 -12.7056    240.9996    132.9814   7.9843654915e+01   7.9539952383e+00     1.479524     1.107603  36.78  0.005357646    1.360    0.265
        54  -9.8426     12.7391    126.5995   1.3443117995e+02   4.6923877388e+01    0.1951315    0.1350691  45.96  0.001147467    1.487    0.327
        55  -9.8345     12.2100    118.9040   1.3390662751e+02   4.8699865949e+01    0.4572738    0.1672074  70.35  0.001733909    4.046    0.753
        56  -8.9242     40.9768    142.1167   1.2846139828e+02   4.1101742889e+01    0.2516349    0.1510905  38.17  0.001425004    1.663    0.399
        57  -7.7971    192.5198    116.4900   8.4776164112e+01   2.0236641115e+01    0.1505589    0.1364978   7.46  9.39079e-05    1.002    0.002
        58  -8.6002     14.6105    114.2487   1.3278486014e+02   4.9609224876e+01    0.1719629   0.08977533 -66.66 0.0009448886    1.581    0.368
        59  -9.3375     21.0905    110.9024   1.3052480676e+02   4.9941033114e+01    0.1921659     0.149583  75.74  0.001243372    1.248    0.199
        60  -8.7783     97.2899     28.4175   8.0223032362e+01   5.7200315247e+01    0.5368839    0.2541731 -16.08  0.001935019    2.941    0.660
        61  -8.2866    125.4109     29.1755   7.2569402693e+01   5.0530516204e+01    0.3378172    0.2321317  -4.71  0.001567183    1.635    0.388
        62  -9.3635     17.5408    103.7916   1.3078352719e+02   5.1835806176e+01    0.3140327    0.2515785  32.90  0.002106418    1.441    0.306
        63  -9.3316    104.9973     26.0914   7.6834652545e+01   5.5809697234e+01    0.4475394     0.311346  56.60  0.002190514    1.534    0.348
        64  -8.0952     22.6788     23.8313   1.1110271910e+02   6.9477807933e+01    0.2146706    0.1201528 -39.30  0.001194213    1.443    0.307
        65  -9.0980    132.5041     26.1672   6.9702118901e+01   4.9133099607e+01    0.3436887    0.2599698 -34.06  0.001108672    1.402    0.286
        66  -9.0905     69.0140    105.8143   1.1480619835e+02   4.6314564020e+01    0.2070315    0.1529266 -87.73  0.001063987    1.603    0.376
        67  -9.3856     30.0714    101.6500   1.2655242388e+02   5.1426648975e+01     0.303367    0.1583283 -50.90  0.001389454    1.778    0.438
        68  -8.8429     47.6281     99.1213   1.2042009611e+02   5.0415681466e+01    0.1980925    0.1004982 -53.65   0.00053542    1.740    0.425
        69  -7.9632     10.3216     22.3301   1.1748992203e+02   7.0630068304e+01    0.1315923   0.06567139 -35.75 0.0007049075    1.694    0.410
        70  -8.9053     57.9995     98.5153   1.1687968795e+02   4.9409119651e+01    0.1972503    0.1340941  29.72  0.001037749    1.606    0.377
        71  -9.4676     19.5840     88.9398   1.2818953632e+02   5.5172608125e+01    0.2976653    0.1910344 -73.97   0.00173959    1.330    0.248
        72  -8.9325      2.3350     89.0121   1.3398322996e+02   5.6093124246e+01      0.32152    0.1761156  89.55  0.001806921    1.695    0.410
        73  -8.2029      8.1410     16.8267   1.1680997237e+02   7.1864143529e+01    0.3218726   0.09598837 -33.21  0.001274016    3.511    0.715
        74 -11.8985     43.3465     82.9127   1.1872708098e+02   5.4664061576e+01     1.107831     0.775524 -33.56  0.005767445    1.512    0.338
        75  -9.9304     25.1295     65.0616   1.2191107480e+02   6.0358242153e+01    0.5869033    0.2316789 -54.38  0.002738751    1.947    0.486
        76 -10.9876      4.8837     76.3973   1.3162352009e+02   5.8888870058e+01    0.6560935    0.5615028  67.83  0.004153536    1.305    0.234
        77 -10.6598    183.8948    246.8318   1.1056027880e+02   2.5803632696e+00    0.4150307    0.1880009  36.73  0.002374445    1.626    0.385
        78  -8.3153    139.2017     78.3938   8.6401139287e+01   3.9239091433e+01    0.2212941    0.1492951  58.12 0.0008904315    1.684    0.406
        79 -10.4500     11.9410     70.3035   1.2810522178e+02   5.9958885106e+01    0.5061212    0.3310942 -61.30  0.002933427    1.212    0.175
        80  -8.8255     82.9972     68.9536   1.0058213657e+02   5.2567915747e+01    0.3263597    0.2517144 -50.18  0.001693344    1.300    0.231
        81  -9.2640     73.6681     68.4147   1.0377373169e+02   5.4179123069e+01    0.3397042    0.3043909  18.37  0.001580238    1.163    0.140
        82  -9.6503     47.8036     61.8682   1.1185557840e+02   5.9030301451e+01    0.4955468    0.3727078  -4.65  0.002804454    1.505    0.336
        83  -9.4836    227.9286     79.0017   6.8891531383e+01   1.8144357675e+01    0.4914306    0.3105122   0.30  0.001549796    2.039    0.509
        84  -8.8530     14.4813     61.5220   1.2554324593e+02   6.1843074221e+01     0.263778    0.1238692   8.99  0.001315366    2.684    0.627
        85  -8.3646     60.6492     63.2998   1.0714368790e+02   5.7151977260e+01    0.1327536    0.1087502  74.71 0.0004171719    1.692    0.409
        86  -8.2160     76.2013     60.2066   1.0019235686e+02   5.5523597992e+01    0.1852095     0.171624 -75.85  0.000514592    1.328    0.247
        87  -8.3688     92.2492     56.7912   9.3233031936e+01   5.3384503855e+01    0.2629183    0.2400391 -79.31  0.001431765    1.413    0.292
        88  -9.2176    199.1693     54.8553   6.6702404440e+01   2.8233416654e+01    0.2690233    0.2293213  26.00 0.0005770391    1.226    0.185
        89  -9.2852     66.2066     53.5325   1.0175807112e+02   5.8450767974e+01    0.4285241    0.1905399 -54.80  0.001670327    2.592    0.614
        90  -9.7242     35.9648     80.1702   1.2085823128e+02   5.5991279816e+01    0.3492693    0.2382835  79.36  0.001861545    1.867    0.465
