#   1 NUMBER                 Running object number                                     
#   2 MAG_AUTO               Kron-like elliptical aperture magnitude                    [mag]
#   3 X_IMAGE                Object position along x                                    [pixel]
#   4 Y_IMAGE                Object position along y                                    [pixel]
#   5 X_WORLD                Barycenter position along world x axis                     [deg]
#   6 Y_WORLD                Barycenter position along world y axis                     [deg]
#   7 A_WORLD                Profile RMS along major axis (world units)                 [deg]
#   8 B_WORLD                Profile RMS along minor axis (world units)                 [deg]
#   9 THETA_WORLD            Position angle (CCW/world-x)                               [deg]
#  10 FWHM_WORLD             FWHM assuming a gaussian core                              [deg]
#  11 ELONGATION             A_IMAGE/B_IMAGE                                           
#  12 ELLIPTICITY            1 - B_IMAGE/A_IMAGE                                       
         1 -12.3420     26.3796     56.4851   9.3758768549e+01   6.3084542200e+01     1.408116     1.049466 -13.93  0.008743728    1.309    0.236
         2 -11.4953     60.3051     46.3371   7.5958572117e+01   6.0664657566e+01     1.488978    0.7880878 -27.10   0.00687543    2.176    0.540
         3 -11.7125     61.3293     36.8810   7.1931134890e+01   6.2013628527e+01    0.7099442    0.5378022 -11.01   0.00224568    1.317    0.241
         4 -11.1258    154.7648     23.4510   4.3411495508e+01   4.3494266733e+01      1.37057    0.8201013  36.39  0.006569298    2.203    0.546
         5 -12.6326    120.1817     57.7216   6.0962768938e+01   4.7010792651e+01     2.432417     1.386788 -69.94  0.008212518    3.938    0.746
         6 -12.3815    124.9773     27.5153   4.9982098222e+01   5.0133638464e+01    0.7209126     0.591068  48.80  0.001370966    1.139    0.122
         7 -11.6784    140.6724     29.1180   4.7445929807e+01   4.6222630958e+01     1.230488    0.6897233  22.20  0.004825823    3.409    0.707
         8 -11.5769    136.6148     22.8068   4.6225496560e+01   4.7919677713e+01     1.049811    0.3569402  53.42  0.004157299    2.522    0.603
         9 -11.6720    130.7408     14.7657   4.4730112944e+01   5.0159403652e+01     3.380572    0.5536169  60.69   0.01053155    4.127    0.758
        10 -11.5580    165.2593     17.7274   4.0317507147e+01   4.1608815971e+01    0.5639491     0.336566  34.21  0.002696117    2.452    0.592
        11 -12.2762    159.7757     29.9748   4.4494943889e+01   4.1519713901e+01    0.4778005    0.4569001 -50.86    0.0011588    1.170    0.146
        12 -12.7222    116.1382     41.7236   5.6720363361e+01   5.0351249948e+01     1.696881    0.8638213 -59.14  0.006127418    3.626    0.724
        13 -12.6947    119.4023     37.9525   5.4676090738e+01   5.0119934345e+01    0.9406842    0.6154578 -65.71  0.003593131    2.171    0.539
        14 -12.6218    113.9472     25.3109   5.1626972774e+01   5.2939597901e+01    0.8474361    0.3857338  53.15  0.002526795    1.896    0.473
        15 -11.3235    145.5625     47.3766   5.2048857069e+01   4.2640205816e+01     1.084143    0.4323402 -27.86  0.003911805    3.232    0.691
        16 -10.9728      7.8336     34.5719   9.5589805655e+01   6.8783594811e+01     2.668806    0.3164961 -50.11  0.009490151    4.312    0.768
        17 -10.5738     46.9232     19.2389   7.0309133306e+01   6.6791927255e+01    0.3390039     0.259315 -11.22  0.001379642    1.206    0.171
        18 -12.0553     35.8927     17.6764   7.4523599701e+01   6.8592214039e+01    0.6227249    0.4860383 -38.61  0.002852921    1.525    0.344
        19 -12.0310     48.5008     12.9126   6.6745255850e+01   6.7326655890e+01    0.6339014    0.2801493  43.89  0.002707216    2.139    0.532
        20 -11.8476     27.2990     27.9586   8.3173967425e+01   6.8139874746e+01     0.558579    0.4126211   8.87  0.002690399    1.246    0.197
        21 -12.0189     20.1541     21.4627   8.4053143257e+01   6.9925551273e+01    0.6753873    0.2344941 -41.46  0.002475604    2.559    0.609
        22 -12.4940     17.1754     12.5418   8.1614129841e+01   7.1555675656e+01    0.6168619    0.4025888 -20.94  0.002915973    1.313    0.238
        23 -12.1541     22.7290     11.7196   7.8244720694e+01   7.1055792915e+01    0.4717388    0.2949765   2.74  0.002264683    1.571    0.363
        24 -10.9506    178.8093     21.2372   3.9520971662e+01   3.7994169387e+01    0.5334024    0.2744212  47.06  0.001880032    2.347    0.574
        25 -10.9612     86.8559      7.6228   5.1630736947e+01   6.0694668556e+01    0.5748193    0.3150145  59.37   0.00265966    1.687    0.407
        26 -11.2049     90.8123     21.2886   5.5954292508e+01   5.8476153215e+01    0.5454242    0.3626584 -20.70  0.002808849    1.664    0.399
        27 -11.3593     85.8875     14.4509   5.4634310875e+01   6.0237012959e+01     0.706145    0.4400965  14.88  0.003045938    1.977    0.494
        28  -9.7661     78.2574      7.4517   5.3929905940e+01   6.2476565038e+01    0.2515356    0.1547545  57.41 0.0008630956    1.548    0.354
        29 -11.3008     74.9831      3.4032   5.3156697974e+01   6.3495384462e+01    0.6073014    0.2827856  50.77  0.003136621    1.777    0.437
        30 -11.9065     68.2569     18.1398   6.1641055345e+01   6.3303221817e+01    0.4611571    0.3842651  24.25  0.001643651    1.027    0.027
        31 -11.4518    211.8951      9.4576   3.3372468194e+01   3.1730888435e+01    0.4917771    0.3461771   3.97  0.002445713    2.723    0.633
        32 -12.2662    238.0549     16.1358   3.2707532423e+01   2.5420269737e+01     1.086847    0.3845523  74.42  0.005092816    2.718    0.632
        33 -11.5114    227.4938     15.2547   3.3337416461e+01   2.7716614440e+01    0.4975997    0.2925293  87.56   0.00167685    1.550    0.355
        34 -10.1381    245.7509      1.3553   2.9333133126e+01   2.5538316343e+01     0.249151     0.115196  67.70  0.000830841    2.166    0.538
        35 -11.8407    247.4585      6.2786   3.0155112950e+01   2.4661672874e+01    0.5383778    0.4721453  57.64  0.002689563    1.635    0.388
        36 -10.9389    218.8413      3.3475   3.1519528145e+01   3.0874938369e+01    0.3254569    0.2485419 -46.85  0.001115131    1.326    0.246
        37 -10.7000    223.8472      2.0333   3.0886310490e+01   2.9946380654e+01    0.3212529    0.1873506  79.28 0.0008129466    1.518    0.341
        38 -10.6971    211.3177     17.8908   3.5280150159e+01   3.0911597334e+01    0.3213493    0.1920447 -37.82  0.001817176    1.687    0.407
        39  -9.2947    194.7669     19.3765   3.7248752683e+01   3.4479964035e+01    0.2820622    0.1230431  60.46  0.001017814    2.160    0.537
        40  -9.7045    191.4664     16.5384   3.6915735462e+01   3.5562365733e+01    0.2604069    0.2269799   3.01  0.001543818    1.637    0.389
        41 -11.5962    192.4585      7.8201   3.4734694429e+01   3.6270246394e+01    0.5829805    0.4427777  13.98  0.002952951    2.133    0.531
        42 -12.2477    104.6075     12.6030   4.9216580742e+01   5.6387318265e+01    0.4805509    0.4560522 -65.79  0.001727255    1.219    0.180
        43 -12.1827    232.0371      4.4495   3.0807382943e+01   2.7975879385e+01    0.8219608    0.3885703  81.13  0.001701895    1.925    0.480
        44  -9.6401      4.8423     12.5859   8.8654422492e+01   7.2689369726e+01    0.2534887    0.1708653  21.54  0.001771736    1.555    0.357
        45  -9.1765      5.3214      9.3140   8.6874181123e+01   7.3140859213e+01    0.1748132    0.1029644 -26.77  0.000709052    1.403    0.287
        46 -10.6014     65.8734     10.4443   5.9104106885e+01   6.4584634641e+01    0.3881973     0.193416  39.83  0.002025387    1.758    0.431
        47  -9.7441     62.5570      6.9373   5.8663002920e+01   6.5548936270e+01    0.3133321    0.1864023  25.14  0.001557145    1.680    0.405
        48  -9.8094    168.8922      9.7198   3.7716536373e+01   4.1576683561e+01    0.3138687     0.150943  53.52  0.001509405    2.069    0.517
        49  -9.1488    162.8467     10.1658   3.8573417622e+01   4.2967586418e+01    0.1752118    0.1360208  53.34 0.0006478573    1.338    0.252
        50  -9.5062      1.0000      8.1612   8.8955488989e+01   7.3656985959e+01    0.2072464   0.05206123 -48.08 0.0008940313    3.613    0.723
        51 -10.8908    184.1541      5.0921   3.4886630581e+01   3.8458875250e+01    0.3894885    0.3823919  16.56  0.002107051    1.356    0.263
        52 -11.1353    177.4088      5.9786   3.5797041824e+01   3.9941693604e+01    0.4377598    0.1916896  82.57 0.0008789905    2.280    0.561
        53  -9.9941    158.0100      3.9117   3.7461780395e+01   4.4710849062e+01    0.4494925    0.2489616  -9.55  0.002183437    2.779    0.640
        54  -9.2580    153.3989      7.0625   3.8929654626e+01   4.5515221672e+01    0.2290253    0.1464172  62.28 0.0006592409    1.365    0.268
        55 -10.5286     41.4793      4.4242   6.5613796320e+01   6.9381699082e+01    0.3708908    0.2081227   9.77  0.001861535    2.115    0.527
        56 -11.9281    134.5927      2.8285   4.0334846699e+01   5.0349015167e+01    0.4972838    0.2707485  80.45  0.001624222    1.844    0.458
        57  -8.8614    121.9782      5.2568   4.3175237889e+01   5.3092669164e+01    0.1621659    0.0955244  65.86 0.0003604374    1.459    0.315
        58  -9.8773    116.5209      2.5230   4.3229015666e+01   5.4581239980e+01    0.2872887    0.2277974   9.60   0.00171608    1.499    0.333
        59 -10.7149    105.0952      1.7491   4.5150109167e+01   5.7233880889e+01    0.5013598    0.2970933 -78.18  0.002286974    2.699    0.630
        60 -10.6733    110.1417      1.7002   4.4134334054e+01   5.6102203502e+01    0.5054653    0.2134759  73.43  0.002149454    2.647    0.622
        61  -9.2050     20.8277      3.4803   7.5121656067e+01   7.2342805282e+01    0.1850413    0.1217993  -5.07  0.001231383    1.358    0.264
        62 -11.2418      2.3928      2.0328   8.5116422573e+01   7.4426063748e+01    0.2819165    0.1624209   2.52  0.001368507    1.627    0.385
        63 -10.2284     11.7762      1.6436   7.9227504336e+01   7.3589639280e+01    0.4345334    0.1326407  33.03  0.002084692    3.179    0.685
        64 -10.2499    207.5075      2.5179   3.2213141724e+01   3.3428730185e+01    0.2444263    0.1892699  87.89 0.0008514918    1.113    0.101
        65 -10.3566    204.1919      1.6065   3.2278933805e+01   3.4255272481e+01    0.2761782    0.1530004  68.98 0.0009300339    1.639    0.390
        66  -9.4071    169.9009      2.9515   3.5829366543e+01   4.1991575070e+01    0.2136297    0.1237226 -67.77  0.001121419    1.801    0.445
        67  -8.6945     64.0000      1.9522   5.5904066233e+01   6.5746163816e+01    0.1675824   0.06542729 -23.64 0.0004425615    2.785    0.641
        68  -9.2937    151.8549      1.3850   3.7521820926e+01   4.6393211870e+01    0.2425445    0.1071003  75.41 0.0007718508    2.046    0.511
        69 -10.5140     82.2379      1.3196   5.0270630393e+01   6.2198534554e+01    0.1980529   0.09443805  55.52 0.0003265121    1.758    0.431
        70  -9.0698     33.7564      1.4479   6.7567250435e+01   7.0857772736e+01    0.1542149   0.08792736  27.24 0.0008196949    1.551    0.355
        71  -9.9904    142.6988      3.4779   3.9349257308e+01   4.8379429789e+01    0.3164544    0.2023026  85.98  0.001371703    1.529    0.346
        72 -10.8472     63.2615    150.6132   1.0153309666e+02   3.6656411587e+01    0.4654343    0.3196151  -0.23  0.001543064    2.257    0.557
        73 -10.1573    143.1066    249.8626   9.6901701669e+01   2.3626060475e+00    0.1980214    0.1550814  49.46  0.001238737    1.253    0.202
        74  -9.4949     71.4126    151.4875   9.9365178125e+01   3.5284011779e+01    0.2959969    0.1439041  33.50  0.001210444    2.164    0.538
        75 -10.2831    234.7583    149.2773   6.1110849996e+01   5.2741846574e+00     0.430861    0.1905372 -31.16   0.00175092    2.476    0.596
        76  -9.9715    239.6923    146.5735   5.9770027080e+01   4.9094469379e+00    0.2385119    0.1828592 -33.68 0.0006322431    1.134    0.118
        77  -8.9967    107.6227    145.7826   8.8139062417e+01   3.0723821558e+01    0.2128727    0.1439115 -66.74 0.0003320118    1.605    0.377
        78  -9.1996    104.8288    142.8369   8.8288456420e+01   3.1955106090e+01    0.2377559    0.1813735  81.09 0.0003720312    1.597    0.374
        79  -8.6469     93.5583    146.5844   9.2198950373e+01   3.3014505401e+01    0.1517115    0.1398977  83.25 8.039278e-05    1.073    0.068
        80 -10.9104     33.4394    144.3672   1.0915537964e+02   4.1789754536e+01     0.423728     0.271595  53.78  0.001534561    1.663    0.399
        81  -8.5781    182.2326    144.5994   6.9795299714e+01   1.6047504209e+01    0.1509291    0.1123153 -67.94 0.0005197786    1.663    0.399
        82 -10.8667    249.4615    141.5894   5.7271022614e+01   4.1387779352e+00    0.5244974      0.22296 -32.89  0.002240248    2.335    0.572
        83  -9.7619    132.9127    140.7108   8.0335515572e+01   2.7043039643e+01    0.3080307     0.231039 -59.47 0.0008266344    1.379    0.275
        84 -11.6257     23.4615    135.3698   1.1086514214e+02   4.4991693867e+01    0.7153602    0.4951848  36.14  0.004046487    1.599    0.375
        85 -11.8773     30.0205    132.8887   1.0855879699e+02   4.5013049399e+01    0.5380005     0.320884  89.44 0.0003452977    1.845    0.458
        86 -10.6045    217.2164    138.2415   6.1738847573e+01   1.0417055633e+01    0.3853088    0.3122474 -68.92  0.001069985    1.460    0.315
        87 -10.2185     70.2507    139.1858   9.7497742717e+01   3.8567559132e+01    0.2398919     0.168095 -44.47 0.0006954256    1.490    0.329
        88  -8.2525     53.2851    139.6438   1.0262234469e+02   4.0746501272e+01    0.1478519     0.102294  76.18 0.0007020886    1.671    0.402
        89  -9.8343     80.1493    137.0466   9.4156345702e+01   3.7603883319e+01    0.4442543    0.2898868 -22.65  0.001831385    2.368    0.578
        90 -10.1598     47.1005    135.2869   1.0375585536e+02   4.2598135322e+01    0.4722672    0.2107812 -68.45  0.001600898    2.131    0.531
        91 -10.0397     39.9899    138.0376   1.0632870244e+02   4.2702061300e+01    0.3114483    0.1826973  41.46   0.00123012    1.805    0.446
        92  -8.6349    191.7015    136.3013   6.6021933953e+01   1.5805660081e+01    0.1452168     0.115232 -77.60 0.0003173457    1.581    0.367
        93  -9.8922    245.0116    134.7192   5.6538808250e+01   6.0494628340e+00    0.1769587    0.1604183 -36.78 0.0004174204    1.071    0.067
        94 -10.5505     93.4186    129.9809   8.8757367670e+01   3.7152951202e+01    0.4426397    0.3324618 -49.55  0.002143922    1.297    0.229
        95 -10.0204     73.9923    132.6819   9.5118266879e+01   3.9651643870e+01    0.2789556    0.1993875 -38.05 0.0009656735    1.553    0.356
        96  -9.9060     61.3140    132.3275   9.8903454250e+01   4.1556728694e+01    0.4350627    0.3163444  -6.43  0.002089173    1.929    0.482
        97  -9.1877     38.2352    133.2049   1.0611360516e+02   4.4109570648e+01    0.1958038    0.1498412  75.27  0.001068956    1.388    0.279
        98 -10.2826    103.7841    130.9747   8.5985734258e+01   3.5043038550e+01    0.2511455    0.2200732  48.12 0.0002459541    1.163    0.140
        99 -10.7065      9.7279    127.9720   1.1402400613e+02   4.7909456068e+01    0.4702691    0.2313126 -56.56  0.001874833    1.729    0.422
       100 -10.0384     81.0622    125.0283   9.1362953046e+01   4.0454017303e+01    0.4686298    0.3477497  13.13  0.002222269    1.714    0.416
       101  -8.9137    223.6541    126.7751   5.8182262826e+01   1.1302551744e+01    0.2008646    0.1135448 -47.80 0.0004355129    1.640    0.390
       102  -9.5146     41.0416    126.6293   1.0417682596e+02   4.5464176329e+01    0.2301183    0.1720607 -77.96 0.0004575318    1.278    0.218
       103 -10.6233     22.8206    127.0484   1.0992125289e+02   4.7122031051e+01    0.1965923    0.1835704 -51.07 0.0002912898    1.159    0.137
       104  -9.9783    239.1932    125.6074   5.5519450654e+01   8.6377930543e+00    0.2734561   0.08834706 -42.22  0.001024715    2.622    0.619
       105  -9.9430     53.4550    125.2985   1.0002542626e+02   4.4349180662e+01    0.3627023     0.166949 -50.41  0.000993536    2.015    0.504
       106  -9.5181     56.5615    122.2798   9.8456740235e+01   4.4709405546e+01    0.2016856    0.1622485 -31.96 0.0008383453    1.370    0.270
       107  -9.7507      2.1440    125.9523   1.1605525509e+02   4.8900740952e+01    0.2306671    0.1696114  87.07 0.0007307908    1.260    0.206
       108 -12.3595    103.8831    122.4394   8.3969618083e+01   3.7081195672e+01    0.4509555    0.4036793   4.00 0.0006232523    1.283    0.220
       109  -8.7298     60.0109    123.9720   9.7696280413e+01   4.3832143936e+01    0.1687041    0.1632647 -73.93 0.0004627366    1.057    0.054
       110 -10.0122     49.5213    123.1647   1.0087402213e+02   4.5365529474e+01    0.3229626    0.2470394  -2.73  0.001197351    1.669    0.401
       111 -11.0811     44.8976    119.1111   1.0160608713e+02   4.6916281777e+01    0.5754612    0.3478523  89.87  0.002432704    2.201    0.546
       112  -9.8132     18.9750    122.7017   1.1050160451e+02   4.8516779566e+01     0.218722    0.1604325 -72.98  0.000525472    1.166    0.142
       113  -8.5850    143.4962    122.4482   7.3358862010e+01   2.8990025603e+01    0.1543269     0.151327 -73.68 0.0002229583    1.007    0.007
       114  -9.2138     71.3495    120.8872   9.3472843153e+01   4.2990397126e+01    0.2104024    0.1759719 -53.89 0.0006453051    1.122    0.109
       115  -8.9654    221.4861    120.4983   5.7165705263e+01   1.2858171603e+01    0.1409076    0.1240208 -50.04 0.0002512638    1.039    0.038
       116 -10.5275     33.8865    118.8342   1.0513581203e+02   4.8150741885e+01    0.2194306    0.1610974 -44.74 0.0008265599    1.336    0.252
       117  -9.2523     58.2887    118.0604   9.7048930396e+01   4.5532730579e+01    0.2119948    0.1717323 -58.42  0.001142676    1.128    0.114
       118  -9.4900    113.6888    116.0943   7.9615067122e+01   3.6668030642e+01    0.2964412    0.1864702 -46.32  0.001273711    1.567    0.362
       119 -11.7799     49.2665     99.7220   9.6104433275e+01   5.1130314558e+01     1.600754    0.5110815 -49.51  0.005820755    2.715    0.632
       120 -11.1161     17.0624    101.0463   1.0776355764e+02   5.3935939707e+01    0.3338086    0.2610445 -28.68 0.0003438015    1.364    0.267
       121 -11.5537      9.6478     97.3894   1.0976355235e+02   5.5312335825e+01    0.5500249    0.4598033   5.09 0.0008749412    1.414    0.293
       122 -11.8474      7.1703     88.8421   1.0922071560e+02   5.7461840955e+01    0.6501182    0.4411303  26.66  0.002328081    1.735    0.424
       123 -11.7696     18.1899    106.7710   1.0833385725e+02   5.2475643896e+01    0.6213354    0.2530245 -43.15  0.002671476    2.476    0.596
       124 -11.4363     26.8866     86.4505   1.0131565117e+02   5.6572733162e+01    0.5993698     0.545801  -5.17  0.001067156    1.193    0.162
       125 -11.9367     34.7257     93.8347   1.0000912439e+02   5.4124089227e+01    0.7293239    0.4742481 -36.49  0.003385239    1.535    0.349
       126 -12.2819     42.7572     85.6896   9.5112115964e+01   5.5151024456e+01     1.003973    0.4320322  23.94  0.001619009    2.680    0.627
       127 -12.9500     25.6048    111.4564   1.0661157809e+02   5.0734327451e+01     1.535833     1.027172 -41.68  0.008412411    1.486    0.327
       128 -11.7484     22.5782     94.9324   1.0467616532e+02   5.4961245635e+01    0.4432933    0.3062469   7.57 0.0007448086    1.718    0.418
       129 -11.4645     18.3469     90.3728   1.0534812318e+02   5.6359623926e+01    0.4473124    0.2592033 -60.43  0.001743748    1.435    0.303
       130  -9.8020     79.1639    114.4547   8.9550311027e+01   4.3347678421e+01    0.3503257    0.2428869 -72.82  0.001608045    1.678    0.404
       131 -10.1755      6.9708    114.4914   1.1318014036e+02   5.1384021893e+01    0.2817891    0.2411939 -85.12  0.001216982    1.118    0.106
       132 -12.8997      2.6475    110.2535   1.1401758037e+02   5.2665959815e+01    0.7593079     0.255786 -61.48 0.0006750275    2.162    0.538
       133  -9.5884     67.0089    114.4895   9.3452579860e+01   4.5203467148e+01    0.3260368    0.2355295  71.04  0.001548615    1.789    0.441
       134  -9.7348     66.1149    110.8099   9.2912638095e+01   4.6228794417e+01    0.3855984    0.2177806  26.82  0.001687211    2.025    0.506
       135  -9.4172    126.9798    113.5066   7.5325156149e+01   3.4518199043e+01     0.233274    0.1540745  43.64 0.0005557784    1.538    0.350
       136 -10.7217    107.4918    112.0175   8.0346724282e+01   3.8838408888e+01    0.7017711    0.5809676  78.90  0.003445477    1.426    0.299
       137 -10.3574    101.5224    109.4560   8.1438872987e+01   4.0584651948e+01    0.3576799     0.321954 -49.68   0.00143124    1.083    0.077
       138  -9.6540    103.2372    105.9726   8.0022644028e+01   4.1054575101e+01    0.3596584    0.3006096  38.33 0.0006846449    1.229    0.186
       139  -9.7380     94.2487    112.5072   8.4398046331e+01   4.1224465506e+01    0.3001111    0.2478995 -72.86  0.001365307    1.320    0.242
       140  -9.9513     48.8991    112.5477   9.9005306197e+01   4.8073937539e+01    0.2685165    0.2320777  78.30  0.001035282    1.276    0.216
       141 -10.6762    170.4050    110.4837   6.4237101890e+01   2.5588488878e+01    0.4384271    0.3283085 -37.67  0.001247077    1.348    0.258
       142 -10.4611    175.1052    107.7464   6.2585006802e+01   2.5084304226e+01    0.3051462    0.2636112  -4.21 0.0006716362    1.430    0.301
       143 -10.0912    132.4432    111.7240   7.3435311233e+01   3.3747222904e+01    0.4770527    0.2122909 -57.60  0.001528445    3.041    0.671
       144 -10.1045    120.6817    109.0448   7.5863362007e+01   3.6840811117e+01    0.3595034    0.2823648  17.13  0.001358186    1.588    0.370
       145 -11.5330     79.6712    108.1916   8.7879423542e+01   4.4766378576e+01    0.6609529      0.35903  29.69  0.001153847    2.091    0.522
       146 -11.5664     88.4342    103.9094   8.4005291605e+01   4.4276094340e+01    0.5901089    0.3968135  40.39 0.0009242163    1.536    0.349
       147  -9.2087     58.9821    109.7780   9.5044199456e+01   4.7473031031e+01    0.2300973    0.1527996  60.28  0.000636165    1.944    0.486
       148  -9.8764    157.3882    106.1869   6.5975974936e+01   2.9392883966e+01    0.3238884    0.2426033  21.36  0.001001711    1.795    0.443
       149 -10.7926    143.4979    106.0112   6.9174088370e+01   3.2552711653e+01    0.3692749    0.3210488 -59.49  0.001255897    1.158    0.137
       150 -11.5223    145.4702    100.0855   6.7129814727e+01   3.3343921820e+01    0.3956375    0.3556856 -39.84 0.0003961553    1.130    0.115
       151  -9.8380     57.1191    102.6773   9.4055912057e+01   4.9430804060e+01    0.2525116    0.1910661 -68.38  0.001318048    1.360    0.265
       152 -10.1741    120.5008    101.5132   7.3902323374e+01   3.8537743115e+01    0.3390094    0.2382951  -3.35 0.0009690951    2.341    0.573
       153  -8.8265    209.0000    100.9742   5.4785329132e+01   1.8937152286e+01     0.267103    0.1536634 -36.59 0.0007049732    1.697    0.411
       154  -9.5712    209.6674     97.6885   5.3917297698e+01   1.9383670546e+01    0.2610474    0.2057159 -57.43  0.001254913    1.191    0.161
       155 -11.8090     76.6120     80.1185   8.1257989836e+01   5.1584797993e+01     1.137866    0.7892779 -80.51  0.003017718    2.437    0.590
       156  -9.7025     77.5232     96.5723   8.5599988440e+01   4.7824691703e+01    0.2363792     0.211519   8.56 8.186029e-05    1.194    0.162
       157  -9.9913     82.7620     93.4161   8.3014046122e+01   4.7653043568e+01    0.3160968    0.2280419  32.61 0.0009165331    1.454    0.312
       158 -10.6490     77.9716     93.0095   8.4487682004e+01   4.8556108171e+01    0.4666045    0.3354182  35.02  0.001596694    1.448    0.309
       159 -10.2424     57.6948     97.8179   9.2694103742e+01   5.0502613866e+01    0.2359826    0.1596191 -41.13    0.0011744    1.429    0.300
       160 -10.4269     43.0699     94.6815   9.7158527248e+01   5.3042473284e+01    0.3349143    0.3079712  20.93  0.001345192    1.198    0.165
       161 -11.1042     67.5588     95.9450   8.8801492903e+01   4.9535192437e+01    0.5989981    0.4569782 -28.10  0.003096862    1.408    0.290
       162  -9.5236    181.0091    103.0506   6.0248277975e+01   2.4678111867e+01    0.2539408    0.1801707 -74.74  0.001143149    1.782    0.439
       163 -10.1549    116.9888     94.0972   7.2819599488e+01   4.0869526898e+01    0.4134979    0.3152202   6.92  0.001881029    1.797    0.443
       164 -11.2146    124.9238     93.7891   7.0575271693e+01   3.9226470028e+01     0.636117    0.3459456  46.05   0.00143575    1.843    0.457
       165 -10.3545    120.8438     88.9999   7.0311442415e+01   4.1100207934e+01    0.3918218    0.3168736  12.21  0.001071256    1.537    0.349
       166 -10.6099    120.1968     85.3721   6.9436967540e+01   4.1973596242e+01    0.3581207    0.2874439  43.33   0.00158666    1.247    0.198
       167  -9.5582    160.3729     93.9314   6.2118846317e+01   3.1158845664e+01    0.3505027    0.2191158  70.09  0.001449429    2.018    0.504
       168 -10.8133    152.4221     92.2133   6.3404064580e+01   3.3331887569e+01    0.4942089    0.3169878  51.43  0.001899969    1.563    0.360
       169  -9.6077    104.5107     93.7045   7.6295427070e+01   4.3525035270e+01    0.3032459    0.2112077 -80.56  0.001258708    2.235    0.553
       170  -9.0270    137.9342     93.5308   6.7172875625e+01   3.6385650034e+01     0.227575    0.1302488  28.45 0.0008084706    2.717    0.632
       171 -10.5374     98.9128     91.1586   7.7258117583e+01   4.5176517274e+01    0.3232069    0.2597203  40.55 0.0006410543    1.262    0.208
       172 -10.9782     89.5902     89.9235   7.9820584520e+01   4.7205016562e+01    0.5671754    0.2697666 -44.65   0.00165046    2.057    0.514
       173  -9.3502     92.7059     85.7165   7.7610473958e+01   4.7524498719e+01    0.2606117    0.2024484  26.23 0.0006267067    1.387    0.279
       174 -10.6323    183.4035     85.4794   5.5397322016e+01   2.7403677210e+01    0.7761071    0.2894487 -48.94  0.002682442    2.823    0.646
       175 -10.0478     66.5635     88.7855   8.7240614256e+01   5.1309347890e+01    0.3180951    0.2273193  -9.25  0.001004763    1.796    0.443
       176 -10.4450     67.1807     82.2276   8.5180833037e+01   5.2656535774e+01    0.4022896    0.3142217 -40.46  0.001893865    1.207    0.171
       177 -10.5340    104.9392     86.7614   7.4170889913e+01   4.4906666869e+01     0.500558    0.3046309 -25.23  0.002020064    2.249    0.555
       178 -11.1675    113.7733     83.6800   7.0712439831e+01   4.3696398982e+01    0.5150556    0.3802673 -58.32  0.002460962    1.511    0.338
       179 -10.7216    109.0063     80.9563   7.1257940261e+01   4.5246566236e+01    0.3502184    0.3271202  -7.05  0.001124653    1.118    0.106
       180 -11.1331    142.6214     84.4742   6.3517489858e+01   3.7095427643e+01    0.6041859    0.3130199  43.13 0.0008720841    2.058    0.514
       181 -10.2082    165.5806     83.8852   5.8366571683e+01   3.1840761527e+01    0.3713976    0.2875536 -51.24  0.001217018    1.269    0.212
       182  -9.9614     46.9975     74.8454   9.0589560098e+01   5.7042439492e+01    0.3974132    0.2234691 -48.55  0.000911644    1.597    0.374
       183 -11.0132     60.6925     83.6063   8.7906833502e+01   5.3318316847e+01    0.2974751    0.2377853 -55.36 0.0003191478    1.247    0.198
       184 -11.6963     53.2550     75.7623   8.8442401623e+01   5.6043601760e+01    0.6415932    0.3979701 -52.42  0.003235508    1.541    0.351
       185 -10.8550     58.1020     77.6683   8.7169305066e+01   5.4972498769e+01    0.3685826    0.2575727 -53.08 0.0007359057    1.404    0.288
       186  -9.9319    127.2423     82.7875   6.6819361176e+01   4.0926088217e+01    0.3575303    0.2553852 -69.72  0.001290635    1.819    0.450
       187 -10.4747    126.8673     77.0045   6.5212282191e+01   4.2114361032e+01    0.2898598    0.2626743  22.41   0.00155449    1.196    0.164
       188 -11.8320    122.9963     68.9527   6.3768991451e+01   4.4459182028e+01    0.5553575     0.525652  36.08  0.001537074    1.061    0.057
       189 -10.4977    103.5683     74.8510   7.0983585478e+01   4.7570669868e+01    0.4725747    0.3554731 -74.53  0.002233137    1.840    0.456
       190  -9.9524    233.0495     77.5851   4.6092154563e+01   1.7905002192e+01    0.2947911    0.2135823 -37.16  0.001372201    1.357    0.263
       191  -9.8598     13.9418     67.4782   1.0214672977e+02   6.1813365964e+01    0.4405454    0.2274594   9.66  0.002283056    2.271    0.560
       192 -11.8455     37.4365     71.6810   9.3492144769e+01   5.8825165633e+01     1.197244    0.5046977  18.46  0.004905211    3.049    0.672
       193  -9.4074    213.5091    248.4824   8.2990637541e+01  -7.5529503848e+00    0.1196582   0.09432211   7.35 0.0008102314    1.025    0.025
       194 -11.5522     20.9753     46.5389   9.3098670539e+01   6.5516789954e+01     1.242819    0.3240643 -47.06  0.004148078    2.956    0.662
       195  -9.8113    175.0325    247.1434   9.0123231222e+01  -1.9642934484e+00    0.2098242     0.182879 -21.07  0.001418766    1.239    0.193
       196  -9.2568    163.5799    243.6979   9.1910812496e+01   2.9689151017e-01    0.2200431    0.1355903  48.79  0.001174478    1.748    0.428
       197 -11.3712     26.7637     47.3533   9.0672903619e+01   6.4819687262e+01    0.5899965     0.295171 -20.94  0.002706887    2.594    0.614
       198 -11.7368      1.9586     71.3206   1.0799142116e+02   6.1698719961e+01    0.7592483    0.2305511 -67.33  0.003128335    2.886    0.654
       199 -13.2461      5.2989     61.9289   1.0454980240e+02   6.3543877009e+01    0.5797582    0.3757357   4.37  0.001786885    1.721    0.419
       200 -11.6134     53.2860     50.0112   8.0089685334e+01   6.1093446643e+01    0.4956839    0.3723074  48.40  0.002830142    1.659    0.397
       201 -13.2827     42.6435     45.4574   8.2893118774e+01   6.3357008421e+01    0.8431093    0.5528625  44.73 0.0007923928    1.919    0.479
       202 -12.2946     58.2268     29.8763   7.0297181452e+01   6.3553445874e+01    0.4792725    0.2815565  29.30  0.001182456    1.667    0.400
       203 -11.4880     49.0545     30.6445   7.4344642525e+01   6.4880807053e+01    0.8623493    0.2587321  37.12  0.002718547    3.276    0.695
       204 -11.1835     40.9535     57.0492   8.7623711091e+01   6.1414467705e+01    0.4012508    0.2468261  33.02  0.001501401    1.732    0.423
       205 -11.7985     51.7548     61.4873   8.4638440791e+01   5.9165088100e+01    0.3939703    0.3039034  50.99  0.002221304    1.658    0.397
       206 -11.9494     44.7309     60.2839   8.7095974585e+01   6.0319592847e+01    0.7584732    0.4002453 -26.55  0.002639139    2.329    0.571
       207 -10.3774     94.8323     76.2968   7.4096515463e+01   4.9041548354e+01     0.535072    0.3392797  37.21  0.001441899    1.611    0.379
       208 -11.5033     85.6231     73.4374   7.6164382770e+01   5.1355264305e+01    0.8520877    0.5380351  43.13  0.004036753    1.608    0.378
       209 -11.5578     91.5495     63.1018   7.0894286392e+01   5.2181405427e+01     1.109734    0.4324789  50.28  0.003993416    2.838    0.648
       210 -11.0758     87.7009     56.7339   6.9971054334e+01   5.4054251784e+01     1.204515    0.6392707 -56.45   0.00476208    2.912    0.657
       211 -11.4928     76.5563     64.8247   7.6461020160e+01   5.4649817175e+01    0.8300819    0.5066708 -67.20  0.001153785    3.027    0.670
       212 -12.1063     75.1800     54.7036   7.3487387585e+01   5.6732131267e+01    0.8049482    0.5130708 -58.22    0.0032897    2.207    0.547
       213 -11.1491     72.9055     47.5453   7.1716783541e+01   5.8346036258e+01    0.9399174    0.5078335  51.34  0.002642804    2.178    0.541
       214  -8.3045     38.3129     78.6378   9.5015839005e+01   5.7219458132e+01     0.129811    0.1025639  77.53 0.0007041219    1.754    0.430
       215 -12.2009    186.4443     70.7017   5.1127810346e+01   2.9243566261e+01    0.8772113      0.57033 -42.17  0.002999049    1.486    0.327
       216  -9.5003     63.1735     75.8434   8.4754335679e+01   5.4622711060e+01    0.3704522     0.287106  87.83  0.001872748    1.966    0.491
       217 -10.1928     80.5269     98.4733   8.5115091106e+01   4.6891220632e+01    0.2936921    0.2731237  -3.12 0.0009718566    1.124    0.110
       218  -9.8744    184.4820     61.4813   4.9091828871e+01   3.1187237166e+01    0.3221582     0.229324 -43.60  0.001344712    1.371    0.270
       219  -9.7594    103.4245     79.5061   7.2456548419e+01   4.6688887864e+01    0.3380924    0.1394433 -43.05 0.0009387724    2.432    0.589
       220 -10.0564    152.9656     72.9110   5.7952435646e+01   3.6786057409e+01    0.5471587     0.224395  42.08  0.001845722    3.090    0.676
       221  99.0000     24.5056     73.5990   9.9251025995e+01   5.9663155738e+01    0.9928626          nan -57.65  0.002390324    7.327    0.864
       222  -9.2607     23.0000     68.9372   9.8696166152e+01   6.0801752202e+01    0.3024041   0.09726354 -50.76   0.00097291    2.400    0.583
       223  -9.3409     21.5835     65.1295   9.8300504844e+01   6.1730812571e+01    0.1944764     0.104892 -52.84   0.00102138    1.560    0.359
       224 -11.6302     13.9709     74.7905   1.0381874399e+02   6.0215160971e+01    0.5321052    0.3447416 -64.98  0.002329572    1.419    0.295
       225  -9.6505    162.0659     70.7770   5.5513293184e+01   3.4990590848e+01    0.3043123    0.2303772 -65.56  0.001515864    1.420    0.296
       226  -9.7696    172.3009     68.3535   5.2941423549e+01   3.2961905157e+01    0.3174367     0.249967 -23.97  0.001447695    1.512    0.339
       227 -10.4675    170.2229     63.7287   5.2073139157e+01   3.4212373581e+01    0.4856874    0.3291658 -85.95   0.00208056    1.809    0.447
       228 -11.3765    219.9372     66.6015   4.5305813841e+01   2.2374837751e+01    0.5474952     0.330064  62.56   0.00247326    1.736    0.424
       229 -10.8038     59.0827     62.7036   8.2167422333e+01   5.7884415089e+01    0.4588025    0.3970116 -41.58  0.001925988    1.165    0.142
       230  -9.6577     64.7364     61.2445   7.9538032620e+01   5.7297055488e+01    0.3038604    0.1494333 -47.18  0.001017237    2.039    0.509
       231  -9.7661    192.3855     65.7409   4.8939802895e+01   2.8669818534e+01    0.2677639    0.1962806 -75.46 0.0007032391    1.431    0.301
       232 -10.3795    199.9579     63.8603   4.7356926868e+01   2.7228811705e+01    0.5135329    0.3003767 -88.15  0.002241789    2.281    0.562
       233 -11.4729    234.5221     61.1596   4.2377090906e+01   2.0139955377e+01    0.4860289    0.3726899  89.45   0.00218978    1.293    0.226
       234 -10.5528     91.9875     57.5018   6.8869532333e+01   5.3080284702e+01    0.3233386    0.2535996  51.17 0.0009903931    1.321    0.243
       235 -10.3551    158.6447     62.3266   5.3829184098e+01   3.7210458416e+01     0.576493    0.2586389  54.03  0.002309783    2.130    0.530
       236 -11.1558    156.6735     53.0083   5.1566038598e+01   3.9136792016e+01     1.014058    0.5929476 -39.50  0.004739176    1.744    0.427
       237 -11.3992    127.4984    242.0793   9.9114033780e+01   6.1045495334e+00     0.340224    0.3158827  60.64   0.00173129    1.133    0.117
       238  -9.8445     67.9707    240.4995   1.1135003732e+02   1.5092953976e+01     0.190401    0.1069228  38.53  0.001030588    1.584    0.369
       239 -11.3658    148.3106    237.8877   9.4211765212e+01   3.6336095335e+00    0.4864292    0.2885919  37.92  0.002209417    1.458    0.314
       240  -9.8391    167.5085    237.5130   9.0211422702e+01   7.2625936270e-01    0.1282951    0.1104498  23.58  0.000810488    1.004    0.004
       241  -9.6437    177.6667    236.6518   8.8034440351e+01  -6.7879799440e-01    0.1330919    0.0907758  -0.27 0.0001531599    1.772    0.436
       242 -11.0079    198.3223    233.0208   8.3405109486e+01  -3.1713278685e+00    0.3465064    0.3235294 -10.28  0.002398242    1.222    0.182
       243 -12.7362    152.9651     35.7741   4.7264582645e+01   4.2437556383e+01    0.3350245    0.2986721  67.19 0.0004463813    1.061    0.057
       244 -10.1793    247.5438    232.0032   7.4333794338e+01  -9.6349833414e+00    0.2133363    0.1673747 -43.79  0.001067114    1.743    0.426
       245 -10.0315    242.7957    232.2363   7.5178251896e+01  -9.0826659231e+00     0.222915    0.2038573  -2.52  0.001666637    1.377    0.274
       246 -10.8450    164.0258     27.6628   4.3210886849e+01   4.0774864243e+01    0.2663278    0.2328634 -46.34 0.0005020977    1.224    0.183
       247  -9.6024     23.9405    231.9563   1.1956555990e+02   2.2216112761e+01    0.2014062    0.1025614  61.45 0.0009286667    1.661    0.398
       248  -9.3981     15.3458    233.6285   1.2133260634e+02   2.2780212396e+01     0.215052    0.1213192 -80.24  0.001308301    1.612    0.380
       249  -9.2795    108.5179    229.5046   1.0157009352e+02   1.1434694764e+01    0.1341033    0.1141189  53.67 0.0008099991    1.045    0.043
       250  -8.3950    206.2856     61.3321   4.5871465171e+01   2.6189761215e+01    0.1253635    0.1092885  16.30 0.0002758861    1.618    0.382
       251  -9.9971    149.3124     60.9877   5.5302206208e+01   3.9661924422e+01    0.5223034    0.2051006  57.21  0.001932377    2.453    0.592
       252 -11.2174    106.1407     58.3801   6.4943818340e+01   5.0002199471e+01    0.5738071    0.2990945  57.89  0.001224009    2.185    0.542
       253  -9.3000    181.3235    228.3119   8.5994163884e+01   1.4299705698e-01    0.1324682   0.09276593   0.83 0.0007039471    1.656    0.396
       254 -10.4406    244.9516     51.2874   3.9229899270e+01   1.9467745268e+01    0.2425942    0.1707963 -81.87 0.0006524917    1.367    0.269
       255 -10.2275    238.0843     55.8606   4.0868371822e+01   2.0192208123e+01    0.2107054    0.1601692 -45.36  0.001293357    1.223    0.182
       256 -10.5048    240.3151     50.5579   3.9532341005e+01   2.0499609886e+01    0.3256797     0.239475 -60.21  0.001590854    1.120    0.107
       257 -10.1098     66.7269     54.4323   7.6450007264e+01   5.8226075626e+01    0.4204054    0.2211988 -51.62  0.001877205    2.283    0.562
       258  -9.2539    187.9482     55.0962   4.6934819349e+01   3.1351683469e+01    0.2552252    0.1780668  61.39  0.001334633    1.416    0.294
       259  -9.7978    211.4593     53.1680   4.3291963890e+01   2.6256822505e+01    0.2500499    0.1831049  74.47  0.001417093    1.343    0.256
       260 -11.3220    201.1021     46.6183   4.3041325339e+01   2.9534659981e+01    0.8647262    0.4325604 -54.40   0.00396319    1.991    0.498
       261 -10.4580    175.1364     49.1390   4.7342579953e+01   3.5266118309e+01    0.3242042    0.2734497  77.56  0.001055674    1.105    0.095
       262  -9.9767    171.5036     47.5137   4.7482887373e+01   3.6370074563e+01    0.3062679    0.2624896 -10.35  0.001448262    1.495    0.331
       263  -8.8622    215.6616     49.3074   4.1903711921e+01   2.5885101701e+01    0.1416166   0.08649764 -68.84 0.0007042414    1.681    0.405
       264 -11.8456    106.3895     32.4379   5.5946866125e+01   5.3778333427e+01    0.5213718    0.3154031  19.10  0.002070742    2.420    0.587
       265  -9.5375     91.0244     48.2665   6.5950330199e+01   5.4791932503e+01    0.3118895    0.2072496 -59.67  0.001465036    2.183    0.542
       266 -10.7757     12.7040     48.0785   9.7492015157e+01   6.5889295363e+01    0.3598958    0.1775302 -32.15  0.001808758    1.902    0.474
       267  -9.6715     17.5219     41.8636   9.3201123564e+01   6.6693933224e+01    0.2689162    0.1527047 -24.31  0.001362754    1.735    0.424
       268  -9.7120    233.8463    223.1465   7.5200235321e+01  -6.6520224847e+00    0.1738445    0.1218753  -3.95  0.000845043    1.334    0.250
       269 -10.4031    164.6796    212.2896   8.6816111418e+01   5.6690771290e+00    0.2535815    0.2131268  37.79 0.0007026697    1.135    0.119
       270  -9.9120    153.5078    207.7353   8.8470391299e+01   8.4328856309e+00    0.2729661    0.2194433  52.17 0.0008087803    1.304    0.233
       271  -9.5764     61.2314    206.5468   1.0948355866e+02   2.3285770459e+01    0.2260475    0.1711544 -79.66 0.0007247296    1.265    0.210
       272  -9.3089    243.2973    206.3427   7.0631424360e+01  -5.4317725086e+00    0.1275315   0.08137923  -8.39  0.000629935    1.667    0.400
       273 -11.6131     13.9344     23.5778   8.8242812851e+01   7.0189514927e+01    0.2442867     0.182017 -27.25 0.0001201243    1.106    0.095
       274  -9.3241    123.9336    205.9152   9.4833214757e+01   1.3835904802e+01    0.1947196    0.1778375   7.39            0    1.228    0.186
       275 -10.3626    237.9225    204.2303   7.1171766551e+01  -4.3711639583e+00     0.262863    0.2498652  76.17  0.001796082    1.626    0.385
       276  -9.1224    196.3952    205.1767   7.9044625073e+01   1.7407738863e+00    0.1745314    0.1243916 -50.32 0.0006214266    1.623    0.384
       277 -10.8162    134.9747     45.7276   5.3713819981e+01   4.5404228708e+01    0.4371858    0.2434224  60.09 0.0007158163    1.701    0.412
       278 -10.8379    139.7538     43.9387   5.2169081413e+01   4.4519705155e+01    0.3857944    0.3336727 -54.51  0.002213213    1.213    0.175
       279 -10.2797    136.3349     56.7915   5.6828539569e+01   4.3417328157e+01    0.9028097    0.4408775 -32.29  0.003620024    2.279    0.561
       280  -9.8766    176.9416     43.6271   4.5607627165e+01   3.5614087989e+01    0.2561484    0.1735811 -66.71  0.001304636    1.552    0.356
       281 -10.3693    189.1575     41.1624   4.3253881918e+01   3.3058901524e+01    0.4626351    0.1970474 -30.96  0.001740066    2.658    0.624
       282 -10.7317     94.2426     41.2503   6.2454704827e+01   5.5192913092e+01    0.6763476    0.2728796  48.67  0.002768366    2.291    0.563
       283  -8.9044     86.1325     31.1272   6.1115838546e+01   5.8245995552e+01    0.3942771    0.3083309  34.25   0.00106027    1.169    0.145
       284 -10.5774     81.7811     31.3748   6.2568136186e+01   5.9080605354e+01    0.4066679     0.247447 -59.49  0.001786262    3.025    0.669
       285 -10.5330     81.6412     40.1531   6.5973632804e+01   5.7878235059e+01    0.5962946    0.3515752  55.13  0.002697359    1.914    0.477
       286 -10.5806     78.5163     34.4993   6.4843342179e+01   5.9289189647e+01    0.4499377    0.2924799  41.53  0.001966475    1.423    0.297
       287  -9.7560    231.6562     39.0878   3.7969857165e+01   2.3862631265e+01    0.2711025    0.1557257 -48.65  0.001241738    1.484    0.326
       288  -9.2253    217.4082     39.1927   3.9429113159e+01   2.6902036389e+01    0.1895029   0.09962043 -48.73 0.0009532432    1.683    0.406
       289 -11.2491    176.9062     36.7377   4.3799907856e+01   3.6549579876e+01    0.4126034    0.3510891 -24.82  0.002445188    1.413    0.292
       290 -10.7984    174.3543     31.6832   4.2825181831e+01   3.7805574548e+01    0.6858171     0.282874  47.31  0.001550988    2.975    0.664
       291  -9.1673    193.5304     38.5572   4.2041480927e+01   3.2388187338e+01    0.2274805    0.1056088  56.41 0.0006895557    2.158    0.537
       292  -8.9886    183.9219     38.2617   4.3223043852e+01   3.4681651809e+01    0.1846263    0.1533992  86.56 0.0009518325    1.083    0.076
       293  -9.6051    133.2561     37.1899   5.1394897219e+01   4.6980736450e+01     0.392548    0.2387942 -82.10  0.001650423    2.602    0.616
       294  -9.2097    206.6920     37.0533   4.0112931906e+01   2.9571068625e+01    0.1804527    0.1523162 -63.45 0.0006129332    1.083    0.076
       295  -9.1533     94.1636     35.9057   6.0525235450e+01   5.5958848080e+01    0.1931801     0.177731 -85.43    0.0006869    1.325    0.245
       296 -10.6341    239.9288     32.4826   3.5849799391e+01   2.3023259631e+01    0.4598554    0.2815429 -39.90   0.00246635    1.551    0.355
       297  -9.5888    240.4978     26.4826   3.4589351396e+01   2.3669338499e+01    0.1956311    0.1718868 -68.53 0.0006679084    1.203    0.169
       298  -9.0235    216.6273     32.2543   3.7962994158e+01   2.7984916973e+01    0.1590113    0.1176669 -30.69 0.0004198696    1.589    0.371
       299  -9.4019     35.8727     31.7938   8.0654960492e+01   6.6512902558e+01     0.151579    0.1399305  25.70 0.0005112814    1.361    0.265
       300 -10.8116    198.9309     29.0889   3.9110903687e+01   3.2360745952e+01    0.4385811    0.3646384 -44.88  0.002461158    1.268    0.211
       301  -8.9528    221.6371     29.7631   3.6926034131e+01   2.7211470766e+01    0.1783891   0.09568615 -47.77 0.0009420294    1.628    0.386
       302 -11.2875      5.5355    200.8221   1.2138339494e+02   3.0805092590e+01    0.6881981    0.1298307 -67.12  0.002564384    3.920    0.745
       303 -11.2522    183.4022     25.3966   4.0019412073e+01   3.6424423368e+01    0.5348898      0.28692  54.27   0.00263665    1.921    0.479
       304  -9.1627     99.8888     30.5023   5.6945893508e+01   5.5445844197e+01    0.1986812      0.12085  52.97 0.0005122428    1.502    0.334
       305 -10.3266    250.4030     27.4450   3.4003227397e+01   2.1573258020e+01    0.2917822     0.136664 -32.03  0.001476438    2.407    0.585
       306 -10.0970    230.0854     27.6240   3.5699145995e+01   2.5679090138e+01     0.323997    0.1550034 -40.07  0.001682326    1.891    0.471
       307  -9.2234     42.0613     28.5977   7.6517706128e+01   6.6191527453e+01    0.3255862    0.1653218  14.65  0.001076963    2.826    0.646
       308 -10.4146    214.1297     24.3365   3.6448798504e+01   2.9524870737e+01    0.3175279    0.2560354  62.91  0.001494436    1.398    0.285
       309  -9.3097    216.3106     20.3351   3.5364896351e+01   2.9526254718e+01    0.2257903    0.1662238 -52.23  0.001420685    1.239    0.193
       310  -9.6820     97.5718     26.4079   5.6055552532e+01   5.6446373666e+01    0.2296781    0.2123939  89.73 0.0008549559    1.273    0.214
       311  -9.4556    169.0015     23.8097   4.1459739962e+01   4.0033412267e+01    0.2497343    0.1601096  53.51  0.001322627    1.573    0.364
       312 -12.1480      4.7140    184.3455   1.2048766075e+02   3.4649981545e+01    0.6509215    0.4388177  77.61  0.003565432    1.235    0.190
       313 -10.3408     16.6997    203.2739   1.1915548513e+02   2.9201652397e+01    0.2942635    0.1260037 -73.43  0.001457957    2.039    0.510
       314 -10.7031    245.7434    200.9718   6.9254913136e+01  -4.9514133356e+00    0.2039264    0.1644436  14.97 0.0007455276    1.224    0.183
       315 -10.6284    234.2537    196.9364   7.0480233511e+01  -2.7034542592e+00     0.395137    0.2881968  -3.00  0.001633125    1.377    0.274
       316  -8.9700    195.5486    199.8029   7.8239243963e+01   2.8313436925e+00     0.178442    0.1275528 -52.90  0.000729264    1.661    0.398
       317  -9.8248     60.2365     23.0846   6.6657691918e+01   6.4132872623e+01    0.3244846    0.1952647  16.42  0.001676724    1.955    0.489
       318  -9.1835     60.4025     19.5058   6.5047153528e+01   6.4552052810e+01    0.1979225    0.1660828 -21.97 0.0005343421    1.260    0.206
       319  -9.1908    223.4962     22.0469   3.5096794017e+01   2.7765042751e+01    0.1906132    0.1389883  86.43 0.0006160601    1.230    0.187
       320  -9.5364     82.7552    196.2378   1.0316902067e+02   2.2620172891e+01    0.3284139    0.2083128  19.71  0.001510718    2.129    0.530
       321  -9.7418     74.3639     19.4755   6.0165219421e+01   6.1996046108e+01    0.2532563    0.1732827  34.69  0.001023595    1.312    0.238
       322 -10.5387    246.5666    193.7074   6.7794110421e+01  -3.9486332298e+00    0.2482691    0.1029395 -34.53   0.00115011    2.160    0.537
       323  -9.8232    170.1371    191.3268   8.1948651696e+01   8.7913624037e+00    0.4084064    0.2068408  28.12  0.001642221    2.349    0.574
       324 -10.3068    239.5074    185.0007   6.7352815357e+01  -1.5502659988e+00    0.3670761    0.2228848 -13.59  0.001326636    1.987    0.497
       325  -8.6564    173.5084    184.4993   7.9934266750e+01   9.5502059708e+00    0.1418248    0.1348277   3.81  0.000810639    1.000    0.000
       326 -10.1646    243.9621     13.0192   3.1673025863e+01   2.4589953406e+01    0.1794788    0.1352555 -69.51 0.0003483024    1.001    0.001
       327 -10.2814    212.3159    182.3500   7.1690625290e+01   3.1815486968e+00    0.3281395    0.1903924 -13.31  0.001369088    2.662    0.624
       328 -10.2058    250.3926    178.3360   6.4304056377e+01  -2.0696459246e+00    0.4594393    0.1024042 -36.91  0.001494962    4.218    0.763
       329  -8.9904     16.4298    191.5025   1.1835387972e+02   3.1930070955e+01     0.125052    0.1008184  85.13 7.449391e-05    1.035    0.034
       330  -8.7977      1.4641     20.5829   9.3959684757e+01   7.1657356954e+01    0.1117437   0.08442317 -23.34 0.0002550429    1.012    0.012
       331  -9.9659     27.7292    176.1282   1.1434493250e+02   3.4476542274e+01      0.24781    0.1990632  80.04 0.0007210849    1.073    0.068
       332 -10.3951     52.0125    173.4695   1.0789150760e+02   3.2379725809e+01    0.5283736    0.2601856 -88.67   0.00210478    2.600    0.615
       333  -9.9001    230.7838    175.4273   6.7007903784e+01   1.3862987029e+00    0.3226972    0.1247781  38.11  0.001333051    2.874    0.652
       334  -9.9283    247.7404    173.9351   6.3891444102e+01  -9.7202945391e-01    0.3988923    0.1684343  26.71  0.001487658    4.185    0.761
       335  -9.0878    205.0506     17.4814   3.5774113741e+01   3.2357132917e+01    0.1884067    0.1089674  77.02 0.0008595394    1.564    0.361
       336 -10.3119    186.4645     15.1259   3.7105426116e+01   3.6878879479e+01    0.2447125    0.1780224  84.53 0.0004863989    1.194    0.163
       337 -10.6038    189.3016     27.5681   3.9851464226e+01   3.4778111742e+01    0.3308394    0.2806666  30.42  0.001801939    1.607    0.378
       338 -10.1615     38.6154    173.1645   1.1129831774e+02   3.4040033639e+01    0.3937423    0.1978057  54.66  0.001812667    2.051    0.513
       339  -9.3284     76.0813     13.9001   5.7291009378e+01   6.2273681416e+01    0.1746234    0.1522364  47.03 0.0003517571    1.165    0.142
       340 -10.2373     35.3942    169.7493   1.1174175345e+02   3.5236127591e+01    0.2920735    0.2078589 -67.35  0.001642989    1.285    0.222
       341 -11.6843    156.7055     42.5295   4.8566723041e+01   4.0635725519e+01    0.9586232    0.3800892  67.85  0.003562888    2.734    0.634
       342  -8.8430    170.6092    172.1675   7.8140345553e+01   1.2603978945e+01     0.202702    0.1344816 -35.42 0.0005990732    1.577    0.366
       343 -12.1288     22.6509    149.1444   1.1280060716e+02   4.1623936774e+01    0.7843211    0.3688032 -52.26  0.003644566    2.078    0.519
       344  -8.7825     94.5096     12.4590   5.1567603887e+01   5.8614663496e+01    0.1261132    0.1106388  47.30 0.0002525367    1.042    0.040
       345 -10.6807     15.8763    147.9132   1.1453119620e+02   4.2515128845e+01    0.3594921    0.2758643  81.41  0.001027802    1.200    0.167
       346 -11.6802     12.9602    138.1872   1.1427083508e+02   4.5154051530e+01     1.157548    0.4661173 -60.18   0.00530432    2.022    0.505
       347 -11.6968      9.5384    166.8746   1.1800487831e+02   3.8396041086e+01    0.6614258    0.4016743  87.12     0.003701    1.445    0.308
       348 -11.2152     13.5623    159.2695   1.1630115573e+02   3.9910917267e+01    0.6593135    0.2075387 -63.51  0.002690938    2.516    0.603
       349 -11.7493      3.4973    147.2554   1.1782432781e+02   4.3620189444e+01    0.8599106    0.2451262 -75.74  0.003330222    2.903    0.656
       350 -11.2083      2.6009    141.6474   1.1753956448e+02   4.5047971947e+01    0.6196536    0.3754636  79.61  0.003431924    1.597    0.374
       351  -9.2977    198.1174    167.9044   7.1545907809e+01   8.3359186924e+00    0.2064075    0.1955193 -58.58 0.0008184189    1.182    0.154
       352  -9.4336    156.2005    166.1503   8.0154616614e+01   1.6645477454e+01    0.2174126    0.1989946 -19.28 0.0004390918    1.145    0.127
       353  -9.0067    152.4550    166.5250   8.1099353813e+01   1.7288418324e+01    0.1476946      0.14543  -1.94 9.815174e-05    1.019    0.019
       354 -10.2088     18.7461    164.8999   1.1550857068e+02   3.8080852434e+01    0.3006799    0.2486053 -38.81  0.001720631    1.508    0.337
       355  -9.6103    188.8298    163.9221   7.2589837695e+01   1.0837329092e+01    0.2416285    0.1617628 -15.25  0.001063538    2.026    0.507
       356  -9.7598     39.6229    162.3963   1.0976836774e+02   3.6601006953e+01    0.4537315    0.2137975  76.78  0.001688023    3.156    0.683
       357 -10.6568     28.0409    162.4883   1.1285101478e+02   3.7794715246e+01    0.4007068    0.2231586 -64.51  0.002040026    1.578    0.366
       358  -9.7927    204.9774    162.9899   6.9204733864e+01   8.0273384926e+00    0.2767153    0.2170548  16.34 0.0005524215    1.434    0.303
       359  -9.9189    208.3876    160.7505   6.8096310542e+01   7.8322671524e+00    0.2710526    0.1266163 -45.07  0.001082404    2.045    0.511
       360 -10.4757    246.3720    159.3905   6.1284217889e+01   1.6390031326e+00    0.4751569    0.1077822 -37.63  0.001501548    4.123    0.757
       361  -9.4000     78.9736    160.0022   9.8707447380e+01   3.2009433214e+01    0.2331896    0.2062317  88.61  0.001059908    1.082    0.076
       362  -9.5644    224.2735    157.3925   6.4534612419e+01   5.6347938884e+00    0.3494963    0.1762957 -50.73  0.001514134    2.188    0.543
       363  -9.5236    215.6115    157.6894   6.6131343358e+01   7.1042115979e+00    0.2206857     0.159621  -9.16  0.001108693    1.699    0.411
       364  -9.9538      9.4075    155.6985   1.1704521033e+02   4.1121382213e+01    0.2453679    0.1057818 -79.67   0.00112303    2.015    0.504
       365 -10.3633    104.7059    154.2650   9.0649001515e+01   2.9173229421e+01     0.371378    0.3455743 -33.39   0.00199502    1.176    0.150
       366 -10.8238     31.6421    153.0865   1.1078745961e+02   3.9779384009e+01    0.4496346      0.28726  79.22  0.002306756    1.631    0.387
       367  -9.1125     74.9681    154.3109   9.8848850713e+01   3.4046066841e+01    0.2010599    0.1913087  81.94 0.0006193465    1.049    0.047
       368 -10.1317     41.3301    149.0893   1.0754919597e+02   3.9759770041e+01    0.2281012    0.2036413  33.41 0.0003396925    1.273    0.215
       369 -11.2978     47.0633    145.9667   1.0545216281e+02   3.9895282165e+01    0.8054988    0.3290679 -59.39  0.003310952    2.116    0.527
