#   1 NUMBER                 Running object number                                     
#   2 MAG_AUTO               Kron-like elliptical aperture magnitude                    [mag]
#   3 X_IMAGE                Object position along x                                    [pixel]
#   4 Y_IMAGE                Object position along y                                    [pixel]
#   5 X_WORLD                Barycenter position along world x axis                     [deg]
#   6 Y_WORLD                Barycenter position along world y axis                     [deg]
#   7 A_WORLD                Profile RMS along major axis (world units)                 [deg]
#   8 B_WORLD                Profile RMS along minor axis (world units)                 [deg]
#   9 THETA_WORLD            Position angle (CCW/world-x)                               [deg]
#  10 FWHM_WORLD             FWHM assuming a gaussian core                              [deg]
#  11 ELONGATION             A_IMAGE/B_IMAGE                                           
#  12 ELLIPTICITY            1 - B_IMAGE/A_IMAGE                                       
         1 -11.4547    110.5476     39.7196   1.3744928583e+01   5.2549795856e+01      1.36519    0.5608105 -38.74  0.005213823    2.368    0.578
         2 -12.2258    119.6390     37.7170   1.0912085729e+01   5.0587633321e+01    0.8319358    0.4309669 -36.37  0.002808709    1.903    0.474
         3 -10.8288     88.4259     53.2083   2.5404942710e+01   5.5493427649e+01    0.9332172       0.2495 -39.17  0.002694276    3.933    0.746
         4 -12.0779    164.7286     18.0121   3.5736894081e+02   4.1856694818e+01    0.5502359    0.3203157  40.96  0.002574518    2.406    0.584
         5 -12.0117    104.6895     12.5583   3.8783595272e+00   5.7506495002e+01    0.5363234    0.3652899 -24.64  0.001596208    1.594    0.373
         6 -12.5443    105.8291     20.0161   6.8316008812e+00   5.6393134337e+01    0.3630286    0.3029733 -65.05 0.0004110471    1.232    0.188
         7 -10.0629     60.0018     21.9680   2.1697747475e+01   6.6987423843e+01    0.4747057    0.2007537 -34.60  0.001944624    2.438    0.590
         8 -11.4916     20.5357     21.6201   4.4380323611e+01   7.3853288267e+01    0.5587149    0.3330299 -34.13  0.001688542    1.660    0.398
         9 -11.0911    134.2179     21.6197   2.3680600430e+00   4.9006670353e+01    0.6796106    0.3577883 -46.24   0.00309853    1.844    0.458
        10 -11.7091    127.4927     16.2595   1.4390610054e+00   5.1313818589e+01    0.5873019     0.427542 -11.18  0.001972032    1.680    0.405
        11 -11.1900    135.5260     14.4868   3.5964559394e+02   4.9465583818e+01    0.5661684    0.2625596  68.04  0.002496984    1.982    0.495
        12 -11.6450     36.0864     17.8712   3.1524766148e+01   7.2229171367e+01    0.6300067    0.4202038 -47.42  0.002178856    1.676    0.403
        13  -9.4739      5.6888      9.0632   4.9756316028e+01   7.7879139792e+01    0.9873564     0.400968 -42.96  0.004655825    2.194    0.544
        14 -10.9823      9.4141     19.4891   5.2194713491e+01   7.5468452170e+01    0.3691124    0.2301808 -17.35  0.001079837    1.715    0.417
        15 -11.9781     22.8522     10.7392   3.5891503036e+01   7.5507908248e+01    0.5620235    0.4445137  -0.96  0.002233679    1.231    0.187
        16 -11.4393     16.0462     13.9255   4.3420906693e+01   7.5860192043e+01    0.8984783    0.3813732 -42.24  0.004128887    2.216    0.549
        17 -11.0137     13.0255      8.3143   4.2342189825e+01   7.7237500316e+01     0.604959    0.2755005 -55.59  0.002706384    2.792    0.642
        18 -10.6645     68.6739     20.4196   1.7440256508e+01   6.5310464783e+01    0.4083133    0.3077306 -22.74  0.001563652    1.420    0.296
        19 -11.2120     85.4545     15.0247   9.4082458680e+00   6.2033413341e+01    0.6411549    0.3995908  14.04  0.002882381    2.323    0.569
        20 -10.8728     88.7311      8.0864   5.2070852141e+00   6.1960836026e+01     0.360406    0.3014276 -32.66  0.001201433    1.279    0.218
        21 -11.1017    242.2923     15.1215   3.5107190775e+02   2.5656707249e+01    0.2171062    0.1677611 -39.71 0.0002105536    1.204    0.169
        22 -11.5185    228.2023     15.0897   3.5180333297e+02   2.8310798102e+01    0.3701308    0.1831887 -63.62  0.001345419    1.819    0.450
        23 -12.4478     48.9225     12.8088   2.1349066156e+01   7.0575459867e+01    0.7128832    0.2876961  49.76  0.003001419    2.318    0.569
        24 -10.9111    120.9676     12.0302   8.3437548195e-01   5.3418700529e+01     0.419007    0.2609998 -57.66  0.001266379    1.672    0.402
        25 -11.1428    190.9911     12.2228   3.5345833217e+02   3.6381821620e+01     0.320555    0.1763284 -31.40  0.001062575    1.697    0.411
        26  -9.8959    114.6256     12.3016   1.9685233478e+00   5.5007625356e+01    0.3587107    0.1895574  18.84  0.001329769    3.556    0.719
        27 -10.2838    223.7971      2.4740   3.4917657358e+02   3.0475271340e+01    0.2265964    0.1528963 -55.35 0.0006200612    1.120    0.107
        28 -11.6357    212.1393      9.5716   3.5142627688e+02   3.2112459758e+01    0.4875308    0.3189249  -6.47  0.002263389    2.303    0.566
        29 -10.9073    218.5561      3.4078   3.4963551985e+02   3.1427779857e+01    0.2835902    0.2031363  79.88 0.0008629133    1.497    0.332
        30 -11.8668    168.8190      9.4010   3.5441521489e+02   4.1787026010e+01    0.5964776    0.2279468  68.80   0.00240549    2.452    0.592
        31 -10.1293    144.9866      9.6282   3.5681001673e+02   4.7582878423e+01    0.2241032    0.1869458  12.86 0.0005537733    1.551    0.355
        32 -12.9759    111.1694     26.9205   8.5407087517e+00   5.4195484852e+01     1.459022    0.6870824  38.75  0.005394159    2.981    0.665
        33 -11.1532     64.1165      9.9642   1.3300752428e+01   6.7646057399e+01    0.3515665    0.2706625 -84.68 0.0003200937    1.674    0.403
        34  -9.9843     64.0126      6.5164   1.1319739228e+01   6.8046124637e+01    0.3294277     0.194348  74.74  0.001550082    2.040    0.510
        35  -9.7010      1.1414      7.2805   5.3294919107e+01   7.8609288743e+01    0.2121903    0.0715074 -55.79 0.0007204756    2.653    0.623
        36 -10.6080    247.1914      5.8266   3.4890008594e+02   2.5737956989e+01    0.1910943    0.1507842 -24.30  0.001398192    1.493    0.330
        37  -9.6149    232.5590      6.7487   3.4972840232e+02   2.8347077611e+01    0.1694537   0.07531897 -42.58 0.0009430444    1.615    0.381
        38 -11.6588    184.9566      6.1532   3.5226004929e+02   3.8359536502e+01    0.3503367    0.2135795 -61.55  0.001697535    1.416    0.294
        39 -10.0149    164.7880      4.5920   3.5332283658e+02   4.3219319558e+01    0.4007916    0.2223131  18.03  0.001646569    3.644    0.726
        40 -10.9994    154.2116      6.5906   3.5486971756e+02   4.5594237553e+01    0.2501393    0.2094368 -83.35 0.0008119548    1.066    0.062
        41  -9.7518     77.9548      7.2240   7.4631755961e+00   6.4685619778e+01     0.202789    0.1728917 -83.25 0.0006796762    1.276    0.216
        42 -10.2213    148.5028      5.3747   3.5502903001e+02   4.7116891259e+01    0.2248644    0.1159984  77.95 0.0009330953    1.806    0.446
        43 -10.2743    128.9693      4.9540   3.5704118074e+02   5.2060137813e+01    0.2323891    0.1828346 -38.73  0.001342317    1.293    0.227
        44 -12.0010    137.7264      3.9927   3.5567852710e+02   4.9934440155e+01    0.7242203    0.2382059  70.68 0.0003273388    2.654    0.623
        45 -11.8026    134.0026      2.4830   3.5555374622e+02   5.1006130661e+01    0.6470947     0.260547  79.41   0.00267605    2.377    0.579
        46  -9.4775     70.4924      5.0236   8.3832339318e+00   6.6686373082e+01    0.2621159    0.1463481  48.22  0.001029748    1.642    0.391
        47  -9.8423     75.1335      2.8538   5.8693276579e+00   6.5780710280e+01    0.4132299    0.1761311  70.74  0.001697303    2.412    0.585
        48 -10.8033     41.2321      4.0263   1.9334771232e+01   7.3238162827e+01      0.38354    0.2144975  28.81  0.001845035    2.043    0.511
        49  -9.4644     30.6050      4.7862   2.6092676958e+01   7.5148214291e+01    0.2250269    0.1213463 -38.67 0.0009014788    1.961    0.490
        50 -10.2963     28.7533      1.4157   2.4711119117e+01   7.5923044960e+01    0.2091074    0.1377854  43.80 0.0002847506    1.452    0.311
        51 -10.2453    235.5031      3.9878   3.4899671226e+02   2.8068605592e+01    0.1721583    0.1292136 -69.78 0.0006720496    1.185    0.156
        52 -11.2971    113.6040      2.3828   3.5809320733e+02   5.6195302149e+01    0.5174866    0.2670451 -83.85   0.00226317    2.209    0.547
        53 -10.4021    105.5881      2.1578   3.5921930266e+02   5.8254178861e+01    0.3176024    0.2139674 -55.02  0.001525847    1.553    0.356
        54 -11.0922    205.6234      2.0015   3.4995040265e+02   3.4235593032e+01     0.388303    0.1835511 -87.83 0.0009909703    2.101    0.524
        55 -10.1485      1.9259      2.1525   4.9066607804e+01   7.9515449851e+01     0.232742    0.1454572 -36.28 0.0008770323    1.423    0.297
        56  -9.2324    160.3291      1.3309   3.5269468311e+02   4.4593456647e+01    0.1274157   0.09291366  43.89 0.0007051644    1.715    0.417
        57  -9.5236    152.1031      1.4402   3.5341712247e+02   4.6587212203e+01    0.1916001    0.1160241  80.57 0.0006318704    1.520    0.342
        58 -10.3310    124.4826      1.4155   3.5626744229e+02   5.3508317050e+01    0.2478718    0.1181641  75.16 0.0004746419    1.903    0.475
        59  -9.4352     82.2012      1.2453   3.2708178671e+00   6.4197907874e+01    0.1830835    0.1065373  74.39 0.0004424769    1.674    0.403
        60 -10.7011     35.5684    102.7419   6.1420153101e+01   5.2386115034e+01    0.9340502    0.3695914   9.16  0.002537285    4.652    0.785
        61  -9.5253    249.6068    249.8222   3.4372015006e+01  -5.7071959961e+00     0.121407   0.07619954 -30.63 0.0009425089    1.656    0.396
        62 -11.6663     22.0851    114.0753   6.8538114935e+01   5.0556152121e+01    0.5425329    0.3203534  -4.32   0.00238882    2.299    0.565
        63 -12.4236     27.2430    111.3785   6.6161939701e+01   5.0844541088e+01     1.415888    0.5985638  88.44  0.004400787    3.193    0.687
        64  -8.6348    104.3363    112.6545   3.9015281327e+01   3.8996567971e+01     0.164501    0.1224363  82.44 0.0007048941    1.773    0.436
        65  -9.9149     48.8640    111.8323   5.7846820343e+01   4.8344916690e+01    0.2714741    0.2045389  23.15 0.0007794625    1.454    0.312
        66 -11.9444     79.5214    107.9508   4.5820421790e+01   4.4741181505e+01     0.616826    0.4047069  23.03  0.002635094    1.847    0.458
        67  -9.1889    102.0291    108.7847   3.8729513227e+01   4.0373931079e+01    0.2078143    0.1268592  41.59 0.0004015539    1.672    0.402
        68 -11.3578     49.5554    101.3154   5.5458398331e+01   5.1097680102e+01    0.8299612    0.4409399 -31.60   0.00302608    2.798    0.643
        69 -10.0699     92.1700    101.9424   4.0042344964e+01   4.3936199805e+01    0.3967313    0.2260663 -53.23  0.001502156    1.716    0.417
        70  -9.9127     86.4176    103.4319   4.2337464525e+01   4.4649198521e+01    0.4464632    0.1814588  44.11  0.001449179    2.527    0.604
        71  -9.2417     57.3604    103.1800   5.2799615590e+01   4.9520112209e+01    0.2265479    0.1406185 -75.33 0.0009377687    1.776    0.437
        72  -8.8642     64.7131    101.6595   4.9639072179e+01   4.8815281566e+01    0.1582449    0.1153314 -31.07 0.0002891381    1.639    0.390
        73 -10.4284     17.0759     99.9430   6.8711876175e+01   5.4836545449e+01    0.3764735     0.186918 -72.80 0.0009195621    1.784    0.440
        74  -9.9224     16.4135     95.2593   6.8340029067e+01   5.6166301543e+01    0.2398198    0.2051885  66.97 0.0006644257    1.188    0.158
        75 -11.7268      9.0837     97.1135   7.1767930469e+01   5.6149466074e+01    0.4805166    0.3992039  57.66 0.0004068931    1.238    0.192
        76 -12.2716    210.4602     98.1273   1.2839605098e+01   2.0477945838e+01    0.2405095    0.2086114 -36.93 0.0002939402    1.043    0.042
        77 -10.3758     30.4450     97.1702   6.2564210551e+01   5.4435432262e+01    0.4538854    0.3522635 -40.22  0.002360781    1.353    0.261
        78 -11.8842     67.9329     94.8783   4.6716816776e+01   5.0052238260e+01      0.57982     0.376671  34.03  0.001749335    1.607    0.378
        79 -11.4037     79.6873     93.6111   4.2034100995e+01   4.8322112973e+01    0.8391722    0.6983165 -48.49  0.004193914    1.182    0.154
        80 -10.1502     81.6977     83.6494   3.8406595469e+01   5.0357559505e+01    0.5243261    0.3071221  29.24  0.002096736    2.082    0.520
        81 -11.8769     75.3729     78.6696   3.9191403938e+01   5.2738187402e+01    0.5780416    0.4853899  74.57  0.001297683    1.361    0.265
        82 -11.0177     23.0806     94.2552   6.5256383664e+01   5.5910510088e+01    0.4327439    0.3188881 -26.35  0.001827805    1.557    0.358
        83 -10.4249     18.7179     87.6791   6.6123805802e+01   5.8052753688e+01    0.6836759    0.3520046 -72.57  0.003014689    1.762    0.433
        84 -11.5385     28.0388     85.1898   6.1338806282e+01   5.7910066823e+01    0.5645278    0.5070114   9.00  0.001206616    1.227    0.185
        85 -10.3944     35.8406     92.5276   5.9335743332e+01   5.5129602097e+01    0.5701796    0.2846593 -89.75  0.001754434    2.966    0.663
        86  -9.5659     38.8025     90.3813   5.7584021850e+01   5.5369914868e+01    0.2664144    0.2008066  -8.87 0.0006500776    1.624    0.384
        87 -10.7547    248.8614     94.7037   7.4349346737e+00   1.4488796218e+01    0.2548032    0.1048405 -41.92  0.001276651    1.875    0.467
        88 -10.2396     43.0179     94.2523   5.6617371033e+01   5.3828035585e+01    0.3207781    0.2803154  39.20  0.001333441    1.199    0.166
        89 -10.3934     43.5048     90.4840   5.5561917323e+01   5.4773138155e+01    0.2478331     0.221367 -68.91 9.457702e-05    1.057    0.054
        90  -9.1303    125.7865     93.8522   2.7957370768e+01   3.8830992541e+01    0.2039326    0.1755161 -80.60 0.0003897442    1.271    0.213
        91 -10.5182     98.1762     90.6321   3.4939825214e+01   4.5435059036e+01    0.2658195    0.2576538  84.73 0.0004181408    1.031    0.030
        92 -10.4251     49.9083     90.3767   5.2803554899e+01   5.3959124294e+01     0.446789    0.3671403  76.38  0.002275909    1.343    0.255
        93  -9.6223     52.1624     86.8762   5.0965143068e+01   5.4556394335e+01    0.2230565    0.1964272  87.37 0.0003617088    1.198    0.165
        94 -11.3763     44.8805     83.9827   5.3384757978e+01   5.6308867747e+01    0.5531535    0.4390894  75.95  0.001987421    1.440    0.305
        95  -9.7442     38.1652     85.0940   5.6669801977e+01   5.6851042165e+01    0.3495198    0.2099028   5.61  0.001475935    2.234    0.552
        96 -10.8632      2.4307     80.5725   7.2796057713e+01   6.0971218838e+01    0.6121737    0.2530476  86.62  0.002050977    2.701    0.630
        97 -10.7136      1.8993     71.3462   7.1831426491e+01   6.3441658517e+01    0.4247836    0.1961252 -68.58  0.001918725    1.802    0.445
        98  -9.8548     10.9889     90.0258   7.0023196790e+01   5.7960122367e+01    0.1912805    0.1516447  71.44 0.0003708581    1.282    0.220
        99 -11.2940      6.1632     88.0258   7.1965141765e+01   5.8783087414e+01    0.6819471    0.4162366  10.10  0.003321694    1.883    0.469
       100  -9.9738     66.5835     88.4885   4.5511547757e+01   5.1899213329e+01     0.368762    0.2544318  -9.53  0.001270654    2.232    0.552
       101  -9.2038    104.4077     86.8108   3.1869376493e+01   4.4998220334e+01    0.2176872    0.1453805 -36.79 0.0006034756    1.611    0.379
       102 -10.7578    113.5575     83.6987   2.8253744970e+01   4.3687286394e+01    0.5886248     0.376544  79.61  0.002211842    2.589    0.614
       103 -10.0413     90.5401     85.4513   3.5882627183e+01   4.8190300045e+01    0.3679798    0.2789403  86.41  0.001649209    1.722    0.419
       104 -12.5111     60.9560     83.4245   4.6340914084e+01   5.4097699498e+01    0.3168184    0.2923859 -80.31 0.0003531414    1.102    0.093
       105 -10.0058     58.0544     77.9764   4.5960821454e+01   5.5922251025e+01    0.2295175     0.213761 -45.04  0.000450028    1.051    0.049
       106  -9.4867    143.4757     84.1433   2.0946456858e+01   3.6856453694e+01    0.2184277    0.1423296 -42.11 0.0005086464    1.455    0.313
       107  -8.5423    151.3939     83.5234   1.9090501805e+01   3.5186886741e+01    0.1482887    0.1368259 -46.49 6.093361e-05    1.044    0.042
       108 -10.1023     67.2193     81.3066   4.3180040837e+01   5.3575576255e+01    0.3493211     0.262778  -4.98  0.001582864    1.815    0.449
       109  -9.7054    119.4244     78.9964   2.5199502299e+01   4.3351784740e+01    0.4597018    0.2466545 -62.82  0.001542738    2.786    0.641
       110  -9.4123    103.0347     79.5143   3.0022415800e+01   4.6897377815e+01    0.2445417    0.1974242 -47.90 0.0005301815    1.213    0.176
       111 -10.7602     89.1719     77.1128   3.3718909756e+01   5.0371653985e+01    0.5031369    0.3269913  52.75  0.001560706    1.633    0.388
       112 -10.6611     94.7741     75.6678   3.1377877179e+01   4.9514245169e+01    0.5018052    0.4122976 -88.68  0.001898067    1.436    0.304
       113 -10.8375     53.2582     76.1549   4.7500287160e+01   5.7121803867e+01    0.4560257    0.3719548 -82.56   0.00231564    1.373    0.271
       114 -10.8797    247.2449     76.9965   3.9121944727e+00   1.7186814589e+01    0.1708637   0.07992656 -35.59 0.0007543646    1.637    0.389
       115  -9.8426     46.6798     75.0993   5.0161582206e+01   5.8345124622e+01     0.402967    0.1949948 -37.92  0.001412108    2.544    0.607
       116 -10.9362     14.3351     74.2152   6.5859675764e+01   6.1978285193e+01    0.4499746    0.2806577 -79.29  0.001760393    1.554    0.357
       117 -11.1387     27.5915     73.3125   5.8915553889e+01   6.1091418926e+01    0.4966223    0.3253054 -15.09  0.001277352    1.900    0.474
       118 -10.6483     35.4080     71.7267   5.4601005953e+01   6.0651537696e+01    0.5332856    0.2475594  44.14  0.002109259    2.446    0.591
       119 -10.2505     41.1899     72.6037   5.2026901628e+01   5.9714066826e+01    0.3136474    0.2534538 -16.02 0.0007916504    1.400    0.285
       120 -11.2283     40.4481     68.9150   5.1311164865e+01   6.0736821599e+01    0.6473666    0.2627302  33.48  0.002484866    2.480    0.597
       121  -9.3164    162.2537     81.2020   1.6322232518e+01   3.3177877752e+01    0.1874357    0.1545789 -67.33   0.00029722    1.247    0.198
       122 -10.1832     80.3603     70.7850   3.4725330026e+01   5.3579331162e+01    0.5939724     0.391836 -66.49  0.002472618    1.889    0.471
       123  -9.7951     86.1768     69.6326   3.2240818473e+01   5.2641443033e+01    0.3040192    0.2428486   2.69  0.001429974    1.658    0.397
       124 -10.9397    122.4892     68.4399   2.1035468800e+01   4.4720731997e+01    0.4765871    0.2660699  48.54  0.001218475    1.848    0.459
       125 -10.0501    102.0048     66.8113   2.6109605779e+01   4.9779408282e+01    0.2924955    0.2372937 -23.12            0    1.426    0.299
       126 -10.1864    105.4542     63.5110   2.3938338868e+01   4.9642541811e+01    0.2545381    0.2451554  72.36 0.0006454908    1.035    0.034
       127  -9.8399     13.6713     67.4361   6.4867745203e+01   6.3801059190e+01    0.4582965    0.1422395  14.04  0.001574768    3.762    0.734
       128 -12.9888      6.4955     62.1010   6.7783258093e+01   6.5625994317e+01    0.6434783    0.4909113 -42.67  0.003682962    1.231    0.188
       129 -10.5454     13.2554     57.3128   6.2815390320e+01   6.6421388986e+01    0.5032136    0.2458742 -43.39  0.002262824    1.928    0.481
       130  -9.0390     51.4966     65.5700   4.4946397043e+01   5.9971359766e+01    0.1444713    0.1400007 -40.38 0.0001095421    1.011    0.011
       131 -10.0520     50.7592     56.4208   4.2040333924e+01   6.2209189263e+01    0.3518425    0.2631008 -51.52  0.001040785    1.305    0.233
       132 -12.2346     43.7351     60.7789   4.7074399377e+01   6.2270266363e+01    0.8106171    0.4758363  24.92   0.00244439    1.882    0.469
       133 -11.5607     39.5063     56.7074   4.7834635716e+01   6.3823540493e+01    0.3402612    0.2475773  27.75   0.00058909    1.434    0.303
       134  -9.6991    202.1893     62.7543   5.4381440559e+00   2.7534359896e+01    0.2712006    0.1698345 -27.77  0.001373463    1.624    0.384
       135 -10.2661    158.8562     62.7604   1.1668329122e+01   3.7114145143e+01    0.3025014     0.199029  42.98 0.0007860906    1.832    0.454
       136 -11.0061     92.5695     62.5411   2.7555238418e+01   5.2748996756e+01     0.393832    0.2719751  65.57 0.0009073491    1.702    0.412
       137 -10.0055     58.3277     62.2179   4.0652796769e+01   5.9632696414e+01     0.326337    0.2663167 -68.53  0.001674225    1.350    0.259
       138  -9.4127    150.8922     60.8629   1.2518192010e+01   3.9303693249e+01    0.2065844    0.1945931 -11.97 0.0005322311    1.226    0.184
       139 -10.0100    113.6722     60.8252   2.0726838915e+01   4.8227650666e+01     0.323899    0.2580195 -81.97  0.001134584    1.444    0.307
       140  -9.6085     65.0654     60.5969   3.7121305584e+01   5.8791886654e+01    0.3544553    0.1931654 -56.10    0.0014503    1.997    0.499
       141 -10.2023    124.9864     56.5022   1.6439345917e+01   4.6282761543e+01     0.929728    0.4435363  51.77  0.003689963    2.108    0.526
       142 -10.2947    127.2272     51.1460   1.4095621845e+01   4.6633553745e+01    0.4301254    0.2645135 -35.36  0.001293651    1.635    0.388
       143  -9.7116     50.3140    249.3411   7.1872455525e+01   1.5703126665e+01    0.1048017   0.08479465 -15.04 0.0007047308    1.703    0.413
       144 -11.9952    117.0156     47.8843   1.5262928785e+01   4.9671013032e+01    0.8038017    0.5325509 -25.76  0.001676344    1.733    0.423
       145 -10.2697    126.5158    241.0448   5.5045096302e+01   8.4551798461e+00    0.1569159    0.1174214 -49.60  0.001039539    1.611    0.379
       146 -11.8072     75.3183     55.3617   3.0960382403e+01   5.7891256733e+01    0.7822602    0.3660975 -46.91  0.003053684    2.153    0.535
       147  -9.6843     29.6710     60.3078   5.4299037470e+01   6.4172522131e+01     0.224524    0.1723954 -59.16  0.000809492    1.222    0.182
       148 -11.4295     25.6313     56.7318   5.5462000614e+01   6.5483597066e+01    0.5195746    0.4538549 -81.52  0.001608422    1.238    0.192
       149 -10.0751    106.5765     58.0684   2.1678277572e+01   5.0411569955e+01    0.2704466    0.2061956  75.43 0.0003438589    1.485    0.327
       150 -10.9412    146.7764    238.0091   5.0568331385e+01   6.4962885003e+00    0.3481936    0.2728335  84.93  0.002162972    2.334    0.572
       151 -10.2055    156.9673     53.9762   9.3650619824e+00   3.8958234305e+01    0.4041261    0.2689955 -63.48   0.00193623    1.599    0.375
       152 -10.3450    154.9364     49.0075   8.1794359361e+00   4.0200952567e+01    0.4066064    0.2139142 -23.28  0.001376315    2.387    0.581
       153  -9.2435     33.7728     56.6362   5.0885960279e+01   6.4585287548e+01    0.2015228    0.1241497  38.41 0.0009494216    1.726    0.421
       154  -9.4221    238.0067     55.5151   1.2781674088e-01   2.1635242336e+01    0.1491027    0.1170786  80.89 3.442756e-06    1.499    0.333
       155  -9.2867     67.4389     55.0159   3.3980274633e+01   5.9538503716e+01    0.2160726    0.1420854 -45.30 0.0005633773    1.505    0.335
       156 -10.4898     60.4971     51.4977   3.5562594158e+01   6.1589095601e+01    0.4769235    0.2469597 -51.27  0.001983958    2.002    0.500
       157 -10.0634     61.4959     46.5133   3.3026683668e+01   6.2417149064e+01    0.3761066    0.2484846 -24.42  0.001309206    1.879    0.468
       158  -9.5170     58.3322     47.6468   3.4938849586e+01   6.2783450961e+01    0.2670033    0.1704582 -56.48  0.001218925    1.767    0.434
       159 -10.6838     31.9974     52.6543   5.0505999613e+01   6.5748076033e+01    0.4739807    0.2541907  14.23  0.002012942    2.346    0.574
       160  -9.0665    201.7006     52.6725   2.9647766773e+00   2.9072994308e+01     0.121545    0.1024643   8.77  0.000702894    1.637    0.389
       161  -9.1645     54.8955     50.9759   3.7925771729e+01   6.2707239068e+01    0.3417837    0.1593606 -29.60   0.00105858    3.846    0.740
       162 -10.7552    243.1359     50.8934   3.5870423351e+02   2.1318270875e+01     0.282646    0.1643363  82.86  0.001658474    2.141    0.533
       163 -10.1763    145.2337     49.8633   1.0103205281e+01   4.2423452934e+01    0.3258582    0.2437171  -7.97 0.0008217117    1.817    0.450
       164  -9.9005    146.1738     43.8571   8.0017504739e+00   4.3094105019e+01    0.4638618    0.1462729 -43.48  0.001319777    2.929    0.659
       165  -9.7288     97.6663     49.9339   2.1204528623e+01   5.3975777561e+01    0.2021226    0.1861978 -50.57 0.0003846482    1.088    0.081
       166  -9.2510    188.9828     49.4837   3.5904156705e+00   3.2252254890e+01    0.1795598    0.1300213  76.54 0.0003720675    1.472    0.321
       167  -8.7875    137.3264     49.3300   1.1403350089e+01   4.4442364499e+01    0.1467812    0.1146441  24.23  0.000705085    1.706    0.414
       168 -10.2459     82.9918     46.9367   2.4730072210e+01   5.7868136930e+01    0.3536889    0.2247628 -25.38  0.001351702    1.924    0.480
       169 -12.4429     40.7959     44.1664   4.2280254455e+01   6.6462018480e+01     1.156775    0.4654014  36.76  0.003584996    2.508    0.601
       170 -11.0809     26.5419     42.7659   5.0078209821e+01   6.8677753590e+01    0.3644967    0.2934808  53.62 0.0004569843    1.501    0.334
       171 -10.4291     22.3253     36.9398   5.0448828725e+01   7.0454954996e+01    0.4722088    0.1980534  38.05  0.001492747    2.595    0.615
       172  -9.5240    220.4808     48.4691   6.6312256096e-02   2.5835852196e+01    0.1272111     0.101698 -49.54 0.0001533445    1.009    0.009
       173 -10.6647     20.3336     45.9946   5.5169508135e+01   6.8592864388e+01    0.4309187    0.2565099 -36.80  0.001967681    1.669    0.401
       174  -9.0585      2.2377     48.6059   6.7591331541e+01   6.9249196008e+01    0.1735246    0.1174856 -14.17 0.0008770425    1.573    0.364
       175  -9.4697     27.2477     47.4310   5.1408349747e+01   6.7528769314e+01    0.2468247    0.1362276  16.96  0.001112932    2.064    0.515
       176 -10.0737     13.1695     46.3707   5.9889884971e+01   6.9124530177e+01    0.3099351     0.161463 -42.03  0.001459024    1.789    0.441
       177  -9.6690    199.5053     44.9767   1.2448029617e+00   3.0586602390e+01    0.2804829    0.1489795 -83.05   0.00126829    2.465    0.594
       178  -8.9042    131.6277     45.6843   1.1290021731e+01   4.6412636765e+01    0.1513484    0.1116224  29.34 0.0007033419    1.790    0.441
       179  -8.9373    178.0278     44.2526   3.4935775973e+00   3.5443514704e+01    0.1566702    0.1138472  73.22 0.0002503745    1.429    0.300
       180  -9.7841    138.8797     44.0056   9.3327831087e+00   4.4870451703e+01    0.2776762    0.1728298  38.46  0.001217168    2.094    0.523
       181 -10.1557    156.0071     42.4335   5.9780183688e+00   4.0898856686e+01    0.2731818    0.2057655 -34.10 0.0008955021    1.328    0.247
       182 -10.1724     55.8735     41.4499   3.3357872549e+01   6.4472204678e+01    0.3457699    0.2225695  51.52  0.001635195    1.715    0.417
       183 -10.3542     18.0639     40.7079   5.4773414555e+01   7.0040675233e+01     0.275136    0.1631342 -46.87 0.0008268664    1.510    0.338
       184 -11.2543     72.6469     46.5597   2.8394283892e+01   6.0172046627e+01    0.5247979    0.3185621 -57.73  0.002250507    2.059    0.514
       185  -8.6854     68.5242     41.5351   2.7842838563e+01   6.1965105969e+01    0.1405459    0.1393138  49.39 8.445244e-05    1.044    0.042
       186 -10.4842     10.3708     31.1140   5.6610124577e+01   7.2888497148e+01    0.4831062    0.2428563 -45.41  0.001601889    1.745    0.427
       187  -9.7018      6.3913     30.8147   5.9552200299e+01   7.3250144822e+01    0.2821281    0.1649457 -31.63  0.001109571    1.658    0.397
       188 -10.0306      4.3325     39.6810   6.3934119042e+01   7.1313632968e+01    0.3433822    0.1995346  56.38  0.001646991    2.343    0.573
       189 -10.7971      3.9766     35.6062   6.2990968179e+01   7.2296375094e+01     0.387567    0.3260654 -29.46  0.002261794    1.105    0.095
       190 -10.8580     78.7004     33.7882   2.0464954068e+01   6.1073004649e+01      0.66847    0.4905984   6.90  0.003219945    1.836    0.455
       191 -10.1653     68.6902     32.4466   2.3534023543e+01   6.3504608068e+01    0.5189322    0.2948996  52.53  0.002359074    1.750    0.428
       192 -10.1535    220.0898     35.5808   3.5706914886e+02   2.7547467289e+01    0.2095915    0.1325224 -47.47 0.0003822669    1.246    0.197
       193 -10.6060    153.3828     35.7641   4.2749668576e+00   4.2455241861e+01    0.2559703    0.2235553 -81.39 0.0005360282    1.068    0.064
       194 -10.3963     79.3141     37.9803   2.2156270619e+01   6.0252146981e+01    0.4457261    0.3091414 -81.90  0.001951772    2.252    0.556
       195 -10.5505    169.4102     23.0058   3.5837171869e+02   4.0169966029e+01    0.2576384    0.1834079  73.85 0.0005942357    1.395    0.283
       196 -10.4321    175.3234     34.2897   9.9671201354e-01   3.7395931041e+01     0.328507    0.1870308 -55.17 0.0005249169    1.648    0.393
       197 -11.2951    171.9202     30.3957   2.6212998219e-01   3.8685736090e+01    0.9398107     0.208553  61.16  0.003140208    3.960    0.748
       198 -10.2464    131.5176    240.4883   5.3953474586e+01   7.9432600544e+00    0.2103931   0.09882593  19.58   0.00102586    2.190    0.543
       199 -10.9054    157.1532     29.1191   1.6640255992e+00   4.2390372126e+01    0.4050323    0.2740996 -70.11 0.0004330665    1.480    0.324
       200 -12.6633    164.3101     27.1730   1.8365436782e-01   4.0894786473e+01    0.4288477    0.3330185 -71.72 0.0007601789    1.187    0.158
       201 -10.4061     72.5432    237.4980   6.6273382176e+01   1.5446981416e+01    0.2242634    0.1826144  38.71  0.001533484    1.010    0.010
       202  -9.2607     15.4962    233.5123   7.8572382825e+01   2.2042817343e+01    0.1781946   0.09400036 -67.29  0.001023591    2.199    0.545
       203 -10.0216    249.7313     38.9379   3.5568521124e+02   2.1633929423e+01    0.1985552    0.1425205 -68.64 0.0005432817    1.345    0.256
       204 -10.3600    240.1922     32.4589   3.5492348471e+02   2.4095959525e+01    0.2483389    0.1784864  42.73  0.001573145    2.114    0.527
       205  -9.9923    216.9670     32.0333   3.5647355451e+02   2.8603163224e+01    0.1868323    0.1493948 -52.85 0.0003538763    1.020    0.019
       206 -10.1661     67.7903    240.3007   6.7530020719e+01   1.5466326370e+01    0.1997525    0.1410906 -31.75  0.001035629    1.981    0.495
       207 -11.9305     58.2482     29.3694   2.6396365186e+01   6.6191722918e+01    0.4164183     0.313036  15.26  0.002157239    1.566    0.361
       208 -11.5689     49.0823     30.0681   3.1161957981e+01   6.7843161154e+01    0.6534994    0.3378963  34.60  0.002260185    2.066    0.516
       209  -9.8334    135.5529     30.4922   5.2866536076e+00   4.7579907128e+01     0.264008    0.2033282 -68.07  0.001074977    1.287    0.223
       210 -12.2087    127.0791     28.3947   5.9954905895e+00   4.9986831444e+01    0.7300354    0.4035136  78.40  0.001583551    1.961    0.490
       211  -9.3525     36.1749     30.8522   3.8753134697e+01   6.9886510677e+01    0.1820087    0.1469081 -16.63 0.0004575414    1.262    0.208
       212  -9.8562     13.9248     22.7244   5.0096312985e+01   7.4372203488e+01    0.2100084    0.1520776  23.44 0.0004910055    1.412    0.292
       213 -11.6772     26.5105     27.7826   4.3377078963e+01   7.1875833019e+01    0.4783366    0.3531066 -62.48   0.00186395    1.621    0.383
       214  -8.9059     75.3601    224.2917   6.4525345793e+01   1.7624399817e+01    0.1209767    0.0923236  -8.24 0.0007028553    1.696    0.410
       215 -10.2751     61.3951     35.4848   2.8042062440e+01   6.4509373882e+01     0.475528    0.3012564 -19.92  0.002020468    2.074    0.518
       216 -10.7169    189.0908     27.3267   3.5764354060e+02   3.5108958424e+01    0.3453915    0.2869871  19.52  0.001807927    1.704    0.413
       217 -11.0574    183.5260     25.9903   3.5780428559e+02   3.6527342310e+01    0.4372155    0.1929135 -47.10  0.001915706    1.934    0.483
       218 -10.8354    229.6008     27.3948   3.5449455637e+02   2.6666698358e+01    0.2368368    0.1978662  53.28 0.0007064291    1.617    0.382
       219 -11.0386    149.4952     22.1381   4.1706834039e-01   4.5116018064e+01    0.4276713    0.1817676  68.29  0.001798059    2.225    0.551
       220 -10.0472    155.9757     24.5262   3.6904462022e-01   4.3237230092e+01    0.2573139    0.1842443 -67.66 0.0007396704    1.331    0.249
       221 -10.1813    155.1645     20.9875   3.5934708139e+02   4.3848684128e+01    0.3470709    0.2095308  37.47  0.001598831    2.346    0.574
       222 -10.5207    150.8364     27.3805   1.9461261120e+00   4.4157503881e+01    0.3375788    0.1763099  57.27  0.001412362    1.946    0.486
       223 -10.1284    147.3486     27.6935   2.5300719250e+00   4.4983351675e+01    0.2804935    0.2225744 -46.38  0.001562915    1.195    0.163
       224 -11.2739    143.1243     25.3335   2.3435582866e+00   4.6325419386e+01    0.4926665    0.2456046  60.20  0.002152688    1.939    0.484
       225  -9.7999    250.5732     26.9847   3.5313296233e+02   2.2873367479e+01    0.1650415   0.08781993 -34.66 0.0003887693    1.498    0.333
       226  -9.2653    200.5259     27.5456   3.5669261834e+02   3.2569257481e+01    0.1287994    0.1055075 -57.16  3.75949e-05    1.011    0.011
       227  -9.6470     97.9817     25.9793   1.1207560537e+01   5.7610380696e+01    0.2158445    0.2006518  87.31 0.0005027337    1.059    0.056
       228  -9.6248     45.5436     24.4836   3.0002641877e+01   6.9457544416e+01    0.2475894    0.1298165 -38.23 0.0005108215    1.927    0.481
       229  -9.1916     44.3546    215.3018   7.1084020506e+01   2.2948831212e+01    0.1179508   0.09425277 -20.76 0.0006341147    1.706    0.414
       230 -11.1768      9.0669    211.1491   7.9217261043e+01   2.7197530352e+01    0.2491509    0.1932717 -88.41  0.001656167    1.311    0.237
       231  -8.6055    164.3349    211.2890   4.3387851196e+01   8.5139964062e+00    0.1266427   0.08447237  -2.59  0.000701941    1.631    0.387
       232  -8.7843     86.2260     23.3912   1.3207888898e+01   6.0819108011e+01    0.1385932     0.105139  13.83 0.0006883168    1.633    0.388
       233  -9.6732     40.1848    206.7937   7.1513130403e+01   2.5217140599e+01    0.2657108    0.0950143 -85.37  0.001019114    3.528    0.717
       234  -9.2529     79.3772    205.3782   6.1724874091e+01   2.0979669407e+01    0.2995676    0.1323329 -73.67  0.001253689    2.938    0.660
       235 -10.3377      5.5871     22.2079   5.6760745650e+01   7.5208287895e+01    0.3260389    0.1830494   0.47  0.001667112    1.965    0.491
       236 -11.2902      4.4473    204.5638   8.0079131477e+01   2.9010744221e+01    0.3132209    0.1424412 -64.18  0.001566016    2.451    0.592
       237  -9.9065     16.0613    190.5821   7.6620368812e+01   3.1216300081e+01    0.2581685    0.1448954  71.17 0.0008739299    1.635    0.388
       238 -12.5965      4.5676    183.8851   7.9297967129e+01   3.3733093583e+01    0.6652374    0.4321636  79.28  0.003768399    1.354    0.262
       239 -10.3312      9.5040    182.0428   7.7920195825e+01   3.3785703258e+01    0.2549976    0.1394718  44.58 0.0006133363    1.542    0.351
       240 -10.7438    178.5718     20.8268   3.5683412736e+02   3.8267976263e+01    0.4267376    0.2350351  43.28  0.001963712    2.618    0.618
       241  -9.3989     23.9511    181.9838   7.4045638657e+01   3.2552060476e+01    0.1928115    0.1512311 -39.65 0.0008233044    1.622    0.384
       242  -9.4961    216.5288     19.9810   3.5363899917e+02   3.0091314993e+01    0.1793953    0.1008557 -35.10 0.0003794127    1.515    0.340
       243 -10.0085     46.1610     20.0022   2.7108827393e+01   7.0070309516e+01    0.2843751    0.1852576  47.50  0.001040502    1.534    0.348
       244  -9.1874     89.4587     16.4959   9.0688172174e+00   6.0884504475e+01    0.1976035    0.1754691  54.73 0.0009135998    1.068    0.064
       245  -9.3731     28.3791    175.8373   7.2405795936e+01   3.3634646862e+01    0.1916717     0.111162 -65.74 0.0009507501    1.740    0.425
       246 -10.4913     15.9841    173.9707   7.5737656394e+01   3.5216168859e+01    0.3232512     0.172144  83.14  0.001571249    1.791    0.442
       247  -9.8202     74.9219     19.0573   1.4560007892e+01   6.4059644882e+01    0.2133216    0.1887492  27.84 0.0007424162    1.150    0.131
       248 -12.1236      8.9948    166.8537   7.7309054768e+01   3.7551916761e+01    0.5282173     0.298883  36.98  0.002748145    1.607    0.378
       249 -12.5973     12.9071    160.8205   7.5829149190e+01   3.8774967891e+01    0.6005209    0.4693162 -15.51  0.001962788    1.676    0.403
       250 -10.0267    186.9273     14.9505   3.5449446066e+02   3.7004027569e+01     0.196477    0.1687682 -60.78  0.000753371    1.062    0.059
       251  -9.7167    148.5066     15.4810   3.5835357261e+02   4.6103749764e+01    0.2458627    0.1032908  60.72 0.0009914244    2.270    0.560
       252  -8.8275     28.3216    167.3037   7.1768445733e+01   3.5773011808e+01    0.1326235    0.1003017 -39.88  0.000399549    1.634    0.388
       253  -9.6953    196.5904     14.1384   3.5355676483e+02   3.4940959848e+01    0.2164974    0.1454273 -75.16 0.0006436799    1.362    0.266
       254 -10.6579     18.1163    165.1637   7.4580678602e+01   3.7239757963e+01    0.3627325    0.1882689 -64.87  0.001727214    1.897    0.473
       255  -9.6333    219.0378     12.9797   3.5183637980e+02   3.0347015038e+01    0.1658924    0.1449827  23.33 0.0007566169    1.684    0.406
       256 -10.1274    205.0671    162.9495   2.7391662767e+01   1.0755180393e+01    0.1960109    0.1615255 -21.19 0.0006669038    1.026    0.025
       257  -9.5190    214.9861    161.4915   2.5462313474e+01   9.5619590533e+00    0.1618989    0.1181677  30.33 0.0003591136    1.497    0.332
       258 -10.5663     28.4378    160.2486   7.1152167858e+01   3.7565329844e+01    0.2881434    0.1991549  51.89  0.001526137    1.323    0.244
       259 -10.7547      9.4938    155.0720   7.6499993619e+01   4.0515524436e+01    0.3504198    0.1848603  75.46   0.00142914    1.780    0.438
       260  -9.7472    104.5109    154.5468   4.7940145145e+01   2.8869901007e+01    0.3025075    0.1453085 -56.57  0.001200082    2.128    0.530
       261  -9.4621     24.6893    155.6693   7.1904594491e+01   3.9103091533e+01    0.1389923   0.09850575 -44.06 0.0004062857    1.670    0.401
       262 -11.2323     47.3510    147.4118   6.3912270493e+01   3.8921623193e+01     0.743569    0.4442678 -48.31  0.003376393    1.843    0.457
       263 -11.6734     16.6041    147.7197   7.3792418044e+01   4.1886143289e+01    0.5287539    0.2154672 -80.63  0.002153539    2.277    0.561
       264 -11.3514     24.0052    147.9995   7.1457190205e+01   4.1181463871e+01    0.3383324    0.2781431  83.19 0.0006896881    1.092    0.084
       265 -10.9942      3.9562    153.1924   7.8071613587e+01   4.1395496723e+01    0.3581921    0.1748545  34.24  0.001720016    1.899    0.473
       266  -9.4086     55.4938    152.8820   6.2063799028e+01   3.6497401068e+01    0.2153879    0.1383199 -70.80  0.001013034    1.531    0.347
       267 -11.8331     21.2246    150.5549   7.2557299181e+01   4.0751355305e+01    0.5159445    0.2952765 -45.08 0.0004908549    2.088    0.521
       268 -12.2972      3.3600    142.2631   7.7658286675e+01   4.4286650254e+01    0.7804798     0.450467  56.69  0.002306736    1.591    0.371
       269 -11.7308     12.4160    135.4109   7.4203191018e+01   4.5491592542e+01    0.6730226    0.3639654 -52.41  0.003121453    1.940    0.485
       270  -9.9380    104.1117    147.2949   4.6694279807e+01   3.0662211696e+01    0.2578111    0.2129821 -68.51 0.0004080369    1.272    0.214
       271 -10.5140     32.9742    143.9954   6.8161550573e+01   4.1397250537e+01    0.3126711    0.2471589 -78.45 0.0008365592    1.185    0.156
       272 -11.3662     40.7016    138.1275   6.4901584962e+01   4.2160752353e+01    0.3864136    0.3205268  79.26 0.0007320431    1.142    0.124
       273 -11.0667     29.7638    132.4371   6.7945610251e+01   4.4832572228e+01     0.519958    0.3210306  20.87  0.002464488    1.778    0.438
       274 -11.6874     24.0862    136.4710   7.0337103677e+01   4.4261929106e+01    0.5331387    0.4119602 -27.52  0.002833172    1.595    0.373
       275 -10.2766     20.6501    133.9290   7.1260590639e+01   4.5245931210e+01    0.3167022    0.2992151  22.05  0.001277688    1.205    0.170
       276  -9.2641    103.8044    130.6339   4.3372368455e+01   3.4742906738e+01    0.2015284    0.1390218  48.44 0.0002074709    1.495    0.331
       277 -10.9610     10.7194    125.4970   7.3975993682e+01   4.8292427408e+01    0.7194609    0.3037335 -42.56  0.002775397    2.922    0.658
       278  -9.9139     26.7146    127.0343   6.8390409640e+01   4.6592494782e+01     0.202056    0.1681018 -83.81 0.0002991272    1.093    0.085
       279  -9.9108     33.3001    125.8917   6.5878548122e+01   4.6271125455e+01    0.2403833    0.1664439  83.17 0.0009759769    1.452    0.312
       280 -10.2808     22.6669    125.5979   6.9683640057e+01   4.7343970828e+01    0.3720661    0.1950258  83.66  0.001569916    2.027    0.507
       281  -9.6327      1.8970    125.1301   7.7090154038e+01   4.8943914449e+01    0.2250862    0.1599402  65.44  0.001223541    1.303    0.232
       282 -10.5798    104.9280    122.4538   4.1203639020e+01   3.6521280213e+01       0.3255    0.3036439  51.91 0.0009558849    1.084    0.077
       283  -9.5230     48.6337    123.0222   5.9917726870e+01   4.5330971381e+01    0.2610044    0.1977844  16.10   0.00070951    1.515    0.340
       284 -10.1101     43.3379    116.8630   6.0830908325e+01   4.7649458822e+01    0.4420251     0.197232 -77.05   0.00123311    2.483    0.597
       285 -10.2391     58.5681    115.3053   5.4908027694e+01   4.6104452723e+01    0.2948258    0.2342762 -75.11 0.0001651241    1.234    0.190
       286 -11.5952     15.5591    108.9361   7.0477818215e+01   5.2480776905e+01    0.8107724    0.4454596 -46.13  0.002153669    1.905    0.475
       287 -11.1925      7.8551    114.8584   7.4099431676e+01   5.1377312971e+01    0.3271862    0.2263706 -63.18 0.0002696851    1.342    0.255
       288 -12.5829      3.1785    110.6120   7.5532329623e+01   5.2805096827e+01    0.9828721    0.4016701 -72.38   0.00290234    2.057    0.514
       289  -9.7913     79.0575    114.9669   4.7627085847e+01   4.3018044329e+01    0.2318036    0.2218477 -57.87 0.0004607467    1.052    0.049
