#   1 NUMBER                 Running object number                                     
#   2 MAG_AUTO               Kron-like elliptical aperture magnitude                    [mag]
#   3 X_IMAGE                Object position along x                                    [pixel]
#   4 Y_IMAGE                Object position along y                                    [pixel]
#   5 X_WORLD                Barycenter position along world x axis                     [deg]
#   6 Y_WORLD                Barycenter position along world y axis                     [deg]
#   7 A_WORLD                Profile RMS along major axis (world units)                 [deg]
#   8 B_WORLD                Profile RMS along minor axis (world units)                 [deg]
#   9 THETA_WORLD            Position angle (CCW/world-x)                               [deg]
#  10 FWHM_WORLD             FWHM assuming a gaussian core                              [deg]
#  11 ELONGATION             A_IMAGE/B_IMAGE                                           
#  12 ELLIPTICITY            1 - B_IMAGE/A_IMAGE                                       
         1  -8.7338    203.1355     11.1251   6.2296579051e+01   3.2813770669e+01    0.2073575    0.1783453  55.75 0.0009308525    1.257    0.205
         2  -8.3752    211.2859      8.6938   6.0855878381e+01   3.1022680790e+01    0.1401481   0.08727217 -63.08  0.000638322    1.566    0.361
         3  -8.7645    109.2618      3.0497   7.3854307994e+01   5.7312682275e+01    0.1836695    0.1643676  28.65  0.000840699    1.062    0.059
         4  -9.0404    190.7729    246.9839   1.1816104401e+02  -1.8263504470e+00    0.1334633   0.09830946 -34.28 0.0008846188    1.682    0.405
         5  -9.9732    233.1261    238.6357   1.0950557240e+02  -7.3199868871e+00    0.3873346    0.2515798  53.83  0.002236642    2.366    0.577
         6 -10.9456    234.1281    247.4567   1.1069935194e+02  -8.4373649869e+00    0.5370207    0.3190229  37.51  0.003120635    1.445    0.308
         7 -11.9620    248.7914    242.4890   1.0749344576e+02  -9.9773245194e+00    0.8597584    0.3311748 -33.21  0.004546886    2.864    0.651
         8 -10.6100    248.4166    234.6635   1.0630267716e+02  -9.0909578661e+00    0.4795351    0.1913828 -33.02  0.002508396    2.705    0.630
         9 -11.5168    242.9177    246.8665   1.0914384362e+02  -9.6174372494e+00    0.4152538    0.3379661 -12.98  0.002497773    1.369    0.269
        10 -11.3450    241.3479    239.9685   1.0832895586e+02  -8.6613563428e+00    0.4313593    0.3098398 -12.08  0.001931836    1.374    0.272
        11  -8.8651    112.8193    246.6032   1.3232117163e+02   1.0584370372e+01    0.1898243   0.08689954 -57.16    0.0010107    2.681    0.627
        12  -8.7127    120.6618    246.6737   1.3089700867e+02   9.3702102877e+00    0.1101361   0.08765521  18.00 0.0007051566    1.726    0.421
        13  -8.7488    210.5304    245.2223   1.1441331414e+02  -4.6836728769e+00    0.1445645    0.1020211  -8.58 0.0008679774    1.597    0.374
        14  -9.6055    146.6961    243.1450   1.2569817271e+02   5.7911602704e+00    0.3554965    0.1621282 -58.80  0.001742117    3.142    0.682
        15  -9.0259    169.5082    242.6031   1.2141704713e+02   2.1678736084e+00     0.206721    0.1223729 -45.22  0.001204457    2.142    0.533
        16  -9.6976    160.0749    239.9858   1.2281451511e+02   4.0825576622e+00    0.3734537    0.2482376 -81.38  0.001974437    2.800    0.643
        17  -8.5314    201.3812    241.2346   1.1544366944e+02  -2.7729115051e+00    0.1356065    0.1141806 -44.32 0.0008119484    1.610    0.379
        18  -8.7314    219.4960    239.9123   1.1205045851e+02  -5.4238485129e+00    0.1500283    0.1114802 -27.15 0.0009235841    1.548    0.354
        19  -8.9000    195.1757    239.0154   1.1623225784e+02  -1.5012941884e+00    0.1916308    0.1600962 -13.98  0.001333357    1.359    0.264
        20  -8.8370    183.2987    238.3524   1.1829844008e+02   5.0947627601e-01    0.1214676    0.0841778  12.78 0.0007036229    1.693    0.409
        21  -9.8245    204.3077    235.0066   1.1398731728e+02  -2.4458426978e+00    0.3098325    0.2747027 -56.93  0.002161917    1.656    0.396
        22  -9.0232    189.7628    237.1353   1.1694039395e+02  -3.7846976476e-01    0.1686424    0.1470063  45.94 0.0005600342    1.259    0.206
        23  -8.8760     49.6313    235.8889   1.4279873056e+02   2.1213909680e+01    0.1734803     0.131085  49.51 0.0007364915    1.303    0.232
        24 -10.2195    216.1453    233.3890   1.1162647459e+02  -4.1166243069e+00    0.3984925    0.3289059  74.03  0.002514373    2.153    0.535
        25 -10.1506    173.4109    232.6197   1.1931488908e+02   2.9503563456e+00    0.4551157    0.2074772 -33.66  0.002080714    3.233    0.691
        26  -9.6225    194.8983    231.5250   1.1516575967e+02  -4.6114846369e-01    0.3122889    0.1976744 -26.98  0.001815202    1.922    0.480
        27  -8.9331    132.8586    232.3137   1.2698186060e+02   9.7434265637e+00    0.2218069    0.1451072 -78.08  0.001239034    2.132    0.531
        28  -9.9082    186.5646    230.4249   1.1653798947e+02   1.0688807022e+00    0.3482328    0.2574467 -69.20  0.002014769    2.272    0.560
        29  -9.1860    157.7380    231.3420   1.2209956476e+02   5.7684883786e+00    0.2246553    0.1772684  67.17  0.001251735    1.464    0.317
        30  -8.3944    226.4454    231.4988   1.0951997671e+02  -5.4837405489e+00    0.1178594   0.09523972  22.20 0.0001601377    1.084    0.078
        31  -9.4972    236.0749    229.4095   1.0752060434e+02  -6.6974047104e+00    0.2210471     0.191379  55.22  0.001158904    1.769    0.435
        32  -8.9871    231.0774    228.1467   1.0817257278e+02  -5.7906962474e+00    0.1914691    0.1317519  17.60  0.001217069    1.255    0.203
        33  -9.3692    223.1666    226.8977   1.0934842607e+02  -4.4119837020e+00     0.223199    0.1892717 -18.76 0.0009093368    1.323    0.244
        34  -9.6204    149.8759    226.3747   1.2293342789e+02   7.8778623766e+00    0.3344427    0.2258954  75.86  0.001534084    2.165    0.538
        35  -9.7347    161.9254    225.3135   1.2045523336e+02   5.9953175283e+00    0.3367954    0.2172079 -54.25  0.001906186    1.966    0.491
        36  -9.7115    246.8635    225.5682   1.0505842550e+02  -7.8517530818e+00    0.2611924    0.1826165  46.72  0.001202678    1.810    0.448
        37  -9.3649    206.7520    224.9373   1.1196987221e+02  -1.5211104855e+00    0.3012471    0.1675837 -42.61  0.001633206    2.218    0.549
        38  -8.7545    127.6788    225.4915   1.2714352034e+02   1.1739054884e+01    0.1892614    0.1168623 -56.96 0.0009278373    1.928    0.481
        39  -9.9566    216.4047    222.9105   1.0989624870e+02  -2.8265805851e+00    0.3522474    0.1712049 -38.23  0.001821324    2.369    0.578
        40  -9.2648    199.7676    224.3442   1.1315466907e+02  -2.8538024472e-01    0.2245241    0.1763621   8.69 0.0006429572    1.278    0.218
        41  -9.8318    181.4642    224.6505   1.1662282717e+02   2.7576191372e+00    0.3040571    0.1905701  45.03  0.001154075    1.397    0.284
        42  -9.8755    239.1475    221.4596   1.0566909053e+02  -6.2181061105e+00    0.3262242    0.2500877  -2.92  0.002211708    1.189    0.159
        43  -9.1022    172.6357    222.7755   1.1802221278e+02   4.5505222346e+00    0.1570748    0.1221724 -59.53 0.0007487366    1.695    0.410
        44  -9.5416    140.5714    221.7944   1.2413206879e+02   1.0213628503e+01    0.2696064    0.1282497 -55.18  0.001295051    2.567    0.610
        45  -8.8024    229.4882    222.4679   1.0750759709e+02  -4.8515123627e+00    0.1888648    0.1130365 -29.78  0.000807328    1.797    0.444
        46 -10.5566    226.3337    219.6504   1.0758690218e+02  -3.9996120139e+00    0.3276914    0.2812696  11.16  0.001379695    1.116    0.104
        47 -10.1572    250.3262    216.3216   1.0289812839e+02  -7.2860538573e+00    0.4856135    0.1434768 -32.33  0.002055994    3.489    0.713
        48 -10.6048    247.6672    215.6878   1.0323239870e+02  -6.8135289184e+00    0.5763096    0.2558824 -26.43  0.002920018    2.367    0.577
        49  -9.7081    192.1463    220.4651   1.1395576484e+02   1.5467394227e+00    0.2536194    0.2092492  56.18  0.001352086    1.427    0.299
        50  -9.2446    209.9789    219.4784   1.1049194546e+02  -1.3177088378e+00    0.1983109    0.1491971  50.66  0.001202429    1.538    0.350
        51  -8.9189    168.6759    215.9213   1.1774866763e+02   6.3119006700e+00    0.2159652    0.1643404 -49.52  0.001263019    1.585    0.369
        52 -10.0726    132.0911    214.1040   1.2478415157e+02   1.2996422584e+01    0.4410026    0.2744782 -75.25  0.002240023    2.245    0.555
        53  -9.3243    240.9358    214.0130   1.0408041133e+02  -5.5836082586e+00    0.2817733    0.2101166  29.28  0.001842407    1.197    0.165
        54 -10.1148    232.6129    213.8638   1.0549262856e+02  -4.2597740011e+00     0.356787    0.2499605 -13.87  0.001918714    1.431    0.301
        55  -9.8555    185.6138    212.8438   1.1396860082e+02   3.8121309180e+00    0.3311621     0.241697 -34.06  0.001204804    1.575    0.365
        56 -11.8614    215.3178    209.1478   1.0776027881e+02  -7.9020807534e-01    0.6800962    0.4331431  -2.75  0.003570304    1.983    0.496
        57 -10.8714    196.6655    204.3724   1.1041678022e+02   3.1508777987e+00    0.4519886    0.3079239  62.47  0.002300219    2.114    0.527
        58  -9.5538    199.6036    210.4330   1.1089992023e+02   1.7246783024e+00     0.360945    0.2271516 -66.22   0.00152899    3.667    0.727
        59 -10.5699    204.8779    206.4270   1.0921845436e+02   1.3943297819e+00    0.3935442    0.2573472 -11.69  0.002071602    1.919    0.479
        60  -9.9099    175.4851    209.7974   1.1544435755e+02   6.0872589440e+00    0.4741826    0.2931542 -67.54  0.002160755    2.963    0.663
        61 -12.1276    226.1941    196.7536   1.0355593880e+02  -9.0075075842e-01     1.580373     1.061138 -55.83  0.008076801    2.480    0.597
        62 -10.2978    249.8293    180.3655   9.6315009705e+01  -2.6038843714e+00    0.7232169    0.2117682 -34.01  0.002769087    3.287    0.696
        63 -11.6513    247.4123    193.0361   9.9162119517e+01  -3.9183772544e+00    0.7283133    0.4875125 -29.02  0.004334637    1.472    0.321
        64 -10.4910    245.9880    183.7655   9.7625319114e+01  -2.4333957229e+00    0.7195185    0.4379782 -57.94   0.00304343    3.788    0.736
        65 -10.7198    237.0071    196.7346   1.0164001705e+02  -2.7157869977e+00    0.5017929    0.3031324  31.67  0.002052736    1.507    0.336
        66 -11.2152    238.3890    189.3228   1.0000078173e+02  -1.9295984463e+00    0.9746757    0.3739499 -27.09  0.003929255    3.068    0.674
        67  -9.7225    191.6431    209.0341   1.1217746694e+02   3.3309024936e+00    0.2669846    0.2420568   8.89   0.00102387    1.117    0.105
        68  -8.7442    147.4822    209.2551   1.2096867911e+02   1.1179039281e+01    0.2972942    0.1340697 -52.86   0.00132584    2.639    0.621
        69  -8.8049     71.5167    210.4844   1.3662451119e+02   2.3158075452e+01    0.1248776   0.09693304  67.77 0.0008100804    1.029    0.028
        70  -9.7396    124.5042    206.0855   1.2523922872e+02   1.5764816995e+01    0.3104178     0.155118  47.39  0.001477772    1.727    0.421
        71  -9.0147    184.0179    202.6204   1.1256838452e+02   5.7038377298e+00    0.3261754     0.160857 -35.54  0.001482132    2.419    0.587
        72  -9.4573    163.5528    201.9333   1.1655004392e+02   9.5597338660e+00    0.2842645    0.2384232 -74.78  0.001670449    1.504    0.335
        73  -9.3541    139.8096    202.5846   1.2154672019e+02   1.3743532208e+01    0.3539273     0.157964 -47.90  0.001550608    2.596    0.615
        74  -9.6773    177.3833    198.5170   1.1317970943e+02   7.5948549626e+00    0.3207098    0.2165686  78.26  0.001413181    2.833    0.647
        75 -10.8811    209.8764    201.1604   1.0735065932e+02   1.2939280436e+00    0.6038954    0.2403314  35.07  0.002176551    2.454    0.592
        76 -10.8117    216.6383    194.0921   1.0480124425e+02   1.1457912346e+00    0.3894688    0.3122718  19.70  0.002362079    1.109    0.098
        77  -8.2484     72.6716    200.6903   1.3540378496e+02   2.4967474526e+01    0.1095473    0.0995146 -27.67 0.0004713259    1.662    0.398
        78  -9.3150    208.4031    193.2651   1.0618497859e+02   2.7428803118e+00    0.5289007    0.3653721 -82.95  0.002094587    4.157    0.759
        79  -9.5675    210.3572    189.5632   1.0512277530e+02   2.9571287263e+00    0.2881605    0.2847682 -75.52  0.001549703    1.306    0.234
        80  -8.5066     60.6661    194.3449   1.3726397032e+02   2.7910137527e+01    0.1366235   0.07593692  68.28  0.000704982    1.765    0.433
        81 -11.1727    245.8579    204.1701   1.0148748286e+02  -5.1151483275e+00    0.9470231    0.5027902  55.46  0.004170935    3.508    0.715
        82  -8.6045     79.8370    181.8172   1.3167774723e+02   2.7920771890e+01    0.1930665    0.1337032  68.82 0.0007270785    1.374    0.272
        83  -8.3746    147.2703    179.6355   1.1618206568e+02   1.6741893714e+01    0.1415703    0.1082557  82.59 0.0006997596    1.658    0.397
        84  -8.1406     25.6735    178.6750   1.4325093523e+02   3.5306768702e+01    0.1091938   0.08245558 -52.95 0.0007049329    1.694    0.410
        85 -11.1203    231.6326    186.3292   1.0061065241e+02  -3.5119049956e-01    0.8301969    0.5391182  -1.42  0.004321325    1.805    0.446
        86  -8.4048     35.3437    175.3086   1.4088335378e+02   3.5032915054e+01    0.1116995   0.08766942 -47.97 0.0007044144    1.696    0.410
        87  -7.9951    106.7109    162.6467   1.2254901930e+02   2.7832902366e+01    0.1367267    0.1127286 -22.97 0.0007025868    1.673    0.402
        88  -8.7661    243.2479    155.4543   9.2324929283e+01   2.1500870843e+00    0.1648517       0.1306  55.79 0.0005379174    1.564    0.361
        89  -8.6800    229.6903    153.4175   9.4217495973e+01   5.0224587350e+00    0.1835691    0.1250395  33.35 0.0009326278    1.485    0.327
        90  -9.3205    240.9209    149.3129   9.1398887406e+01   3.5233106083e+00    0.2484779    0.2088839 -40.69 0.0007126543    1.278    0.218
        91  -8.9876    248.4465    143.2283   8.8844732074e+01   3.0481318471e+00    0.1855019    0.1171771 -41.00 0.0005846614    1.578    0.366
        92  -9.1250     95.7839    134.6087   1.2014417425e+02   3.6148572476e+01    0.2128653    0.1278846  51.10 0.0009558052    1.726    0.421
        93  -8.3474    236.0404    130.0135   8.7923383128e+01   7.5368664329e+00    0.2110911    0.1693734 -70.95 0.0006758047    1.689    0.408
        94  -8.5528    231.1591    129.8194   8.8695724536e+01   8.5653417561e+00    0.2000889    0.1577932  -4.59 0.0004789861    1.377    0.274
        95  -9.5589    201.0448    125.9880   9.3247608312e+01   1.5731249376e+01    0.4383625    0.2172181 -37.49  0.001744998    1.993    0.498
        96  -8.4972    186.6343    128.2505   9.6680211610e+01   1.8563259595e+01    0.2113738    0.1433745 -28.82 0.0007653419    1.604    0.376
        97  -8.4612    232.1673    121.1595   8.6517683670e+01   9.7801029324e+00    0.1878529    0.1616579 -54.00 0.0004091349    1.265    0.209
        98  -8.8868    192.9012    118.6545   9.3047516725e+01   1.8937604519e+01    0.2745875    0.1629501 -70.25 0.0009002276    3.465    0.711
        99  -8.6952    109.1907    116.4072   1.1247715928e+02   3.7940245278e+01    0.2158849    0.1383109  53.98  0.000947324    1.690    0.408
       100  -8.3918    209.6607    114.2826   8.8766551326e+01   1.5882226687e+01     0.148723    0.1177291 -77.05 0.0006052901    1.628    0.386
       101  -8.7685    241.9995    112.6070   8.2952725987e+01   9.1134282719e+00    0.2472185    0.1803516 -45.49  0.001294305    1.348    0.258
       102  -9.4041    152.6539    112.9047   1.0036477887e+02   2.9449450053e+01    0.4035625    0.2300354 -75.95   0.00105449    5.281    0.811
       103  -8.7521     25.7895    111.4402   1.3597076564e+02   5.0597825402e+01     0.151106    0.1199679 -10.47 0.0009465516    1.687    0.407
       104  -8.5753    236.9531    107.5243   8.2533670506e+01   1.0989296876e+01    0.2097338    0.1409532  52.77  0.001035935    1.605    0.377
       105  -8.5972    197.5263    106.9746   8.9187350749e+01   2.0004330190e+01    0.2335548    0.1483167 -35.81 0.0009000314    1.555    0.357
       106  -8.9521    206.2158    105.2052   8.7118619738e+01   1.8277455381e+01    0.2544781    0.1617426  12.98 0.0009465644    2.758    0.637
       107  -8.2907    213.7070    104.7004   8.5660324858e+01   1.6626700647e+01    0.1470483    0.1157719  11.22 0.0003150755    1.567    0.362
       108  -8.8638    246.7012    102.8692   7.9978551189e+01   9.6744589741e+00    0.2022621     0.161254 -35.94 0.0009794186    1.131    0.116
       109  -9.1819    205.8636     97.8091   8.5286406179e+01   1.9655812291e+01    0.2269863     0.207278  11.56 0.0006640618    1.197    0.164
       110  -8.3321    171.5574     96.5209   9.1659153227e+01   2.8214729218e+01    0.1555478    0.1516777 -74.00  6.46999e-05    1.031    0.030
       111  -8.1850    218.2993     95.3042   8.2517034046e+01   1.7160414128e+01    0.1459887    0.1151357  13.05 0.0004068579    1.588    0.370
       112  -9.0086    151.0000     88.0357   9.3885291980e+01   3.4849349586e+01    0.2608763     0.089368 -39.11 0.0008015744    2.936    0.659
       113  -8.9163    218.9724     85.9903   8.0041626237e+01   1.8542812146e+01    0.1824556    0.1685823 -43.56  0.001006468    1.028    0.027
       114  -9.4163    172.1442     84.2547   8.8088901673e+01   3.0348735962e+01    0.3088605     0.195819 -62.15 0.0008993013    2.064    0.515
       115  -9.2601    196.3987     82.6624   8.2959136474e+01   2.4568548039e+01    0.2912111    0.1378312 -39.41  0.001111564    2.029    0.507
       116  -8.9690    158.0557     76.2169   8.8757163797e+01   3.5325003209e+01    0.2850687    0.2312011 -37.69  0.001384218    1.246    0.198
       117  -9.5142     62.4991     75.4703   1.1626896483e+02   5.4879194149e+01     0.255204    0.1264642 -63.23  0.001038653    2.493    0.599
       118 -10.3589    230.2480     71.9480   7.4818511906e+01   1.8115891393e+01    0.3457215    0.2750792  -0.16  0.001723134    1.607    0.378
       119  -9.7514     42.5922     73.7684   1.2297095781e+02   5.7654795753e+01    0.1826878     0.113438 -66.30 0.0007274296    1.637    0.389
       120  -9.0170    196.9311     73.4719   8.0348630728e+01   2.5971004345e+01    0.2251065    0.1481841  60.22 0.0007196938    1.532    0.347
       121  -8.5979    106.9602     72.0000   1.0063774722e+02   4.7945359437e+01    0.2398822   0.08426954  45.85 0.0007967243    2.903    0.656
       122  -8.4750    208.2321     74.0070   7.8621214313e+01   2.3073685428e+01    0.2366256    0.1715464   5.82 0.0008022781    1.987    0.497
       123  -9.4176    215.7175     69.2303   7.6202630103e+01   2.1994613629e+01    0.2734202    0.1883012 -84.14 0.0007862411    1.804    0.446
       124  -8.3734    188.0000     68.9811   8.0652884630e+01   2.8964490169e+01    0.2463809    0.0860896 -33.55 0.0007819413    2.869    0.651
       125  -8.7712    239.5049     67.9419   7.2605146485e+01   1.6590480633e+01    0.2102901    0.1278698 -34.73 0.0005888856    1.521    0.342
       126  -8.0104    176.7066     67.6605   8.2354565938e+01   3.2069451591e+01    0.1560517    0.1203824  18.97 0.0007028109    1.651    0.394
       127  -8.7817    245.3052     65.9745   7.1411736945e+01   1.5576595193e+01    0.1974194    0.1618635 -38.83  0.000558329    1.126    0.112
       128  -8.5897    234.5360     66.4793   7.2884217127e+01   1.7943722205e+01    0.1403357    0.1287969 -52.94 9.385411e-05    1.019    0.018
       129  -9.4154    214.3276     62.0245   7.4511037865e+01   2.3435099412e+01    0.2069211     0.179576 -45.43 0.0005571877    1.102    0.093
       130 -10.0348    203.2851     61.4919   7.6017993793e+01   2.6265954600e+01    0.4380441    0.2368638  62.88  0.001853763    1.862    0.463
       131  -8.9762    194.7610     62.6060   7.7689723510e+01   2.8254836329e+01    0.2135806    0.1424914  76.58 0.0009473429    1.673    0.402
       132  -9.0514    231.4214     59.2105   7.1476950612e+01   1.9734612936e+01    0.2739923    0.1350453 -28.72  0.001146701    2.099    0.524
       133  -9.2493    223.9422     59.8114   7.2601257957e+01   2.1425002998e+01    0.2002285    0.1644494   3.17  0.001045871    1.562    0.360
       134  -8.4725    174.2415     59.4411   8.0376763138e+01   3.4028811246e+01     0.212903    0.1458189  76.71  0.000936052    1.650    0.394
       135  -9.2223     73.6720     59.6824   1.0735423167e+02   5.6472683371e+01    0.1422621    0.1018675 -10.71 0.0007046186    1.680    0.405
       136  -9.1841    190.6558     54.4989   7.6061568365e+01   3.0540448860e+01    0.2677653    0.1386563 -32.37  0.001089868    1.953    0.488
       137  -9.0753    155.2171     53.3845   8.2249871100e+01   3.9874649352e+01    0.2166661    0.1438417  69.80 0.0009496702    1.637    0.389
       138  -9.0468    149.4322     52.7658   8.3278219713e+01   4.1442072980e+01    0.2048792    0.1490009 -14.86 0.0009402243    1.622    0.384
       139  -8.4678    105.6532     52.3326   9.4281011337e+01   5.1821201568e+01    0.1455986    0.1164493 -78.05 0.0007049316    1.766    0.434
       140  -9.4465    194.8744     49.1841   7.3884002283e+01   3.0228375070e+01    0.4060111    0.1601455 -41.02  0.001457426    2.423    0.587
       141  -8.9922    233.2292     45.5534   6.7865824144e+01   2.1222126933e+01    0.1774953    0.1261082  58.20 0.0003922247    1.496    0.331
       142  -9.1698    220.9483     44.6917   6.9098285539e+01   2.4290875231e+01    0.2007788    0.1748349  82.25 0.0006059476    1.124    0.110
       143  -9.7035    189.8441     44.2675   7.3246350706e+01   3.2219378344e+01     0.287481    0.1812144  47.46   0.00111599    1.679    0.404
       144  -8.8374    214.4096     42.7179   6.9398460020e+01   2.6172072656e+01    0.2689737    0.1239356 -36.16 0.0009206308    2.030    0.507
       145  -9.1033    132.4709     43.5282   8.3978735675e+01   4.7059546562e+01    0.1461184    0.1402211  42.34 0.0001546224    1.015    0.015
       146  -9.0459      5.1107     41.5312   1.2971488433e+02   6.7349989062e+01    0.1798344     0.146092 -73.44  0.001293283    1.373    0.272
       147  -9.5010    104.9872     40.2712   8.9977562547e+01   5.3895891339e+01    0.2607038    0.1747526 -44.67  0.001125524    1.656    0.396
       148  -9.5909    174.4008     40.3571   7.4553687810e+01   3.6781992700e+01    0.2955958     0.187095  70.21  0.001338998    1.575    0.365
       149  -9.3698     94.2887     39.7299   9.2990599474e+01   5.6218773176e+01    0.2892521    0.1666575 -10.36  0.001181586    2.548    0.608
       150  -8.7144    165.7808     39.2117   7.5682433589e+01   3.9189818600e+01    0.2025002    0.1691129  31.91 0.0006085349    1.318    0.241
       151  -8.3387    242.6012     37.5607   6.4930817738e+01   2.0098730016e+01    0.1338961    0.1144757 -60.40 0.0001321505    1.017    0.017
       152  -8.5489    229.6720     36.6954   6.6066771725e+01   2.3239418580e+01     0.132687    0.1044165  34.32 0.0006572662    1.650    0.394
       153  -9.1670    218.0670     34.2828   6.6752150298e+01   2.6371638929e+01    0.1964608     0.170866 -81.92 0.0004734533    1.060    0.057
       154  -8.7898    160.6839     34.0014   7.4923508862e+01   4.1203588897e+01    0.1980138    0.1950365  79.22 0.0007096385    1.053    0.050
       155  -9.4759    164.4890     32.1123   7.3653484285e+01   4.0450642420e+01    0.4079221     0.255611 -40.96  0.001294776    1.651    0.394
       156  -8.9916    140.8962     30.7398   7.7613521320e+01   4.6702876641e+01    0.3665023    0.1608278  44.75  0.001403518    2.304    0.566
       157  -8.6623    194.3589     30.1664   6.8569464161e+01   3.2894110752e+01    0.2067488    0.1185879 -42.23 0.0005370855    1.711    0.416
       158  -8.7338     91.3015     23.6618   8.7333453858e+01   5.9094484792e+01    0.1279502    0.1063568 -63.21 0.0007036933    1.666    0.400
       159  -9.1313    142.1915     20.0465   7.3605855043e+01   4.7629182786e+01    0.3931401    0.2182893  20.32  0.001567339    2.698    0.629
       160  -8.9667    206.4923     20.0961   6.4331495811e+01   3.0983565590e+01    0.2090722    0.1746824  80.83 0.0005162033    1.108    0.097
       161  -8.4335    240.9621     18.4914   6.0599700670e+01   2.2812117669e+01    0.1807712    0.1187175  77.95 0.0003872706    1.474    0.322
       162  -8.6216    107.0186     16.0077   7.9735651420e+01   5.6582852823e+01    0.2624924     0.172559  55.13  0.001360369    1.425    0.298
       163  -9.3027     64.2242     15.9731   9.3102777589e+01   6.5170969939e+01    0.2182006    0.1631576  53.34  0.001286426    1.694    0.410
       164 -10.2050    224.8391    245.2870   1.1194593517e+02  -6.8464460114e+00    0.3371723    0.2738651 -56.23  0.002287798    2.174    0.540
       165  -8.7038    132.8032    248.0060   1.2882197275e+02   7.2704524860e+00    0.1838582    0.1035299  54.90 0.0008449001    1.612    0.380
