#   1 NUMBER                 Running object number                                     
#   2 MAG_AUTO               Kron-like elliptical aperture magnitude                    [mag]
#   3 X_IMAGE                Object position along x                                    [pixel]
#   4 Y_IMAGE                Object position along y                                    [pixel]
#   5 X_WORLD                Barycenter position along world x axis                     [deg]
#   6 Y_WORLD                Barycenter position along world y axis                     [deg]
#   7 A_WORLD                Profile RMS along major axis (world units)                 [deg]
#   8 B_WORLD                Profile RMS along minor axis (world units)                 [deg]
#   9 THETA_WORLD            Position angle (CCW/world-x)                               [deg]
#  10 FWHM_WORLD             FWHM assuming a gaussian core                              [deg]
#  11 ELONGATION             A_IMAGE/B_IMAGE                                           
#  12 ELLIPTICITY            1 - B_IMAGE/A_IMAGE                                       
         1 -12.4107     75.2601     52.2479   8.0153571024e+01   5.8277497973e+01     1.469642    0.8712996 -53.06  0.006477603    1.769    0.435
         2 -13.2615     42.3946     45.6947   9.2549149182e+01   6.4942193741e+01     1.306517    0.7066292  49.46 0.0006249592    2.440    0.590
         3 -12.1730    124.8811     28.0103   5.4857510939e+01   5.1013004358e+01     1.010997    0.4427152  47.89   0.00286623    2.302    0.566
         4 -11.6359    137.3264     23.4044   5.0540989846e+01   4.8344831940e+01    0.9752616    0.5905698  58.66  0.003587621    1.574    0.365
         5 -11.8448    152.7242     24.1867   4.8218386216e+01   4.4180075095e+01     1.631241    0.6206648  58.91  0.006074944    2.412    0.585
         6 -10.3819    147.1986     16.1007   4.6140076369e+01   4.6570832186e+01    0.6294512    0.3798161  44.06  0.002550467    1.797    0.444
         7 -12.6491    162.5607     28.7147   4.8281684856e+01   4.1046338863e+01    0.8340986     0.444431  44.98 0.0009307237    2.119    0.528
         8 -11.6299    145.7513     46.9087   5.7503081854e+01   4.2882693985e+01      1.17561    0.4504204 -26.06  0.003814383    3.106    0.678
         9 -10.2629     47.0765     18.9032   7.7806191922e+01   6.9723110765e+01    0.3641976    0.3416725 -37.75  0.001581997    1.185    0.156
        10 -11.8944      5.5899     34.8619   1.1027512760e+02   7.0686251182e+01     1.539686    0.4779231 -60.21 0.0007622039    2.302    0.566
        11 -10.4720     21.8789      5.1107   8.5730784112e+01   7.5760387034e+01    0.3652914    0.2296691 -55.10  0.001219345    1.841    0.457
        12 -11.9455     26.2769     28.0192   9.4747649983e+01   7.0713173998e+01    0.5650359    0.4679401  32.44  0.002365346    1.371    0.271
        13 -12.0576     36.1876     18.3979   8.3835446712e+01   7.1470023565e+01    0.8334575    0.5634824 -53.01  0.004513117    1.596    0.374
        14 -12.1641     49.0972     12.8568   7.3203916730e+01   7.0395076668e+01    0.7382748    0.3532451  45.25  0.003343226    2.184    0.542
        15 -12.0683     22.8869     11.5474   8.8923218807e+01   7.4446782630e+01    0.7615345    0.4666213  -2.58  0.002294337    2.054    0.513
        16 -12.5259     17.1956     12.4885   9.3712683549e+01   7.4848832427e+01    0.8638777     0.580635 -32.49  0.004901296    1.336    0.251
        17 -12.3646    104.5892     12.8761   5.2952870125e+01   5.8111105997e+01    0.6209502    0.4851779 -32.37  0.002400374    1.318    0.241
        18 -11.3692    105.9237     20.7104   5.6240769243e+01   5.6819828452e+01    0.4544376    0.2959788 -31.23 0.0008007649    1.552    0.356
        19 -10.9106    198.7583     29.1366   4.3822967422e+01   3.1860906424e+01     0.659865    0.4046648 -17.10  0.003051803    1.804    0.446
        20 -10.9295    178.6664     21.1391   4.3672565188e+01   3.7778027805e+01    0.5561002    0.2982925  39.12  0.001870534    2.441    0.590
        21 -10.8091    214.1599     23.7481   4.0817129442e+01   2.8840326092e+01    0.6637729    0.3965923  10.57  0.002904451    2.794    0.642
        22 -10.6671     87.2233      7.4670   5.4844541616e+01   6.3016182610e+01    0.6310373    0.3789256  64.69  0.002594827    1.708    0.415
        23 -11.3169     90.6503     21.0572   6.0742649754e+01   6.0496864919e+01    0.6561457    0.4227957 -24.50  0.002148023    1.610    0.379
        24 -11.2972     86.1107     14.3895   5.8818353765e+01   6.2456423458e+01     0.753249    0.4816873  14.01  0.002858272    2.035    0.509
        25 -11.9467     68.1600     17.9288   6.7217980668e+01   6.5947093918e+01    0.6044259    0.5548186  66.66  0.003571824    1.278    0.217
        26 -10.7497    123.4176     20.8734   5.2251915087e+01   5.2311660723e+01     1.127043    0.8789992 -67.04  0.005696345    1.439    0.305
        27 -11.4358    127.4725     16.4750   4.9629402084e+01   5.1765708842e+01     1.137421    0.4981828 -39.67  0.004043333    2.287    0.563
        28 -11.5569    131.9380     16.0767   4.8644124316e+01   5.0629568919e+01    0.4922326    0.3859696  47.75  0.001479723    1.276    0.216
        29 -10.6276    136.5372     14.4862   4.7218842638e+01   4.9582921601e+01    0.3116712    0.3035614  67.40 0.0007919589    1.036    0.034
        30 -12.0455    237.5441     15.9561   3.7020307106e+01   2.4508250503e+01    0.5262583    0.4156301  64.87  0.002438601    1.464    0.317
        31 -11.3374    165.0026     18.0091   4.4330516708e+01   4.1659319583e+01     0.472972    0.2979392  38.90   0.00140734    1.890    0.471
        32 -10.5227    226.1580     15.6405   3.7727591193e+01   2.7000130245e+01    0.3953499    0.2015122 -37.62  0.001622816    1.612    0.380
        33  -9.5550    192.2816     16.0785   4.0675711233e+01   3.4904356495e+01    0.4453877    0.2562756  38.83  0.002008115    2.288    0.563
        34 -11.4340    192.8359      7.3424   3.8048238509e+01   3.5651471329e+01     0.724309    0.4457572  10.95  0.003334433    2.407    0.585
        35  -9.7778    141.6135     12.2464   4.5542363059e+01   4.8468018320e+01    0.3231237    0.2184225  26.88 0.0005890964    1.808    0.447
        36 -11.3553     14.1005     23.5100   1.0101495939e+02   7.2777711795e+01    0.5795748    0.4130948  35.29 0.0003066697    1.654    0.395
        37 -11.2359    211.8086      9.8322   3.7250073932e+01   3.0848870037e+01    0.5198855    0.3146695   5.82   0.00162961    2.507    0.601
        38  -9.3012     94.3351     12.1320   5.5241078412e+01   6.0755714568e+01    0.1882187    0.1777316 -31.22 0.0004978267    1.112    0.101
        39  -9.2621      4.6768     11.0604   1.0308681523e+02   7.6095963660e+01    0.3871933     0.178535 -52.28  0.002022649    1.690    0.408
        40 -12.0075    246.9980      6.5754   3.4216787238e+01   2.3485296044e+01    0.5962796    0.3967761  -5.21  0.002816357    1.929    0.482
        41 -10.9002    242.3514      3.7610   3.3800630012e+01   2.4708830748e+01    0.3599139    0.2253549  64.87  0.002122413    1.830    0.453
        42  -9.8033     65.9818     10.3189   6.3795786216e+01   6.7487167054e+01    0.2689134    0.2229432  56.65 0.0008103743    1.314    0.239
        43 -10.2737     63.0629      6.8875   6.2937459773e+01   6.8550445351e+01    0.3377929    0.2581253  23.54  0.001754159    1.300    0.231
        44  -9.8679    168.8201      9.6966   4.1099067242e+01   4.1528587532e+01    0.3948216    0.1912467  52.40  0.001677098    2.145    0.534
        45  -8.7417    163.4414     10.0772   4.1837471270e+01   4.2897999691e+01    0.2637031    0.2171371 -49.35 0.0009673826    1.171    0.146
        46  -9.1907    163.4964      5.5976   4.0308627712e+01   4.3315284958e+01    0.3318849    0.1602641  42.58  0.001337214    2.518    0.603
        47  -9.2232     71.4405     10.2211   6.1598466514e+01   6.6326721834e+01    0.1927392    0.1238342 -38.47 0.0009490511    1.638    0.389
        48 -11.3822    232.6284      7.4241   3.5234272980e+01   2.6412726785e+01    0.6316172    0.3064381  58.57  0.003148351    2.362    0.577
        49 -10.2183    227.9389      3.6656   3.4576696611e+01   2.7794977386e+01    0.3121974    0.2171264 -30.66  0.001860005    1.312    0.238
        50 -11.0007    218.7675      3.2645   3.5030127590e+01   2.9882547557e+01    0.3418717    0.2477303 -31.56  0.001113006    1.279    0.218
        51 -10.4039    223.4928      1.9727   3.4409569095e+01   2.8939086655e+01    0.3362572    0.2072678  81.10  0.001144122    1.667    0.400
        52  -8.9973     78.4853      7.5155   5.7575709352e+01   6.5072433932e+01    0.3026993    0.2005249  65.07  0.001501448    1.635    0.388
        53 -11.2754     75.7816      3.3808   5.6102653507e+01   6.6160281211e+01    0.8366641    0.3434415  49.38  0.003357548    2.192    0.544
        54 -11.1381     41.1468      4.9513   7.2550184258e+01   7.2991481574e+01    0.4924963    0.2854366 -13.35  0.002315319    2.200    0.545
        55  -9.3207      1.1335      7.3656   1.0452599772e+02   7.7070145721e+01    0.2615914   0.06421208 -64.19 0.0006259353    3.421    0.708
        56 -11.2871      3.0940      1.8957   1.0002297284e+02   7.8091680846e+01    0.4309619    0.2019973   3.77  0.002164448    2.526    0.604
        57  -9.8836     12.7526      1.8650   9.1130443398e+01   7.7333986513e+01    0.3502238    0.1872807  21.36  0.001763934    1.999    0.500
        58 -10.1952    183.4897      4.9996   3.8151443934e+01   3.8211524357e+01    0.3804448    0.2599595 -37.29  0.001770856    1.367    0.268
        59  -9.7746    153.8709      6.9064   4.1881502053e+01   4.5733916643e+01    0.3488179    0.2016094  75.79  0.001235179    1.674    0.403
        60 -10.8770    176.6562      5.6727   3.8989847865e+01   3.9889513814e+01    0.4089972    0.2369428  86.46  0.001365618    1.748    0.428
        61 -10.5117    114.7726      3.2433   4.6330095483e+01   5.6467274606e+01    0.4457437    0.2504214  59.73 0.0009758456    1.612    0.380
        62 -10.9933    106.6857      2.1295   4.7389851170e+01   5.8674299719e+01    0.7328764    0.3968433  79.83  0.003144924    2.090    0.522
        63 -11.7866     20.2486     22.0690   9.6139002117e+01   7.2578517351e+01    0.8224521    0.2258191 -54.24  0.003164812    2.886    0.653
        64 -10.7384    142.6121      2.7492   4.1776899066e+01   4.9114333772e+01    0.4443355    0.2862425  56.24  0.001100338    1.492    0.330
        65 -12.0471    134.0272      2.4813   4.2850583746e+01   5.1430671479e+01    0.4935943    0.2982152  74.16  0.001052718    1.577    0.366
        66 -10.0497    207.7771      2.7684   3.5616522115e+01   3.2475178327e+01     0.266662    0.2138813 -60.11 0.0007483924    1.094    0.086
        67 -10.2437    204.4781      1.4933   3.5491217839e+01   3.3375674464e+01    0.3050744    0.2190906  78.52  0.001276891    1.395    0.283
        68  -9.7668    158.2554      2.3351   3.9757199981e+01   4.4992564100e+01    0.3859246    0.1964216  49.30  0.001675198    2.079    0.519
        69  -9.3952    122.9131      1.2188   4.4024609510e+01   5.4499683362e+01     0.394725    0.1009789  68.59  0.001244432    3.420    0.708
        70  -9.8380     82.1222      1.2993   5.2945687466e+01   6.4885900215e+01    0.1933737    0.1182625  60.62 0.0003747078    1.569    0.363
        71  -8.7373     33.9930      1.2098   7.4337435870e+01   7.4723366112e+01    0.1536069   0.09730566  37.33 0.0004059205    1.605    0.377
        72  -9.0693    152.0346      1.0000   3.9977190352e+01   4.6757092241e+01    0.2303191   0.07555486  74.06 0.0007055476    2.884    0.653
        73 -11.5356     12.7473    138.6664   1.2016798422e+02   4.4566483045e+01    0.7111046     0.413437  78.92  0.003591895    1.519    0.342
        74  -9.9449    142.8717    249.3874   1.0048319678e+02   7.6624097346e+00    0.1609503    0.1439342  46.05   0.00131044    1.325    0.245
        75  -9.8089    239.7871    146.6124   6.7013816386e+01   7.4192134815e+00    0.2177732    0.1496028 -22.64 0.0006221168    1.251    0.201
        76 -10.7485    249.6890    142.8535   6.4811450553e+01   6.3835966567e+00    0.5389794    0.2010767 -30.02  0.002494639    2.317    0.568
        77 -10.6973     33.4458    144.4637   1.1469679213e+02   4.1398621532e+01    0.4366164    0.2601939  41.91  0.002040406    1.550    0.355
        78  -9.8371    133.0194    140.4084   8.6637340616e+01   2.7625308260e+01    0.2729482    0.2480336 -73.18  0.001175102    1.223    0.182
        79 -10.8521     22.8549    127.0569   1.1626742217e+02   4.6587743350e+01    0.3527755    0.1812401  33.66 0.0003401487    1.913    0.477
        80 -11.8456     22.8964    135.3194   1.1696773410e+02   4.4563520129e+01     1.069681    0.3401943  40.27  0.004520012    2.663    0.624
        81 -12.0624     29.9996    132.8412   1.1462000505e+02   4.4538147864e+01    0.4017086    0.2906749  74.80 0.0003191728    1.253    0.202
        82 -10.4100     47.2661    136.2471   1.0979519258e+02   4.1931179484e+01    0.4970831    0.1581642 -66.66  0.001481479    2.817    0.645
        83  -9.6677    216.2561    137.0183   6.8764616865e+01   1.2638656534e+01     0.336974    0.1713223 -28.81  0.001602383    1.869    0.465
        84  -9.1878     79.3294    138.3090   1.0065308108e+02   3.7235231463e+01    0.2470891    0.1997423 -11.71  0.001227133    1.674    0.403
        85  -9.9416     81.9951    135.3244   9.9388816349e+01   3.7541128959e+01    0.4739299    0.2181129  20.66  0.001591552    3.696    0.729
        86 -10.4090     67.4368    135.7839   1.0372635373e+02   3.9530828870e+01    0.3369996    0.2463766 -44.86 0.0007000824    1.574    0.365
        87 -10.1177     39.9323    137.9225   1.1216695963e+02   4.2319845333e+01    0.3105359    0.1658654  37.01 0.0008808387    1.774    0.436
        88  -9.2378    192.4428    136.4877   7.2880773447e+01   1.7037021335e+01    0.1365281    0.1238452  -3.77 0.0001066028    1.015    0.015
        89 -10.7631     93.2174    131.2722   9.5425796399e+01   3.6714784006e+01    0.6867944    0.2761097 -63.24  0.002441349    2.914    0.657
        90  -9.2252    107.7026    145.9960   9.4160916280e+01   3.0949799298e+01    0.1919908    0.1811298 -80.23 0.0004014349    1.097    0.088
        91 -10.1801     74.0690    132.5829   1.0125601127e+02   3.9371743104e+01    0.2913516    0.2670231  -7.47  0.001680381    1.323    0.244
        92  -9.9958     61.6332    132.1401   1.0491867947e+02   4.1188517101e+01     0.367536     0.328223 -11.17  0.002139622    1.401    0.286
        93  -9.5159     38.8591    132.8480   1.1193431454e+02   4.3670722419e+01    0.2730009    0.1792722  20.09  0.001254164    1.789    0.441
        94  -8.5720     43.3309    132.2799   1.1050722676e+02   4.3338012621e+01    0.1283801    0.1000253 -36.65 0.0004259278    1.604    0.377
        95  -9.4984    103.8532    130.8501   9.2338001678e+01   3.5003479925e+01    0.2075048    0.1961908  14.55 0.0003837429    1.153    0.133
        96 -11.0917     10.6336    127.2582   1.2004102003e+02   4.7468312424e+01    0.4759933    0.2251757 -64.47 0.0009099394    1.953    0.488
        97 -10.3120     82.3092    125.3216   9.7513620098e+01   3.9880773527e+01    0.5031321    0.3341784 -16.61  0.001594465    2.613    0.617
        98  -9.6420    241.6889    127.6719   6.2831966544e+01   9.6211593287e+00    0.1297259   0.08636531   2.50 0.0003065242    1.665    0.399
        99  -9.1004    224.0035    126.9353   6.5330862222e+01   1.2743379957e+01    0.1911339    0.1490928 -52.05 0.0005395695    1.622    0.384
       100 -10.0133      4.3532    121.1713   1.2158048249e+02   4.9358777046e+01    0.4485987    0.2072272 -71.39   0.00169422    1.865    0.464
       101 -11.8890      2.2536    111.7863   1.2166447243e+02   5.1782178926e+01    0.5927861    0.3227113  54.04  0.002335134    1.741    0.426
       102 -11.4503      3.7908    105.2457   1.2069945600e+02   5.3319783087e+01    0.4864362    0.3596011  45.56   0.00264318    1.386    0.278
       103 -10.7773     55.1800    123.4826   1.0562515044e+02   4.4143517325e+01    0.5428607    0.4127337  10.14  0.002878012    1.675    0.403
       104  -9.8675     49.5228    122.9900   1.0735727784e+02   4.4945959677e+01    0.3217429    0.2543707  11.02  0.001379588    1.570    0.363
       105 -11.0485     45.5266    120.0649   1.0823359688e+02   4.6133700029e+01    0.7201039    0.3465904  71.18  0.002767457    2.902    0.655
       106 -11.1387     18.8340    122.7199   1.1714267610e+02   4.7982462082e+01    0.3233817     0.176018 -76.36  0.001661171    1.606    0.377
       107 -11.9677    104.2450    122.2923   9.0455332722e+01   3.6893945271e+01    0.4267474    0.3936255 -50.34 0.0007098853    1.117    0.105
       108  -9.5544     94.1826    123.4254   9.3606987079e+01   3.8393281729e+01    0.2011474    0.1314389  49.49 0.0004023865    1.539    0.350
       109  -9.5133     68.3599    123.3160   1.0143885491e+02   4.2442270583e+01    0.1443818    0.1089197 -26.93 0.0007043133    1.756    0.431
       110  -9.0672     71.4259    120.7557   1.0002532493e+02   4.2633887752e+01    0.1971761    0.1267219 -52.56 0.0006212911    1.573    0.364
       111 -10.9261     33.0526    119.4720   1.1223016070e+02   4.7569439281e+01    0.3565192    0.2793423  77.74  0.001383569    1.172    0.147
       112  -9.7129      2.7943    126.3680   1.2235928218e+02   4.8191366678e+01    0.3320602    0.1617732  73.76  0.001503696    1.847    0.458
       113  -9.1587    148.5003    119.9867   7.8372587083e+01   2.8733746381e+01    0.2110981    0.1289448 -19.20 0.0008100814    2.511    0.602
       114  -9.5439    185.3248    119.3259   7.0344002750e+01   2.1291315354e+01    0.1481635     0.107508   6.32 0.0007048998    1.692    0.409
       115  -8.9928     13.5589    118.9609   1.1850957574e+02   4.9303136593e+01    0.1791135    0.1083334 -79.69   0.00029614    1.425    0.298
       116  -9.4657    210.3112    117.9815   6.5543377668e+01   1.6590970507e+01    0.2228411    0.0883384 -49.65 0.0007042355    4.217    0.763
       117  -9.6302    113.6501    115.8998   8.6364572554e+01   3.6595506520e+01      0.25357    0.2092119  27.86 0.0005440937    1.302    0.232
       118  -9.6694     94.4614    112.0526   9.1083871187e+01   4.1031059304e+01    0.3693256    0.2653143  31.11  0.001766853    1.499    0.333
       119 -10.4870    107.4277    111.8575   8.7183146457e+01   3.8699970694e+01    0.4376843    0.3411892  84.27  0.001452424    1.589    0.371
       120 -10.9396    102.5172    109.7364   8.8120286431e+01   4.0111593577e+01    0.6662973    0.5591834   4.16  0.003013493    1.476    0.323
       121  -9.5054     67.2810    114.1360   1.0013619856e+02   4.4865521291e+01     0.390341    0.2365934  75.94  0.001647308    2.235    0.553
       122  -9.6679     67.2089    110.5640   9.9478030582e+01   4.5764537174e+01    0.3678659    0.1990551  31.81  0.001606624    1.946    0.486
       123 -11.5554      9.5609     97.0923   1.1795848210e+02   5.5039247027e+01     0.673647    0.5043169  62.94  0.001556855    1.301    0.231
       124 -12.1692      7.3000     88.7983   1.1799548957e+02   5.7260582135e+01     0.630652     0.439806  44.19   0.00210492    1.518    0.341
       125 -11.5617     42.0658     93.8244   1.0524307937e+02   5.3175630627e+01    0.4180853    0.2937006  72.89 0.0002795058    1.566    0.362
       126 -11.7523     35.8612     93.5052   1.0755445240e+02   5.3899272178e+01     1.203127    0.6746601  63.26  0.005433171    2.136    0.532
       127 -12.1404     18.5890    106.5308   1.1567130627e+02   5.2054958913e+01    0.4538213    0.2310212 -58.52 5.279077e-05    1.821    0.451
       128 -11.6940     17.1081    101.0039   1.1560444288e+02   5.3561076525e+01    0.2774532    0.2581082 -67.78 0.0004151038    1.147    0.128
       129 -11.7756     25.2628    113.5876   1.1414224823e+02   4.9746988522e+01     1.175303    0.4449568  11.39  0.003858784    4.175    0.760
       130 -12.5655     25.2242    106.6155   1.1335157838e+02   5.1514258377e+01     1.335575    0.9486915  -7.09  0.005881091    1.891    0.471
       131 -11.9242     22.5397     94.9108   1.1285234100e+02   5.4710214490e+01     0.648977    0.3962045   1.37  0.003007912    2.207    0.547
       132 -12.4552     18.2181     89.8549   1.1385218950e+02   5.6318548018e+01    0.8372871    0.4651383 -42.21  0.001916122    1.989    0.497
       133 -11.9462     44.0862     85.3277   1.0278776541e+02   5.5112581752e+01    0.8293316    0.4884348  33.05  0.003994351    1.796    0.443
       134 -10.9701     37.6525     86.1112   1.0551956526e+02   5.5606889083e+01    0.3533114     0.282668  32.37  0.001104902    1.364    0.267
       135  -9.4339    126.8557    113.7858   8.2271794117e+01   3.4450880035e+01    0.2276082    0.2066328   3.86 0.0007900179    1.216    0.178
       136  -9.7692     48.8484    112.4036   1.0598347288e+02   4.7685627383e+01    0.2697297    0.2156164  58.63  0.001235699    1.239    0.193
       137 -11.1390    170.3006    110.4386   7.1191514332e+01   2.5975969837e+01    0.4275379    0.3438427 -28.79   0.00136237    1.231    0.187
       138  -8.9408     82.4156    102.5041   9.2705145220e+01   4.5392846361e+01    0.1469581    0.1397883 -71.98 9.677945e-05    1.021    0.020
       139 -11.3365     78.9409    108.2679   9.5140095970e+01   4.4556005813e+01    0.7847293    0.3743869  35.13  0.003160879    2.153    0.535
       140 -10.5317     90.3310    104.2986   9.0569188484e+01   4.3602280385e+01    0.3986264    0.3606034 -14.24  0.001217682    1.278    0.218
       141 -10.3715     85.9720    103.9677   9.1887575614e+01   4.4438064030e+01    0.4284697    0.3030091 -32.12  0.001350547    1.744    0.427
       142  -9.4228     58.5040    108.2881   1.0198391097e+02   4.7528411211e+01    0.2493493    0.1355813 -71.20 0.0006531171    1.854    0.461
       143 -10.1687    157.3941    106.7015   7.3028350541e+01   2.9446388509e+01    0.3785283    0.2734944 -14.08  0.001511656    1.735    0.424
       144 -10.2869    143.3295    106.0016   7.6128232681e+01   3.2626195117e+01    0.3401834    0.2942741 -87.74  0.001508144    1.376    0.273
       145 -11.7571    145.4299    100.6016   7.4196029727e+01   3.3250257989e+01    0.5458294     0.483742  -9.00  0.002036515    1.230    0.187
       146  -9.8344     50.7047    102.0101   1.0355820587e+02   5.0099978903e+01    0.3116454    0.2217161 -59.67   0.00101415    1.314    0.239
       147 -11.1331     52.2813     95.9969   1.0183048476e+02   5.1431570545e+01    0.8680829    0.4586831  81.92  0.003145306    3.192    0.687
       148  -8.6860    208.8023    100.9710   6.1758108308e+01   1.9503171821e+01    0.1714608    0.1455548 -25.96 0.0003385503    1.067    0.063
       149  -9.7817    210.1877     97.6281   6.0719209567e+01   1.9732519205e+01    0.2663311    0.2180616  38.24  0.001308483    1.309    0.236
       150  -9.4125    120.8204    101.2023   8.0704295361e+01   3.8415868591e+01     0.214508    0.1855101  -3.25 0.0008164246    1.365    0.268
       151 -11.5843     67.0446     95.3254   9.6313816998e+01   4.9584493797e+01     0.474455    0.4657083  71.10  0.001662602    1.068    0.064
       152 -11.0071     90.0727     89.3207   8.6816785385e+01   4.7194488423e+01    0.8509273    0.4961702 -28.90  0.003217082    2.590    0.614
       153  -9.8943     80.7301     98.4212   9.2296274181e+01   4.6664900557e+01    0.2818378     0.243283  13.66 0.0007963415    1.350    0.259
       154  -9.6555     77.2010     96.8171   9.3108131569e+01   4.7636970943e+01    0.2800651    0.2090808  34.41 0.0007341168    1.409    0.290
       155 -10.0943     82.9501     93.4781   9.0315537626e+01   4.7481584455e+01    0.3347303    0.2645955  29.51 0.0008600189    1.377    0.274
       156 -10.9642     76.9040     92.9489   9.2260974132e+01   4.8628049611e+01     0.523401    0.4107843  25.92  0.001603536    1.424    0.298
       157  -9.9268     58.2591     97.7441   1.0000256828e+02   5.0217745082e+01    0.4127589    0.2021294  27.47  0.001705442    2.303    0.566
       158 -10.0613    120.3080    109.3786   8.2946885254e+01   3.6732851779e+01    0.3388046    0.2046957 -44.44  0.001462074    1.679    0.405
       159 -10.1804    117.5579     93.1331   7.9417544508e+01   4.0853870351e+01    0.4648063    0.3152703  19.30  0.001922226    2.111    0.526
       160 -10.8704    124.4696     93.6942   7.7653880054e+01   3.9255363191e+01    0.6525612    0.4419253  44.55  0.002954258    1.486    0.327
       161 -10.5356    120.6293     89.2269   7.7439602958e+01   4.1035074926e+01    0.3809367    0.3200169 -27.25  0.001169453    1.287    0.223
       162 -11.0568    120.5165     85.0164   7.6234536777e+01   4.1949577524e+01    0.4677818    0.3253902  56.28  0.001959004    1.539    0.350
       163  -9.4003    160.7685     93.8547   6.8869325663e+01   3.1114519872e+01    0.2858611    0.2039587  83.47  0.001231105    2.078    0.519
       164 -10.7787    152.4826     91.6290   7.0086155599e+01   3.3414190300e+01    0.5415547     0.445454  85.06  0.002300191    1.494    0.331
       165  -9.0481    138.1446     93.2328   7.3955278857e+01   3.6341147003e+01     0.271877    0.1752681   8.84 0.0009630829    2.975    0.664
       166 -10.8096    100.5278     90.8993   8.3876766035e+01   4.4834158017e+01    0.6209143    0.3945356  49.08  0.002630842    1.631    0.387
       167 -10.4518    104.1961     86.8220   8.1573730023e+01   4.5020031267e+01    0.4251853     0.332193 -14.18  0.001981979    1.657    0.397
       168 -10.8871    113.6830     83.4854   7.7730139185e+01   4.3761563988e+01    0.3916408    0.3673151 -82.44  0.001360249    1.117    0.104
       169  -9.3322    200.9447     88.9657   6.0016832115e+01   2.3002157044e+01    0.2891531    0.1942534 -74.13  0.001273066    2.372    0.578
       170  -9.8698     66.7744     88.6096   9.4812839604e+01   5.1287476835e+01    0.3468589     0.226677 -33.68  0.001164489    1.879    0.468
       171 -10.2622     67.0924     81.9358   9.2978845100e+01   5.2874921874e+01    0.7602037    0.3885309  35.71   0.00319618    2.045    0.511
       172 -11.5150     77.5588     81.2838   8.8914563491e+01   5.1323855707e+01    0.8347368    0.5962036 -87.84  0.003760376    1.901    0.474
       173 -11.6482     72.5740     79.1329   9.0139487043e+01   5.2675509333e+01    0.7162627    0.4616526 -33.30  0.002566145    1.868    0.465
       174 -10.4765    183.5590     85.7070   6.2128740533e+01   2.7364681617e+01    0.6656398    0.2455259 -41.76  0.002359085    2.603    0.616
       175 -10.5758    108.9904     80.9270   7.8347929031e+01   4.5315977544e+01    0.4376593    0.3603631 -12.59  0.001786039    1.471    0.320
       176 -10.4905    165.6488     83.5804   6.4971754693e+01   3.1848145981e+01      0.40331    0.3500506 -78.23  0.001544887    1.322    0.243
       177 -11.4258    142.7615     83.9259   7.0137378341e+01   3.7125324198e+01    0.4485776     0.405093  53.10   0.00099984    1.125    0.111
       178 -10.1762    127.5238     83.0694   7.3736830064e+01   4.0789725899e+01    0.3287725    0.2902213 -46.72  0.001642863    1.124    0.110
       179 -10.4429    127.2719     77.5472   7.2108555961e+01   4.1959957507e+01    0.4817317    0.2918595 -41.67 0.0009529678    1.631    0.387
       180 -11.4306     58.1487     77.7907   9.5362415612e+01   5.5210473209e+01    0.6295197    0.3431552 -75.52 0.0003974369    2.446    0.591
       181 -12.5899     52.4036     73.7482   9.6640209239e+01   5.6988836585e+01    0.6632275    0.3510771 -68.96 0.0007355402    2.058    0.514
       182 -11.2577     47.0704     74.5411   9.9086273201e+01   5.7470811057e+01    0.3867499    0.2456845 -67.22            0    1.512    0.339
       183  -9.3710    102.7805     80.2367   8.0050693431e+01   4.6768947063e+01    0.3526653    0.2074341 -38.44 0.0009442208    1.799    0.444
       184 -10.2020    104.0156     75.3057   7.8119813633e+01   4.7581667644e+01    0.4225105    0.3254793 -63.66  0.001286899    1.449    0.310
       185 -10.3660    232.9293     77.3593   5.2572271929e+01   1.8059791513e+01    0.3757682    0.1987138 -29.18  0.001422187    1.649    0.393
       186 -11.8146     14.0109     74.6146   1.1347198730e+02   6.0467761422e+01    0.5292343    0.3305218 -80.17  0.001746347    1.423    0.297
       187 -10.4515     14.8912     67.3069   1.1191175786e+02   6.2256262695e+01    0.3416214    0.2799101  -5.35  0.001664095    1.437    0.304
       188  -9.0850    170.5281     77.9840   6.2400677297e+01   3.1671646719e+01    0.2268195    0.1433189 -34.58 0.0005591047    1.526    0.345
       189  -9.6027    174.4985    246.9839   9.4530952270e+01   3.9340754626e+00    0.2251624    0.1207447  22.86  0.001399411    1.608    0.378
       190 -11.1788     85.6405     73.4608   8.3662254045e+01   5.1680542572e+01      0.97662    0.6256934  32.39  0.004343109    1.741    0.426
       191 -11.1868     79.8251     67.7916   8.3941796952e+01   5.4044816017e+01    0.5467834    0.4348848  66.32  0.001515919    1.493    0.330
       192 -10.6778     84.0947     63.8605   8.1037892790e+01   5.4108192136e+01    0.5699983     0.333365 -27.63  0.001510859    2.353    0.575
       193 -11.5437     91.2209     62.7034   7.8100388938e+01   5.2935305881e+01     1.174575    0.4671822  46.75  0.004151946    2.607    0.616
       194 -10.9070     91.7506     57.7107   7.6113694217e+01   5.3861862914e+01     0.424566      0.33375  46.09  0.001375969    1.300    0.231
       195 -10.7060     87.5320     56.9743   7.7323136198e+01   5.4885290068e+01    0.5586253    0.2365012 -38.67  0.001696833    2.484    0.597
       196 -11.7346      1.9120     71.1806   1.1834878934e+02   6.1947780579e+01    0.6141821    0.1920078 -75.70  0.002491607    2.550    0.608
       197 -12.5020      6.0914     62.9051   1.1536146536e+02   6.3835835531e+01    0.8184027    0.4851867 -31.39  0.004382023    1.877    0.467
       198 -12.1578    186.4649     70.5687   5.7429246469e+01   2.9126384904e+01    0.9650949    0.6206899 -35.05  0.003559543    1.449    0.310
       199 -10.5035     64.3131     75.1457   9.2182750863e+01   5.4947323280e+01     0.441904    0.3486853  23.92 0.0007227645    1.415    0.293
       200  -9.7595     24.2927     73.0694   1.0867528762e+02   6.0135436853e+01    0.3763761     0.157783 -71.22  0.001589761    2.130    0.530
       201  -9.8107    184.3840     61.2208   5.5087308408e+01   3.1047186329e+01    0.3029058    0.2152986 -41.38  0.001024976    1.323    0.244
       202  -9.4168    152.3450     73.2861   6.4731775405e+01   3.6831584898e+01    0.4781998    0.2024433  37.97  0.001491545    3.433    0.709
       203 -10.6247     22.5970     37.0942   1.0046087723e+02   6.9034406837e+01    0.6716762     0.318498  49.51  0.002649976    3.170    0.685
       204 -11.9331     21.4182     46.5850   1.0405107488e+02   6.6903638523e+01    0.5451301    0.4067777 -37.11  0.003183856    1.291    0.226
       205  -9.2189    199.2529    244.4422   8.9950228754e+01   1.1345888061e+00    0.1521979   0.07957579  38.10 0.0009583896    1.729    0.422
       206 -11.0915     33.8363     58.1672   1.0080811464e+02   6.2982954436e+01    0.4657044    0.2521655 -30.24  0.000773425    2.348    0.574
       207 -11.5149     27.4468     56.2713   1.0347141943e+02   6.4054764397e+01     1.115506    0.7872167 -39.80  0.004960894    1.386    0.279
       208 -11.1623     20.6005     55.4407   1.0674414607e+02   6.4818820411e+01    0.4130844    0.3229285  50.66   0.00103906    1.465    0.318
       209 -11.9708     40.5214     70.6567   1.0094942401e+02   5.9198867779e+01    0.9306549     0.312364 -53.04  0.003496661    2.529    0.605
       210 -11.5484     32.4390     72.0505   1.0485043273e+02   5.9681705030e+01    0.6545622     0.292358  25.97  0.002157914    2.434    0.589
       211 -11.1345     41.0883     57.1509   9.7001941462e+01   6.2432400854e+01    0.4916137    0.3681336  62.05  0.001666167    1.649    0.394
       212 -11.4735     50.7305     61.1075   9.3734154699e+01   6.0269608219e+01    0.3757164    0.3282007  66.52 0.0009512163    1.304    0.233
       213 -11.5675     46.1337     58.6789   9.5084603364e+01   6.1450174626e+01    0.5936493    0.2636079 -50.27    0.0024814    2.008    0.502
       214 -11.8350    122.8503     68.8989   7.0512007329e+01   4.4689359361e+01    0.5807283    0.5447075  50.58  0.001766264    1.076    0.070
       215  -9.8913    162.1781     70.8301   6.1929866748e+01   3.4882473707e+01    0.3124651    0.2545388 -65.37  0.001005902    1.365    0.268
       216  -9.9911    172.2136     68.5868   5.9336997695e+01   3.2828847210e+01    0.6052504    0.4674317 -44.65  0.003038294    1.258    0.205
       217  -9.9389    171.6797     65.0060   5.8366130140e+01   3.3533842909e+01    0.3581134    0.3252202 -30.06  0.001944283    1.080    0.074
       218  -8.9798     20.2749     71.8119   1.1023857445e+02   6.0758406546e+01    0.1748413    0.1650558  59.37  0.001123139    1.168    0.144
       219 -11.4010    220.0144     66.3398   5.1436554183e+01   2.2212267741e+01    0.5913971    0.3785468  53.64  0.002507625    1.729    0.422
       220 -10.8887     21.8418     65.7408   1.0837002999e+02   6.2169999758e+01    0.3914096    0.2669257  32.10  0.001388526    1.627    0.385
       221  -9.7491    192.5168     65.6174   5.5069191226e+01   2.8465875300e+01    0.2722669    0.2333084 -63.09 0.0007609157    1.221    0.181
       222  -9.8807     94.4955     76.2026   8.1482755660e+01   4.9344075308e+01    0.5592604    0.3472219  38.73  0.002442622    1.688    0.408
       223 -10.4525     59.5079     63.9717   9.0795601081e+01   5.8336845140e+01    0.4527769    0.2591699 -44.21  0.001379727    1.700    0.412
       224 -10.0843     57.3009     61.3010   9.0888115051e+01   5.9292121001e+01     0.251668     0.245998   2.25 0.0006347185    1.081    0.075
       225  -9.6336     53.2503     66.0342   9.4115432753e+01   5.8749737598e+01    0.2988411    0.1858822  44.06   0.00123821    1.762    0.432
       226 -10.2973    200.6151     63.8357   5.3373957562e+01   2.6855429249e+01    0.6061964    0.3257694  83.38  0.002314027    3.091    0.677
       227  -9.5752    106.0345     63.8332   7.3652912146e+01   4.9532007597e+01    0.2866147    0.2256215 -40.41  0.001394955    1.256    0.204
       228 -11.2719    234.3382     61.0076   4.8417027649e+01   1.9932303572e+01    0.4373368    0.3781329  64.16   0.00200396    1.335    0.251
       229 -10.2428    158.9709     62.2790   5.9928889101e+01   3.7097101642e+01    0.5110956    0.2378052  46.37  0.001921964    2.300    0.565
       230 -11.2558    127.6551    242.2061   1.0258360826e+02   1.0583730747e+01    0.2838044    0.2674327  30.98  0.002325881    1.250    0.200
       231 -11.9759    120.6130     57.7479   6.7281645915e+01   4.7326776427e+01     1.605238     1.147765  86.55  0.006923822    1.965    0.491
       232 -11.4497    115.2699     49.0275   6.5529056965e+01   5.0172852238e+01    0.9738342    0.3522751  41.88  0.002990874    3.419    0.708
       233 -12.3419    117.4584     43.0308   6.2629855665e+01   5.0652541213e+01     0.759261    0.5242001  75.84  0.003146861    1.784    0.439
       234 -12.9750    117.8301     38.1202   6.0595506124e+01   5.1344056909e+01     1.358284    0.6952768  54.62  0.001886347    1.896    0.473
       235  -9.4536    148.3870     60.8974   6.1666040095e+01   3.9954592706e+01    0.4556325    0.1733282  62.58  0.001434839    3.228    0.690
       236 -10.4237    162.1662     45.1062   5.3806019995e+01   3.8945950926e+01    0.5531051    0.4537733   5.30  0.002802015    1.454    0.312
       237 -10.9019    138.0923     33.7342   5.4308298647e+01   4.6793841469e+01    0.6508437    0.3782491 -56.83  0.002032388    2.090    0.521
       238  -8.5277    200.3109    241.3505   8.9370803191e+01   1.3393114692e+00    0.1117612   0.06608543   7.06 0.0007045078    1.719    0.418
       239  -9.8034     68.0247    240.4865   1.1392319221e+02   1.8198731755e+01    0.1703603   0.08511074  34.26 0.0008468861    1.584    0.369
       240  -8.7389    221.5163    239.5100   8.5626112141e+01  -1.0336094732e+00     0.107132   0.07535412  13.26 0.0008103569    1.012    0.012
       241 -10.9994    148.7349    237.6526   9.8120934949e+01   8.4451154850e+00    0.4036709    0.1922167  34.25  0.002323649    1.606    0.377
       242 -11.7402    153.0824     35.9917   5.2312980094e+01   4.2571797259e+01    0.3179122     0.302714 -49.93 0.0003828271    1.036    0.034
       243 -11.0115    157.4423     55.2932   5.7995416888e+01   3.8604499886e+01    0.6565933    0.5059816 -50.57  0.003232085    1.312    0.238
       244 -10.5024    155.5343     49.7343   5.6537106922e+01   3.9950989115e+01    0.4353047    0.2779294 -15.89  0.001285708    1.913    0.477
       245 -10.8620    198.7469    232.7023   8.8482827360e+01   2.5004034512e+00    0.3606479    0.2429506  20.92  0.002560158    1.132    0.117
       246 -10.2213    134.5287     50.4360   6.1184508655e+01   4.5172345919e+01    0.3741822    0.2953574 -60.47  0.001813474    1.389    0.280
       247 -10.6347    105.6466     58.3135   7.1802186332e+01   5.0711171734e+01    0.4870662    0.2956973  54.33  0.002019537    1.734    0.423
       248  -8.7945    219.6696     57.2749   4.9140824799e+01   2.3504973621e+01    0.1383387   0.09426124 -59.52 0.0004594992    1.594    0.372
       249  -9.6987    187.5824     55.4385   5.2907538058e+01   3.1127473598e+01    0.2684314     0.241687  52.70   0.00131454    1.184    0.155
       250  -9.4051     65.2123     28.3283   7.3905996369e+01   6.4827936095e+01    0.2381791    0.1665214  38.74 0.0006471325    1.453    0.312
       251 -10.1936     68.1934     33.0372   7.4887334744e+01   6.3408091070e+01     0.514331    0.3462689  45.46  0.002548757    1.543    0.352
       252 -10.3591     66.9980     54.8832   8.4516828949e+01   5.9197912496e+01    0.4032451    0.2660739 -66.19  0.001583324    1.885    0.470
       253 -11.2334     60.8404     36.4235   7.9712815789e+01   6.4115838141e+01    0.5618976    0.3436548 -35.73  0.001292104    1.619    0.382
       254 -11.4069     57.9166     30.2576   7.8197289665e+01   6.5813738733e+01    0.4683627    0.3372715  -0.95  0.002334147    1.745    0.427
       255 -11.6631     48.9319     30.2200   8.2660350773e+01   6.7309678758e+01    0.6859587    0.3221501  32.61  0.002585829    2.342    0.573
       256 -10.0706     62.0603     53.7663   8.6218088788e+01   6.0269246043e+01    0.2840838    0.2495624 -33.55   0.00158322    1.102    0.092
       257 -11.9922     60.7623     46.7207   8.4109551355e+01   6.2015904340e+01    0.9440092    0.5761353 -50.71  0.004442298    1.589    0.371
       258  -9.7399    248.4843     52.4746   4.4938422776e+01   1.8178817503e+01    0.2536063    0.1330518 -55.22 0.0009853673    2.083    0.520
       259  -9.6949    244.6021     51.1816   4.4992388849e+01   1.9095248185e+01    0.2382671    0.1794371 -23.92 0.0009254537    1.228    0.186
       260 -11.0502    240.5566     49.8777   4.5060830206e+01   2.0061566378e+01    0.5233178    0.3184689 -15.47  0.001940392    1.802    0.445
       261  -9.0605      6.9336     54.9322   1.1367320688e+02   6.5774659900e+01    0.1514046    0.1273805 -64.44 0.0004463817    1.018    0.018
       262  -9.6350    211.5052     53.2036   4.9046137837e+01   2.5850945943e+01    0.2482356    0.2012625  68.50  0.001407732    1.350    0.259
       263 -11.1741    201.7459     49.1112   4.9140698578e+01   2.8637638086e+01    0.7237942    0.3947418 -31.80   0.00332647    1.663    0.399
       264 -10.9942    173.9301     48.0628   5.2796059624e+01   3.5542513764e+01    0.5963417     0.456245  79.82  0.003005126    1.414    0.293
       265  -9.5557    176.5096     43.6412   5.1021236975e+01   3.5514668315e+01    0.3289628    0.2242362  84.43  0.001497634    1.683    0.406
       266 -10.1282     91.1600     47.9021   7.2538013166e+01   5.5923379965e+01    0.3513161    0.2084384 -45.34  0.001163999    1.696    0.410
       267 -10.2545     13.0719     47.4193   1.0888069597e+02   6.7284957156e+01    0.4727492    0.1735738 -44.06  0.001984074    2.530    0.605
       268 -10.1012     18.0391     41.4352   1.0450756477e+02   6.8386465437e+01    0.3592467    0.2384176 -26.14  0.001976847    1.613    0.380
       269 -10.1787    247.3510    231.5576   8.0472795877e+01  -3.2347305770e+00    0.1798392    0.1045589 -18.30 0.0008189495    1.568    0.362
       270  -9.7557     23.3910    231.7882   1.2209793547e+02   2.4342800767e+01    0.1870541    0.1002555  45.13 0.0007551168    1.329    0.248
       271 -10.3479    242.4683    231.1136   8.1149738928e+01  -2.6400103813e+00    0.1984309    0.1214177  39.42  0.001360467    2.017    0.504
       272  -9.6750     15.1902    233.6452   1.2371339396e+02   2.4782730027e+01     0.178626    0.1300948  89.49  0.001072743    1.446    0.309
       273  -9.4944    108.4697    230.0313   1.0511283924e+02   1.4891988533e+01     0.142767    0.1156817 -66.45 0.0006565845    1.566    0.361
       274  -9.4064    181.3319    228.3007   9.0953380646e+01   5.3048189528e+00    0.1160539   0.07294823   9.85 0.0005184051    1.650    0.394
       275  -9.9044    233.9988    223.1420   8.1292564332e+01  -8.4910447369e-01    0.2090071    0.1147072  16.15  0.001199733    1.585    0.369
       276  -8.6747    209.3165    223.3492   8.5362078431e+01   2.2115264111e+00    0.1172051   0.06952238   5.80 0.0007047653    1.729    0.422
       277  -9.3978    193.3713     45.8983   4.9314970978e+01   3.1056116554e+01    0.2774434    0.1762918 -74.59  0.001016843    1.978    0.494
       278 -10.9260    137.0190     44.8603   5.8623001234e+01   4.5433391416e+01    0.8921327    0.2482328  50.70  0.002684466    3.433    0.709
       279  -9.1644    234.1572     43.3799   4.4070430634e+01   2.2161536840e+01    0.3462275     0.145542 -19.70  0.001385549    2.760    0.638
       280  -9.7209    231.5505     38.7420   4.3151906004e+01   2.3263342809e+01    0.3153236    0.1665574 -39.66  0.001582426    1.573    0.364
       281  -9.3541    227.9803     36.7083   4.2964736899e+01   2.4268808202e+01    0.2214816    0.1570632 -53.08  0.001253564    1.302    0.232
       282 -11.2246     94.3751     41.3715   6.8765521702e+01   5.6411659083e+01    0.7374234    0.3559742  51.66  0.002922539    2.102    0.524
       283 -10.0474    189.1818     41.0982   4.8462732161e+01   3.2709084121e+01    0.6207981    0.2077314 -24.10  0.002011677    3.360    0.702
       284  -9.6896     77.0000     41.9333   7.5272755494e+01   6.0012319226e+01    0.3716073    0.1823034 -41.33 0.0008676416    1.985    0.496
       285 -10.1015     86.2768     30.9888   6.6925719600e+01   5.9995960960e+01    0.4205291    0.2410967 -23.05   0.00128087    2.040    0.510
       286 -10.4953     81.6636     31.4865   6.8808044581e+01   6.0925902888e+01    0.4759311    0.3153872 -63.94  0.002061685    2.263    0.558
       287 -10.2254     82.1914     40.3832   7.2618786607e+01   5.9242297645e+01    0.3361273    0.2293836  53.78  0.001398615    1.582    0.368
       288 -11.0238     78.1902     35.2978   7.1876688685e+01   6.0999936188e+01    0.5869575    0.4262001 -49.12  0.002111807    1.474    0.321
       289  -9.7396    193.7373     39.0538   4.7277911283e+01   3.1861904773e+01    0.2325095    0.1984829  59.39 0.0003525067    1.250    0.200
       290  -8.6219    184.2836     38.6499   4.8381311437e+01   3.4237518845e+01    0.1548259   0.09829604 -56.52 0.0007017903    1.654    0.395
       291 -11.1353    177.2859     35.9957   4.8522667694e+01   3.6337170182e+01    0.5565186    0.3916999  36.48  0.002448558    1.701    0.412
       292  -9.7144    171.5676     33.1667   4.8432796328e+01   3.8156863987e+01    0.2803151    0.2073657  73.15  0.001412781    1.373    0.272
       293  -9.6678    132.9355     36.7944   5.6530804405e+01   4.7697411645e+01    0.3975222    0.2343024 -58.34   0.00160225    2.147    0.534
       294  -9.5760    206.7864     37.0444   4.5183045010e+01   2.9002294492e+01    0.2223626    0.1985385  86.86 0.0006605874    1.169    0.145
       295  -9.5212     94.9704     36.1297   6.6325952388e+01   5.7176664369e+01     0.321609    0.2052116  65.58   0.00111838    1.893    0.472
       296 -10.6054    136.3569     56.7830   6.2982353848e+01   4.3647825882e+01    0.6180665    0.4206451  -6.58  0.002522585    2.087    0.521
       297  -9.4747      9.6418    217.7850   1.2431702651e+02   2.8075613968e+01    0.1463796   0.07691703  75.24 0.0007064088    1.643    0.391
       298 -10.3585    164.9682    212.3667   9.1819814513e+01   9.7111528714e+00    0.2632363    0.1638784  41.49 0.0009648996    1.483    0.326
       299 -12.1001    105.9070     32.9375   6.1645469133e+01   5.5092101909e+01     0.562908    0.3647712  18.74  0.001456629    2.189    0.543
       300 -12.3034    113.4795     25.0897   5.6281447234e+01   5.4333483784e+01    0.9370252    0.4434543  56.67  0.002696987    1.990    0.497
       301 -10.4803    240.3327     32.0219   4.0736901944e+01   2.2195447795e+01    0.4817459    0.2559396 -30.34  0.002504066    1.590    0.371
       302  -9.2145    204.5241    208.5105   8.3961456066e+01   4.6208714480e+00    0.1168654   0.09141976  13.39 0.0008100521    1.016    0.016
       303 -10.5458    189.5280     27.6892   4.4423826675e+01   3.4290386377e+01    0.4241632    0.3061877  15.53  0.001559303    1.849    0.459
       304  -9.0827    216.6240     32.2183   4.2861376367e+01   2.7312756881e+01    0.1813884    0.1214784 -17.29 0.0004023653    1.598    0.374
       305  -9.0238     36.3631     31.9311   9.0346246356e+01   6.8725589329e+01    0.2124999    0.1772126  39.99 0.0008218877    1.373    0.271
       306  -9.2754    186.6800     32.6676   4.6260621858e+01   3.4398232877e+01    0.2181312    0.1545613  33.01 0.0006142451    1.762    0.433
       307  -9.5942    153.0859    207.8319   9.3520453291e+01   1.2112789763e+01    0.1862176    0.1497792  45.18 0.0008827373    1.281    0.220
       308 -10.7717    176.9177     30.0038   4.6687792085e+01   3.7184191737e+01    0.4569692    0.2491508  55.14  0.001816884    1.869    0.465
       309 -11.1860    182.7231     25.4547   4.4539417205e+01   3.6254874000e+01    0.4372909    0.3305962  57.64  0.001377974    1.380    0.276
       310  -8.8904    187.5113     22.5613   4.3107810608e+01   3.5383329666e+01    0.1882545    0.1717087 -66.81 0.0003134301    1.024    0.024
       311  -9.4766    221.8138     29.6374   4.1698808781e+01   2.6442899807e+01    0.2168866    0.1645148 -23.89 0.0005383258    1.297    0.229
       312  -8.8407     99.4969     30.4330   6.2408390797e+01   5.7024099645e+01    0.2320853      0.18775 -41.77 0.0005902845    1.271    0.213
       313  -9.7160     97.7448     26.6067   6.1201912862e+01   5.8015999345e+01    0.2997107    0.2331108 -43.99  0.001164291    1.350    0.259
       314  -9.9812    230.7503     27.5016   4.0388167568e+01   2.4722972713e+01     0.310445    0.1853372 -26.58  0.001198389    1.537    0.349
       315  -9.6634     61.0873    206.7930   1.1299765793e+02   2.4897123782e+01    0.1875674    0.1512012  69.12 0.0005766008    1.151    0.131
       316 -10.2964    211.3833     18.8311   3.9726228929e+01   3.0019005728e+01    0.2141333    0.2044227 -58.41 0.0002618416    1.108    0.098
       317  -9.3609    250.5339     25.9620   3.8534384455e+01   2.0795460454e+01    0.1987046    0.1024779 -29.05   0.00104379    1.630    0.386
       318  -9.5901     45.0660     24.5748   8.1941174293e+01   6.9001500821e+01     0.235573     0.181027 -56.09 0.0006871007    1.482    0.325
       319 -11.1160    155.8442     42.0716   5.3909214046e+01   4.1005640619e+01    0.4491385    0.3921112 -43.51  0.001090283    1.119    0.106
       320  -9.8445     86.1381     23.8618   6.3578564037e+01   6.1140415682e+01    0.2118361    0.1764364  23.71  0.001130748    1.235    0.190
       321 -10.1341    238.3519    204.6132   7.7729007759e+01   5.9119902345e-01    0.2095064    0.1191214 -22.91  0.001341905    1.630    0.387
       322 -12.0455      4.9068    184.3513   1.2427953172e+02   3.4975213923e+01    0.5893294    0.4076836  62.84  0.002939856    1.105    0.095
       323 -11.3794      6.7256    195.1934   1.2423176068e+02   3.2630210362e+01    0.6671342    0.1665321 -71.70   0.00292438    3.793    0.736
       324  -9.8078     59.6510     23.9858   7.4217217400e+01   6.6634885421e+01    0.2311358    0.1911374 -10.55 0.0004707593    1.214    0.177
       325 -10.2199     60.2045     19.9114   7.1780717534e+01   6.7217347813e+01    0.3091727     0.246452 -63.24  0.001199365    1.684    0.406
       326  -9.0692    223.5418     22.0565   3.9578454138e+01   2.6900780807e+01    0.1915082    0.1616875 -86.91  0.000525414    1.223    0.182
       327 -10.1594     16.9873    204.0293   1.2235364495e+02   3.0012786368e+01    0.1554393    0.1308751 -47.27  0.001143355    1.706    0.414
       328  -9.6427     74.5201     19.5431   6.5557209284e+01   6.4362222343e+01    0.2376181     0.195105  18.67 0.0005645247    1.247    0.198
       329 -10.5483    245.6347    200.9133   7.5998251067e+01   7.7492517808e-02    0.1872365    0.1213521  16.40 0.0006363358    1.274    0.215
       330  -8.7861    207.2920    201.3263   8.2343306774e+01   5.1376257261e+00    0.1205764   0.07649799   4.26 0.0004672922    1.619    0.382
       331  -9.6232    241.2888    199.3678   7.6414041169e+01   7.9652224850e-01    0.1181618   0.06844713   1.46 0.0007023335    1.707    0.414
       332 -10.5382    234.3125    196.9243   7.7107049968e+01   1.9791417764e+00    0.3647689    0.2132224  15.70  0.001622528    1.588    0.370
       333  -8.6739    195.3179    199.6572   8.4207433184e+01   7.0675973590e+00    0.1063115   0.09477633  59.88 0.0007049096    1.717    0.417
       334  -8.9666     83.5243    195.9711   1.0702494116e+02   2.4164588782e+01    0.1634751    0.1210933 -72.15 0.0005252733    1.514    0.339
       335  -9.8895    169.7315    191.5967   8.7773463120e+01   1.2081119455e+01    0.3145586    0.1656458  27.76  0.001100637    1.837    0.456
       336  -9.1530    162.4351    191.1823   8.9169947975e+01   1.3283378575e+01    0.1521991    0.1242443 -58.12 0.0005317223    1.628    0.386
       337  -8.7602     16.6284    191.7198   1.2193423689e+02   3.2484984991e+01    0.1000006   0.08621326 -34.19 0.0007011914    1.696    0.410
       338 -10.0746    239.9166    184.5226   7.4105690452e+01   2.6739801116e+00    0.2311584    0.1444006   5.49 0.0007191613    1.523    0.343
       339 -10.3259    186.3084     15.2142   4.1006056755e+01   3.6484848492e+01    0.2531052    0.2266504 -77.62 0.0004662559    1.059    0.055
       340 -10.4017    250.2635    178.9939   7.1552908619e+01   1.9281924072e+00    0.4272668    0.1275962 -28.62  0.001866264    3.174    0.685
       341  -9.6558     27.9780    176.2595   1.1850586067e+02   3.4682894833e+01    0.2235081    0.1646247 -85.39   0.00139117    1.299    0.230
       342 -10.1932     52.1015    173.7137   1.1236721778e+02   3.2694993519e+01    0.4394541    0.1929763  83.51  0.001794887    3.131    0.681
       343  -9.7790    231.0957    175.4184   7.3881341733e+01   5.0166934885e+00    0.3546292     0.102813  39.35  0.001473746    3.347    0.701
       344  -9.9058    247.7274    173.9346   7.1024833010e+01   2.8588527493e+00    0.3798282    0.1283509  28.34  0.001484734    4.154    0.759
       345  -9.7417     39.2488    173.4112   1.1554559138e+02   3.4175440738e+01    0.2560449    0.1772552  51.57   0.00156278    1.221    0.181
       346 -10.4961     35.4257    169.6745   1.1622366067e+02   3.5391716687e+01    0.3472172    0.1977792  85.79  0.001379086    1.703    0.413
       347  -8.3923    170.3606    171.7309   8.4278309511e+01   1.5144522552e+01    0.1256097    0.1010289  61.36 0.0006716718    1.647    0.393
       348 -10.2099      8.6362    157.1139   1.2229909048e+02   4.0586135814e+01    0.3276537    0.1828595 -66.05  0.001132673    1.823    0.451
       349 -11.5516      9.4742    166.9301   1.2253635544e+02   3.8331311768e+01     0.456119    0.3492917  74.79   0.00198897    1.067    0.063
       350 -11.2532     13.8167    159.5714   1.2108825747e+02   3.9625791213e+01    0.4359445    0.2583919 -77.78  0.001635971    1.564    0.361
       351  -9.0005    197.8481    167.8911   7.8226371441e+01   1.1176793125e+01    0.1585318    0.1524403 -19.46  0.000893278    1.303    0.232
       352  -9.6507    188.9392    164.0345   7.9172357403e+01   1.3245785619e+01    0.2525993    0.1571579  -9.72 0.0009180573    2.069    0.517
       353  -9.0469    152.2219    166.5835   8.7186990334e+01   1.9120150347e+01    0.1808242    0.1193961  28.12 0.0002856388    1.490    0.329
       354 -10.1901     18.8693    164.9409   1.2009416566e+02   3.7998079847e+01    0.2659874    0.2471391 -38.45  0.001585591    1.435    0.303
       355  -9.9076    205.0343    162.9911   7.5987172919e+01   1.0722722894e+01    0.2640877    0.1675424  29.55 0.0005576649    1.503    0.335
       356  -9.1834    208.3193    160.3381   7.4889143503e+01   1.0570452227e+01    0.2469224    0.1604128  -4.63 0.0008368861    1.735    0.424
       357 -10.4594     28.3253    161.5024   1.1745331050e+02   3.7919298560e+01    0.3813045    0.1796371 -68.49  0.001926306    2.041    0.510
       358  -9.3178     79.1304    159.9254   1.0388449996e+02   3.2288581394e+01    0.2175682    0.1668636  66.38 0.0008062123    1.279    0.218
       359  -9.4368    215.1460    158.2751   7.3298271498e+01   9.7523058656e+00    0.2304578    0.1527218 -18.66  0.001027494    1.447    0.309
       360  -9.1835    223.9622    157.2959   7.1626171747e+01   8.4754435572e+00    0.2296238    0.1245667 -44.56  0.001137296    2.296    0.564
       361 -11.1720     22.2857    155.4431   1.1862772920e+02   3.9854606668e+01    0.7589206    0.2699438  41.77  0.002912024    2.299    0.565
       362 -11.0843     21.2822    150.6904   1.1857841325e+02   4.1043203033e+01    0.2276434    0.1823027  61.04  0.000358005    1.086    0.079
       363 -11.6072     23.8043    148.4290   1.1772713424e+02   4.1353275280e+01    0.2977632    0.2369519 -73.53 0.0006177643    1.259    0.206
       364 -10.5129    104.3618    154.0648   9.6419248052e+01   2.9744276572e+01    0.3312624    0.3221496  -7.51   0.00201879    1.148    0.129
       365  -8.9706     33.5082    154.4999   1.1554568512e+02   3.9028125097e+01    0.2164179    0.1438102  40.63 0.0008827096    1.398    0.284
       366 -10.8112     30.4853    152.7398   1.1622401545e+02   3.9730847017e+01    0.3568283    0.2139494 -72.64   0.00196824    1.580    0.367
       367 -10.0820      3.7512    152.9295   1.2337733423e+02   4.1891245403e+01    0.3690886    0.1389021  62.19  0.001730942    2.329    0.571
       368 -11.1317      3.7978    147.4810   1.2312555616e+02   4.3136780263e+01    0.5076438    0.2773309  40.13   0.00204803    1.662    0.398
       369 -11.6501      3.1629    140.1119   1.2295663922e+02   4.4894904526e+01    0.6080211    0.3387615  85.25  0.003418017    1.521    0.342
       370 -10.0304     72.1036    151.5494   1.0464685173e+02   3.5168370686e+01    0.4770467    0.2185343  49.51  0.002040208    2.147    0.534
       371 -11.1444     45.8941    148.2456   1.1154282257e+02   3.9200068837e+01    0.6485749    0.4700343 -64.30  0.003728959    1.404    0.288
       372 -10.8285     63.0590    150.7272   1.0703338024e+02   3.6559975918e+01    0.4119619     0.309153   3.01  0.001556035    1.862    0.463
       373  -9.6157    215.0187    151.0425   7.1882099581e+01   1.0806658655e+01    0.1789515    0.1626029 -69.42 0.0008601524    1.646    0.392
       374  -9.5749    234.3297    150.3899   6.8603284332e+01   7.7728668501e+00    0.2005795    0.1299194   4.83  0.001119322    1.663    0.399
       375 -10.6772     15.7150    147.5699   1.1989605677e+02   4.2233701684e+01    0.3247322    0.2434611  59.47  0.001030148    1.152    0.132
