#   1 NUMBER                 Running object number                                     
#   2 MAG_AUTO               Kron-like elliptical aperture magnitude                    [mag]
#   3 X_IMAGE                Object position along x                                    [pixel]
#   4 Y_IMAGE                Object position along y                                    [pixel]
#   5 X_WORLD                Barycenter position along world x axis                     [deg]
#   6 Y_WORLD                Barycenter position along world y axis                     [deg]
#   7 A_WORLD                Profile RMS along major axis (world units)                 [deg]
#   8 B_WORLD                Profile RMS along minor axis (world units)                 [deg]
#   9 THETA_WORLD            Position angle (CCW/world-x)                               [deg]
#  10 FWHM_WORLD             FWHM assuming a gaussian core                              [deg]
#  11 ELONGATION             A_IMAGE/B_IMAGE                                           
#  12 ELLIPTICITY            1 - B_IMAGE/A_IMAGE                                       
         1 -15.1142     68.6033    144.3053   1.0816039035e+02   3.7106082244e+01     5.214067     2.672284  70.61  0.003306682    3.385    0.705
         2 -13.4664    229.8603      3.2955   3.6127384616e+01   2.7121687927e+01     1.713418    0.5760615  60.60  0.006290468    2.855    0.650
         3 -14.1236    196.0068     38.0522   4.8586000521e+01   3.1260025099e+01     1.476093     1.245457 -17.39  0.004617258    1.345    0.256
         4 -14.6541    205.9134     27.3870   4.4408273601e+01   3.0139113707e+01     1.732702     1.344028  29.15  0.002033463    1.662    0.398
         5 -10.3419    155.4693     11.0249   4.6460017899e+01   4.4722923006e+01    0.2458385    0.1794137  88.25 0.0003065706    1.449    0.310
         6 -10.6472     64.3151      9.0361   6.8001077046e+01   6.5435874079e+01     0.176728     0.144684  -0.01  0.000588679    1.083    0.077
         7  -9.4990    116.3681      6.6822   5.2034937518e+01   5.4776667225e+01    0.1345353    0.1017629 -69.67 0.0007037215    1.784    0.439
         8 -11.7640     32.2732      3.7748   7.9151740957e+01   7.0911269475e+01    0.2716782    0.2364364 -46.29  0.001876979    1.907    0.475
         9 -12.3082     60.2228      2.4759   6.6241477993e+01   6.6850727023e+01    0.6016507    0.1738717  43.44  0.002468869    2.981    0.664
        10 -10.4641    152.8374    197.8207   9.6927515621e+01   1.1094818039e+01    0.2885307    0.2020735 -53.33  0.001505253    1.626    0.385
        11 -11.5823    139.4984    248.7388   1.0690108126e+02   4.6063346905e+00    0.3596524    0.2247914 -66.44  0.002086938    2.249    0.555
        12 -15.6448     85.6084    228.1552   1.1497737527e+02   1.6296480093e+01     2.505761     2.042498 -61.11   0.01166284    1.470    0.320
        13 -17.0487     52.0707    198.5300   1.1885852136e+02   2.6743358108e+01     10.52112     4.982014  52.28   0.05429938    1.898    0.473
        14 -11.6896     47.1776    172.7713   1.1733179789e+02   3.3034935517e+01    0.4870562    0.3009839 -54.97  0.001933051    1.720    0.419
        15 -10.3766    204.5998    176.3754   8.2006377973e+01   5.3148971938e+00    0.3903389    0.2093561 -50.13  0.001644741    2.417    0.586
        16 -11.6907    141.0086    174.6366   9.5445971912e+01   1.7919851095e+01    0.5625562    0.3869981  78.34  0.002459107    2.206    0.547
        17 -13.0705     52.4044    146.8264   1.1282404097e+02   3.8546942705e+01     1.399467    0.5655255  28.00  0.005772151    3.015    0.668
        18 -13.1597     84.1609    161.8043   1.0696191062e+02   3.0672283274e+01     1.360169    0.5695472  58.43 0.0006652058    3.780    0.735
        19 -13.7829     72.8667    156.7015   1.0901338084e+02   3.3530519569e+01      0.58503    0.5154981 -50.48  0.001337768    1.252    0.201
        20  -9.3863    159.8126    196.8283   9.5260482322e+01   1.0012405516e+01    0.1792295    0.1609661  77.61 0.0004105318    1.319    0.242
        21 -10.6636     52.6417    164.9147   1.1514246904e+02   3.4212714645e+01    0.3738795    0.1636263 -51.74   0.00164044    2.467    0.595
        22 -10.1997    159.9793    163.4956   8.8871112087e+01   1.6532692822e+01    0.2823444    0.2153832 -65.61 0.0009684181    1.619    0.382
        23 -12.2683     90.8799    154.6040   1.0406497601e+02   3.1333518163e+01    0.6261694    0.4446606 -28.19  0.002679859    1.989    0.497
        24 -11.4475    133.6625    144.5163   9.1103238844e+01   2.5958320894e+01     1.195679    0.3068376 -54.20  0.002861088    5.528    0.819
        25 -15.5029     47.3778    222.2485   1.2177597001e+02   2.2466741456e+01     2.620372     1.090902  86.83   0.01193186    3.054    0.673
        26 -10.7382    174.2443    149.1200   8.2507869679e+01   1.6529569331e+01    0.3328919    0.2868834  29.74 0.0009926072    1.149    0.129
        27 -10.5184    143.9621    145.9518   8.8870003737e+01   2.3547777767e+01    0.3522543    0.2196366 -71.54  0.001323577    2.554    0.608
        28  -9.4945     85.7109    144.9762   1.0370619653e+02   3.4453500988e+01    0.1955319    0.1726784 -74.21 0.0002231706    1.057    0.054
        29 -10.3525     41.5443    142.9358   1.1512552182e+02   4.0695653681e+01    0.2347325    0.1615591  58.57 0.0008845832    1.513    0.339
        30 -11.1570    104.0061    139.7820   9.7796786015e+01   3.2669311262e+01    0.5826871    0.3725815 -27.53   0.00239927    2.307    0.566
        31 -12.4439     91.6569    139.7877   1.0112773715e+02   3.4761378934e+01    0.2821249    0.2534768 -51.22 0.0005859445    1.125    0.111
        32 -10.8604     45.9293    138.8974   1.1340572625e+02   4.1201316032e+01    0.2470369    0.1686746 -67.90  0.001050238    1.257    0.204
        33 -11.5732    135.6283    128.0916   8.6793988782e+01   2.9274220874e+01    0.8960394    0.1882994 -46.58  0.002141065    4.704    0.787
        34 -13.0206     42.8538    127.0203   1.1247923474e+02   4.4417574766e+01    0.7880799    0.4687925  86.17  0.003397916    2.005    0.501
        35 -15.5350     10.0946    206.4178   1.2766153794e+02   2.9594943066e+01     0.637014    0.6111651   3.48  0.002705706    1.672    0.402
        36 -10.7133    112.7540    130.2588   9.3363989417e+01   3.3335174175e+01    0.3461686    0.2823364   1.40  0.001001422    1.566    0.362
        37 -10.1612    230.7490    167.4825   7.5141034647e+01   1.9779397024e+00    0.2940294   0.09401637 -45.75 0.0008963222    4.440    0.775
        38 -10.0663    160.6576    128.0129   8.0595592234e+01   2.3870487642e+01    0.2951491    0.2370118  77.39  0.001355007    1.589    0.371
        39 -11.2587     99.6563    126.5942   9.6152244751e+01   3.6588872851e+01    0.4279483    0.3086013  -1.26  0.001622984    2.118    0.528
        40 -11.6467    119.2725    123.6509   9.0036931731e+01   3.3625031543e+01    0.6536232    0.3960355 -19.82  0.002279624    3.022    0.669
        41 -10.6645    105.9963    130.7702   9.5323957307e+01   3.4462130564e+01    0.3603123    0.3131055 -75.59  0.001331737    1.190    0.160
        42 -11.6852     23.2637    120.0768   1.1703562400e+02   4.7897855440e+01    0.3915777    0.1602635  38.02  0.001473051    2.675    0.626
        43 -10.0825    108.7499    119.0900   9.1837299909e+01   3.6720723615e+01    0.2315171    0.2143761  42.82 0.0003430051    1.121    0.108
        44 -10.5882    134.6258    105.7657   8.1259714267e+01   3.4461317695e+01    0.6114829    0.1501253 -44.79  0.001606378    4.014    0.751
        45  -9.8019    167.7450    112.7172   7.5004199002e+01   2.5453374441e+01    0.3250327     0.233604 -78.20  0.001317002    2.113    0.527
        46 -12.1949    118.1821    108.8599   8.6575150422e+01   3.7246374925e+01    0.7571193    0.5601325 -64.26  0.003426559    1.549    0.355
        47 -11.9873     20.6202    111.3729   1.1658484342e+02   5.0184942434e+01    0.5044146    0.1754713  37.93  0.002215169    3.169    0.684
        48 -10.1469    205.4898    110.1610   6.6490920679e+01   1.7211215450e+01    0.3154851    0.2186065  41.62 0.0009129326    1.531    0.347
        49  -9.6802     66.5041    104.5067   1.0103671188e+02   4.7082075026e+01    0.1425944    0.1278117 -57.16 0.0008105625    1.020    0.020
        50  -9.3403    120.6231     98.3011   8.2981217295e+01   3.9101501981e+01    0.1605961    0.1258328  85.81 0.0007026826    1.762    0.432
        51 -10.8103     58.9205     96.9850   1.0174468831e+02   4.9861181887e+01    0.3151513    0.2293437  39.76  0.001690189    1.556    0.357
        52 -11.2805     53.1397     90.9403   1.0224760792e+02   5.1983619837e+01    0.3407782    0.1776027 -56.11  0.001062318    1.651    0.394
        53 -11.8376     41.6497     91.3372   1.0625307225e+02   5.3136589385e+01    0.4113654    0.2384434 -68.26   0.00124585    1.681    0.405
        54  -9.0256    161.4332     88.5183   6.9707336809e+01   3.1778779815e+01    0.1567754    0.1535406 -37.91 0.0001142913    1.020    0.019
        55  -9.4582    157.1837     81.1735   6.8508395979e+01   3.4208517520e+01    0.2160545    0.1866524 -68.48 0.0003873016    1.307    0.235
        56  -9.2627    184.5807     77.2010   6.1589015327e+01   2.8141830431e+01    0.2103277    0.1491223 -21.19 0.0005244944    1.590    0.371
        57 -10.5424     61.1894     68.6135   9.3262655686e+01   5.5978243248e+01    0.2652278    0.2367987  53.23  0.001573497    1.407    0.289
        58 -18.1458      6.2474    240.6965   1.2996664575e+02   2.3443271112e+01     10.13051      2.34185 -78.76   0.02593408    3.812    0.738
        59 -13.7963    185.9455     45.9519   5.2341285053e+01   3.2731319104e+01     1.281808    0.9472929  31.13  0.001038561    1.639    0.390
        60 -10.0570     94.9178    187.7778   1.0825303233e+02   2.3105999829e+01    0.2133422    0.1846409 -81.98 0.0004302199    1.133    0.118
        61 -10.5647     99.4071    180.7132   1.0619683601e+02   2.3946519272e+01    0.2755525    0.2350278  28.68 0.0005591417    1.333    0.250
        62 -11.0627    150.6756     54.1903   6.1521272030e+01   4.0489823540e+01    0.3835782    0.2885989 -74.96 0.0005618556    1.735    0.424
        63 -11.1342    152.2294     47.6129   5.9042234601e+01   4.1100633719e+01    0.3265868    0.2720443 -85.97 0.0008026449    1.392    0.282
        64 -11.9853     19.0002     33.7972   9.9319452808e+01   6.7424115638e+01    0.4844408     0.160867  31.25  0.002191599    3.497    0.714
        65  -9.6468    189.6550     14.9782   4.2990971806e+01   3.5620157480e+01    0.1875922    0.1719979 -55.58  0.000646986    1.119    0.106
        66 -11.0196    146.5508    182.7716   9.5678330386e+01   1.5196329734e+01     0.287421    0.2453087  39.87 0.0008804247    1.092    0.084
        67 -10.5727    113.2197    207.5584   1.0693962657e+02   1.6055649563e+01    0.2513038    0.2047188  76.19 0.0004223467    1.252    0.201
        68 -10.9183    107.9320    203.3345   1.0750380063e+02   1.7758278961e+01    0.3599693    0.1971149  55.33  0.001529218    1.835    0.455
        69 -11.1108    208.4552    196.6778   8.5256708721e+01   1.2555498292e+00    0.3870886    0.1278366 -40.93  0.001449813    3.239    0.691
