#   1 NUMBER                 Running object number                                     
#   2 MAG_AUTO               Kron-like elliptical aperture magnitude                    [mag]
#   3 X_IMAGE                Object position along x                                    [pixel]
#   4 Y_IMAGE                Object position along y                                    [pixel]
#   5 X_WORLD                Barycenter position along world x axis                     [deg]
#   6 Y_WORLD                Barycenter position along world y axis                     [deg]
#   7 A_WORLD                Profile RMS along major axis (world units)                 [deg]
#   8 B_WORLD                Profile RMS along minor axis (world units)                 [deg]
#   9 THETA_WORLD            Position angle (CCW/world-x)                               [deg]
#  10 FWHM_WORLD             FWHM assuming a gaussian core                              [deg]
#  11 ELONGATION             A_IMAGE/B_IMAGE                                           
#  12 ELLIPTICITY            1 - B_IMAGE/A_IMAGE                                       
         1 -13.2889    192.7089     70.8897   7.3956335114e+01   2.7586724648e+01     1.816997     1.598679  38.55   0.00844103    1.128    0.113
         2 -15.2642    174.6070     69.8740   7.7155994129e+01   3.2210252288e+01     9.300083     4.626019 -58.23   0.00557672    4.265    0.766
         3 -13.5150    220.8183     36.2352   5.9843215140e+01   2.5332770780e+01     1.122576    0.6979873 -36.98  0.005316963    1.509    0.337
         4 -14.2607    247.9614     45.4442   5.9184243471e+01   1.8032436559e+01     1.819977    0.9770945 -23.24  0.006205614    1.765    0.433
         5 -16.0024    210.7304     64.4144   6.9063758865e+01   2.4157311800e+01     11.28902     5.012438 -45.44   0.04210057    2.556    0.609
         6 -13.7994    248.8438      2.8168   4.8680561308e+01   2.2311809296e+01    0.9232884    0.6726466  -9.15  0.005487319    1.568    0.362
         7 -13.8120    249.5798     26.4152   5.4321578700e+01   1.9807506817e+01    0.7474781     0.535715  -7.16  0.001477527    1.574    0.365
         8 -15.7172    242.0995     19.5897   5.3291325740e+01   2.2181861095e+01     7.025639          nan  60.24   0.01614203    9.088    0.890
         9 -13.7073    215.8735      4.9972   5.1801185217e+01   2.9792980027e+01     1.034604    0.5865424 -50.60  0.005051388    1.761    0.432
        10 -14.5915    233.3905      5.1638   5.0380828307e+01   2.5587986528e+01     1.231936     1.110399 -12.60  0.007625315    1.209    0.173
        11 -14.8743    225.8018     46.2111   6.1942958611e+01   2.2953283629e+01     2.744992     1.638886  22.45   0.01185532    2.369    0.578
        12  -9.4166    115.5084     12.5266   6.9720214301e+01   5.5099235006e+01    0.2663816    0.2248729  38.61 0.0007406859    1.072    0.067
        13 -11.2820    120.2377      8.9521   6.7044893062e+01   5.4299835135e+01    0.5520514    0.4878536  -5.36  0.002029114    1.153    0.132
        14 -10.8815    182.9738      3.1562   5.4599943545e+01   3.8350560706e+01    0.5518476    0.4202751  79.05  0.002058226    1.271    0.213
        15  -9.1833    187.0000      2.9365   5.4076621438e+01   3.7314460770e+01    0.3163845    0.1602079 -14.97  0.001361336    2.207    0.547
        16  -8.8947    141.2998      8.8795   6.2694025258e+01   4.8893714964e+01    0.2451526    0.1954201  75.28 0.0006763737    1.312    0.238
        17  -9.5942    199.9468      6.6527   5.3803438669e+01   3.3636369598e+01     0.264669    0.1741415 -30.64 0.0008637737    1.510    0.338
        18 -10.6078    172.0574      3.7403   5.6115242942e+01   4.1185788598e+01    0.6701576    0.3217359 -54.34  0.002620867    2.632    0.620
        19  -9.6134    138.9503      3.2302   6.0918861977e+01   5.0018882289e+01    0.3699919    0.2019089 -18.65  0.001057117    1.942    0.485
        20  -8.9720     95.6445    231.3083   1.2635378870e+02   1.7239012795e+01    0.1186427   0.06570224  57.76 0.0007042549    1.725    0.420
        21 -10.0508    156.2959    217.6891   1.1323275156e+02   1.0562463983e+01    0.2129744     0.170848  36.03 0.0003049847    1.051    0.049
        22 -11.1052    188.5099    138.0747   9.2320811922e+01   1.7476496106e+01    0.3469046    0.3061173  26.23   0.00194916    1.074    0.069
        23 -10.7790    167.9213    138.7079   9.6914905159e+01   2.1545899128e+01    0.3920467     0.283783  74.16  0.001436029    2.287    0.563
        24 -10.6296    166.2155    134.1835   9.6280660713e+01   2.2717750841e+01    0.3369658    0.2729802  78.25  0.001658386    1.777    0.437
        25 -10.6234    146.6414    137.2796   1.0154488546e+02   2.6060597743e+01    0.4258478    0.2989956 -79.52  0.001401497    2.487    0.598
        26 -11.5169    211.4530    136.6900   8.7446297568e+01   1.3086641336e+01    0.4561581    0.3499213  11.22  0.002313217    1.249    0.199
        27 -10.6873    173.7140    137.3433   9.5322430650e+01   2.0615289460e+01    0.2915675    0.2482394 -87.64  0.001184483    1.705    0.413
        28 -10.8516    221.0023    130.8299   8.4337111294e+01   1.2078055062e+01    0.3322765    0.2752191 -72.76  0.001573183    1.982    0.495
        29 -10.6132     39.3926    213.8667   1.3557867164e+02   2.6753913113e+01    0.2457011    0.1172524  26.24  0.001384057    2.570    0.611
        30 -11.1803    160.6208    128.0540   9.6148468233e+01   2.5010803638e+01    0.3792272    0.3542472 -88.68  0.001656313    1.317    0.241
        31 -10.2358    136.1289    129.0045   1.0230869488e+02   2.9768631280e+01     0.403169    0.2528633 -34.90   0.00159519    1.769    0.435
        32 -10.3572    134.8115    123.9310   1.0149004921e+02   3.1065138131e+01    0.3472576    0.2456835 -78.18    0.0014663    2.252    0.556
        33 -10.0598    151.1317    122.2722   9.7030598812e+01   2.8091105913e+01     0.375897    0.2071738 -55.63  0.001455272    2.451    0.592
        34 -10.9084     23.8073    203.0110   1.3790805132e+02   3.0202396537e+01    0.2219727    0.1553482  50.79  0.001329175    1.198    0.165
        35  -9.8260    225.6026    122.2653   8.1521079993e+01   1.2421239127e+01    0.3635612    0.2485832  76.19  0.001553511    2.944    0.660
        36 -10.4536    142.0260    122.7363   9.9385663061e+01   2.9867176717e+01    0.4213723     0.296899 -75.57  0.001710452    2.304    0.566
        37  -9.7588    138.7017    119.3050   9.9407648090e+01   3.1234373761e+01    0.2083303    0.1382036  33.41 0.0001879442    1.530    0.346
        38 -10.2867    192.9638    194.9069   1.0263225360e+02   7.8679154358e+00     0.762794    0.4307173 -61.62  0.002488613    7.002    0.857
        39 -10.0657    175.1096    115.2316   8.9726588730e+01   2.4275245442e+01    0.3164912    0.2567857  85.98  0.001343546    1.821    0.451
        40 -11.2771    167.5784    114.3134   9.1183210159e+01   2.6090586625e+01    0.5322122    0.4295275  -5.04  0.000943301    1.331    0.249
        41 -13.8352     11.4587    191.6485   1.3971667759e+02   3.3373936778e+01     1.759969     1.322076 -20.95   0.01032469    2.358    0.576
        42 -10.2014    156.9825    113.1133   9.3352500578e+01   2.8621963798e+01    0.5739744    0.3319688 -62.23  0.002019817    3.142    0.682
        43 -10.9114    134.8227    109.0642   9.7873607138e+01   3.4121138218e+01     1.197999    0.3012243 -43.69  0.003369282    4.043    0.753
        44 -10.0992      7.4627    114.6275   1.3595561655e+02   4.9750250657e+01    0.3063313    0.1133604  71.38  0.001244043    3.557    0.719
        45 -10.0270    126.4175    109.7807   1.0029481036e+02   3.5672822178e+01    0.3039521    0.2479919   4.05 0.0004623728    1.420    0.296
        46 -13.3245     42.6538    170.9560   1.3194836396e+02   3.4589554740e+01    0.9023333    0.7449998   1.82   0.00331929    1.733    0.423
        47  -9.2403    141.8889    104.0742   9.4736073671e+01   3.3646590659e+01    0.2481861    0.1860061   4.20 0.0009934343    1.668    0.400
        48 -10.3542    124.9077    102.6478   9.8877461362e+01   3.7475132448e+01    0.4575177    0.3225835  57.43  0.001678342    1.663    0.399
        49  -8.5362    171.0575    155.3075   9.9754865469e+01   1.7984895650e+01     0.194437    0.1658277  29.18 0.0003102284    1.054    0.051
        50  -9.0727    203.8586    152.8258   9.2459028152e+01   1.2094883951e+01    0.2182683     0.168576  11.84 0.0004774377    1.208    0.172
        51 -10.5182    191.9285    152.0851   9.4685497435e+01   1.4498860268e+01    0.4237934    0.2862064 -61.49  0.001875343    2.659    0.624
        52 -10.2224    133.9807    147.6402   1.0673784799e+02   2.6413034391e+01    0.6626194    0.2055993 -52.51  0.002123737    3.920    0.745
        53 -10.1329    147.8179     99.9814   9.2126972275e+01   3.3163751605e+01    0.3567583    0.3349225 -61.20 0.0009426744    1.209    0.173
        54  -9.4080    134.0307     96.3994   9.4708997671e+01   3.6871874744e+01    0.2838981    0.2241917 -38.02 5.431188e-05    1.270    0.212
        55 -11.9887      4.4706     90.6902   1.3461438293e+02   5.5376530686e+01    0.5812472    0.3241871 -62.98  0.003458567    1.442    0.307
        56  -8.8847    222.7759    145.3386   8.7274263544e+01   9.6242400389e+00    0.1915264    0.1658975  46.14 0.0006339143    1.406    0.289
        57 -10.5954    141.1321     89.2840   9.0812486566e+01   3.6731986663e+01     0.378225    0.3357701 -79.45 0.0009822743    1.400    0.285
        58 -12.8812     54.2185    161.9826   1.2845550610e+02   3.5230398788e+01    0.7735657    0.6314865  66.87  0.002703344    1.082    0.076
        59 -11.9325    155.7655     83.0895   8.5338479336e+01   3.4528255935e+01    0.5582073    0.4051421  48.38 0.0006865867    1.375    0.273
        60 -10.8579    158.0139     92.7157   8.7607016645e+01   3.2241169923e+01    0.5529796    0.4430884   4.17  0.002656427    1.386    0.279
        61 -11.5302      3.0064     76.8734   1.3355526092e+02   5.8621809025e+01    0.4025632    0.2244073  87.59  0.002264505    1.761    0.432
        62 -10.2803    217.8577    150.1880   8.9227632395e+01   9.8464995570e+00    0.2997881    0.2166647  26.38 0.0008552829    1.253    0.202
        63 -11.0968      9.3643     69.9046   1.3030457118e+02   5.9945142131e+01    0.4797615          nan -57.97   0.00157751    4.297    0.767
        64  -8.5292    119.1677     69.8274   9.0853005286e+01   4.5357060961e+01    0.2041591    0.1705488  -2.36 0.0002585124    1.271    0.214
        65 -10.3361    192.0028    144.1969   9.2966635732e+01   1.5762898788e+01     0.292319    0.2309806  50.64 0.0008384724    1.428    0.300
        66 -11.9453    105.5694     59.4388   9.1470369183e+01   5.0217218689e+01    0.9626557    0.5568712  16.72  0.003501514    2.863    0.651
        67 -11.5018    157.2499    140.3907   9.9717375585e+01   2.3372524866e+01     0.824352    0.5462176  85.87  0.002903613    3.898    0.743
        68 -10.6633    222.8848    177.0034   9.3754449764e+01   5.2445840620e+00     0.386837    0.2831545   0.10  0.002313467    1.242    0.195
        69  -8.9152     72.6793     58.2238   1.0253676764e+02   5.6395310142e+01    0.2077864    0.1664104 -57.84 0.0005503485    1.377    0.274
        70  -9.4192     83.0129     52.0393   9.6507787207e+01   5.5952459686e+01    0.3231275    0.1921456 -47.81 0.0008764333    1.723    0.420
        71 -10.2598    180.7803     51.1064   7.0157800449e+01   3.3473868465e+01    0.5392948     0.302324  54.41  0.002278279    1.728    0.421
        72  -8.8074    173.9085     47.6848   7.0330011722e+01   3.5719599431e+01    0.2098486    0.1946188  51.34 0.0003706657    1.073    0.068
        73  -9.2339    103.6302     47.0063   8.7516079858e+01   5.2899078277e+01    0.2145697    0.1834632 -22.00 0.0004630512    1.119    0.107
        74 -11.9603    108.4597     37.6347   8.2309377686e+01   5.3411135419e+01    0.5095124    0.4499361   0.67  0.002490313    1.062    0.058
        75  -9.1575    119.2857     33.3388   7.7461225538e+01   5.1557551847e+01    0.1574539    0.1090933  16.66 0.0003091205    1.633    0.388
        76 -11.5363     68.2979    144.9505   1.2293968868e+02   3.7265858346e+01    0.6685659    0.4153965  68.54   0.00255641    1.853    0.460
        77  -9.3413    205.4781    190.4692   9.9473144424e+01   6.3835546712e+00    0.2673238    0.1724084  60.14  0.001252113    2.909    0.656
        78  -8.6830    105.0559    159.9041   1.1592748058e+02   2.8839859963e+01    0.1597509     0.148448  16.74            0    1.187    0.157
        79  -8.1739    103.6778    144.7413   1.1375995171e+02   3.2240876588e+01    0.1307218    0.1074629  -3.28 0.0003878979    1.549    0.354
        80  -8.5823    152.3010    149.6944   1.0281472144e+02   2.2588599402e+01    0.1371054    0.1133426  74.64 0.0004370188    1.594    0.373
        81  -8.8551    101.0184    175.9909   1.1921516297e+02   2.6225392304e+01    0.1718092    0.1521157  50.57            0    1.018    0.018
        82 -10.3510    235.6473    173.8124   9.0865819011e+01   3.5208068379e+00    0.2929823      0.21174  43.24  0.001112407    1.594    0.373
        83 -10.2976    244.5938    172.5161   8.9078218803e+01   2.2201724187e+00    0.2724887     0.149515  21.92   0.00101348    1.761    0.432
        84  -9.0359    200.5973    173.1554   9.7209100539e+01   9.6537912920e+00    0.1799116    0.1180651 -16.45  0.000431161    1.652    0.395
        85  -9.8863    227.5698    172.4970   9.2035050785e+01   5.0413770541e+00    0.2216079    0.1176952  49.69  0.001034392    2.378    0.579
        86 -10.9271    179.4511    146.1704   9.6026609343e+01   1.7922945752e+01    0.3806905    0.2829684 -14.38  0.001220596    1.459    0.314
        87 -10.2145    230.6558    167.4989   9.0495191631e+01   5.1696034496e+00    0.2877638    0.1921972 -33.50  0.001612741    1.641    0.391
        88 -10.7735    213.5260    167.2809   9.3580244833e+01   8.1917824740e+00    0.5721993    0.3226673  59.25  0.002277314    3.544    0.718
        89 -11.9211    243.8334    239.8617   1.0078889709e+02  -4.8579539668e+00    0.2138426    0.1526858  15.60 0.0004473279    1.084    0.078
