#   1 NUMBER                 Running object number                                     
#   2 MAG_AUTO               Kron-like elliptical aperture magnitude                    [mag]
#   3 X_IMAGE                Object position along x                                    [pixel]
#   4 Y_IMAGE                Object position along y                                    [pixel]
#   5 X_WORLD                Barycenter position along world x axis                     [deg]
#   6 Y_WORLD                Barycenter position along world y axis                     [deg]
#   7 A_WORLD                Profile RMS along major axis (world units)                 [deg]
#   8 B_WORLD                Profile RMS along minor axis (world units)                 [deg]
#   9 THETA_WORLD            Position angle (CCW/world-x)                               [deg]
#  10 FWHM_WORLD             FWHM assuming a gaussian core                              [deg]
#  11 ELONGATION             A_IMAGE/B_IMAGE                                           
#  12 ELLIPTICITY            1 - B_IMAGE/A_IMAGE                                       
         1 -12.8198    195.4308     29.0120   5.2485867995e+01   3.2027381842e+01     1.493023     1.036262  13.08  0.001602364    1.821    0.451
         2 -11.6619    216.6507      3.4099   4.2817071122e+01   2.9280732322e+01    0.8211657    0.4421339  75.09  0.003906285    1.895    0.472
         3 -10.7276     59.5014      4.8854   7.4072903062e+01   6.9586608601e+01    0.3840111    0.2781458 -22.17  0.002100615    1.313    0.238
         4 -10.4413     49.6178      3.1784   7.7911955180e+01   7.1666893097e+01    0.3178809    0.2719916  15.62  0.001953721    1.132    0.117
         5  -8.7345    130.3999    212.8771   1.0665711659e+02   1.6043019393e+01    0.1574893    0.1307168  67.28  0.000567173    1.394    0.283
         6 -19.4645     14.8478    140.0112   1.2631999004e+02   4.4257231712e+01     17.38527     2.627221 -81.63   0.05026416    6.646    0.850
         7  -9.1213     60.6688    187.8545   1.1865449532e+02   2.9730863070e+01    0.2821266    0.1743222 -84.02  0.001286889    1.713    0.416
         8  -8.4835     99.3678    180.8728   1.0940491176e+02   2.5863252698e+01    0.1582256    0.1481846  71.27 0.0006214204    1.167    0.143
         9 -10.5094     79.1573    175.8086   1.1341188634e+02   2.9671547061e+01    0.4427156    0.2694052  39.35  0.001323418    1.418    0.295
        10 -10.6597     83.0190    170.0509   1.1188816485e+02   3.0264351040e+01    0.3580089     0.250978 -37.84  0.002013566    2.081    0.519
        11  -9.7978    113.7247    169.7948   1.0474443195e+02   2.5706403330e+01    0.3423348    0.2516892  -4.90  0.001810774    2.180    0.541
        12  -8.7662    164.1776    170.4466   9.3952473503e+01   1.7086481348e+01    0.1992938    0.1788944 -29.56  0.000382752    1.277    0.217
        13 -10.4220     95.5458    169.3089   1.0886801619e+02   2.8602891192e+01    0.4733481     0.199534  51.51   0.00207331    2.338    0.572
        14  -7.7711    205.3540    166.7040   8.5437504269e+01   1.0507708279e+01    0.1133796   0.09977373  66.11 0.0007033609    1.691    0.409
        15  -9.0672    193.3084    165.6818   8.7442414880e+01   1.2711270640e+01     0.234795     0.205424  21.74  0.001202894    1.088    0.081
        16 -10.4758     89.6698    162.0519   1.0934049736e+02   3.0901985444e+01    0.5534699     0.382764  17.40  0.001901977    1.955    0.489
        17 -11.7299     59.0611    131.9297   1.1344839432e+02   4.1605363419e+01     1.009491     0.378079 -77.02   0.00380062    3.273    0.694
        18 -10.6577     69.6304    134.4910   1.1083559636e+02   3.9642127791e+01    0.4412423    0.2718805  31.68  0.001466647    1.696    0.410
        19 -11.0251     54.5139    147.5649   1.1649276959e+02   3.8663323126e+01    0.6844199    0.5120983 -65.41  0.004217347    1.416    0.294
        20  -9.3332     50.9489    157.1088   1.1833178348e+02   3.7024276180e+01    0.2579856    0.2052171  63.85 0.0008016393    1.038    0.037
        21 -10.0070     49.7938    151.7153   1.1812476905e+02   3.8310977593e+01    0.3471555    0.1964577 -65.65  0.001305641    1.795    0.443
        22 -11.9650     78.7163    156.4976   1.1132814329e+02   3.3611278260e+01    0.4487254    0.4318121 -81.94  0.001253888    1.214    0.176
        23 -12.1463     68.3969    144.3404   1.1246928276e+02   3.7620656854e+01    0.9069191    0.5447115  76.24  0.002756626    1.884    0.469
        24  -9.6457     94.6080    155.8053   1.0730136235e+02   3.1423770944e+01    0.2714268    0.2507694 -51.17 0.0007630598    1.283    0.220
        25  -9.5250     97.2247    151.9748   1.0610478358e+02   3.1801010382e+01    0.3697179    0.2950006  71.61  0.002174454    1.262    0.208
        26  -8.9413    188.8004    154.9035   8.6269010291e+01   1.5047616841e+01    0.3227738    0.1677877  55.82  0.001380153    2.680    0.627
        27  -9.8207    133.6740    144.2695   9.5956473502e+01   2.7090054461e+01    0.6836179    0.1956241 -53.89   0.00208015    4.811    0.792
        28  -9.9157    107.4881    139.8018   1.0156969864e+02   3.2639603259e+01    0.5100651    0.3075018 -29.32   0.00214734    2.833    0.647
        29 -10.7252     95.6324    139.6632   1.0460938189e+02   3.4631902602e+01    0.2578775    0.2549344 -22.24  0.001628128    1.194    0.162
        30  -9.2084     93.8640    250.0255   1.1674563788e+02   1.5711527131e+01    0.1895947    0.1067644  40.52 0.0007131053    1.232    0.188
        31 -10.4876    114.8077    130.7035   9.8023646869e+01   3.3248683183e+01    0.3274685    0.2657426 -40.45  0.001268479    1.393    0.282
        32  -8.1655    174.6202    149.2342   8.7954083963e+01   1.8536159845e+01    0.1793953     0.125185 -23.79 0.0007516485    1.611    0.379
        33  -9.2208    102.3878    126.3129   1.0046445675e+02   3.6384790846e+01    0.2620315    0.2248347 -18.12 0.0008783429    1.488    0.328
        34  -9.5252    106.1513    130.8377   1.0030814826e+02   3.4757799247e+01    0.3281105    0.2833759  78.06  0.001231608    1.190    0.160
        35  -9.0889     67.2378    125.1713   1.1016934543e+02   4.2091512957e+01    0.2224196    0.1367122 -29.73 0.0009575385    2.844    0.648
        36  -8.5036    110.0808    119.1588   9.6950744068e+01   3.6560592901e+01    0.2042651    0.1918228  16.36 0.0003297158    1.186    0.157
        37  -8.5216    167.9921    112.9949   8.1418330648e+01   2.5950731771e+01    0.2333048    0.1863507 -81.59  0.001140104    1.774    0.436
        38  -9.2879    107.9477    203.2188   1.1006738411e+02   2.0765671695e+01     0.174492    0.1565177  54.63 0.0004500209    1.156    0.135
        39  -9.9675    119.9801    109.9655   9.2240217142e+01   3.6631258648e+01    0.4182497    0.2085295 -56.18  0.001644349    2.303    0.566
        40  -9.3198     95.9393    200.1707   1.1222761731e+02   2.2953974456e+01    0.2952265    0.2168895  28.25  0.001465606    1.425    0.298
        41  -8.4201    205.3869    110.3777   7.3549135181e+01   1.8399266391e+01    0.2146108    0.1536815  13.82  0.001064779    1.550    0.355
        42  -8.6546    115.2974    110.3265   9.3590821793e+01   3.7473729723e+01    0.1447319    0.1177112  -6.78 0.0003371045    1.631    0.387
        43 -11.0719     58.5135    103.9251   1.0944182571e+02   4.8259335147e+01    0.6561524    0.2076864 -70.37  0.002147904    3.719    0.731
        44 -11.7770     68.4772    189.8664   1.1711773038e+02   2.8401244685e+01    0.6201116    0.5757931  85.86  0.004022008    1.272    0.214
        45 -12.2100     41.3515     89.1998   1.1282919434e+02   5.3844774604e+01    0.9630455    0.2180408 -65.82  0.003185539    3.602    0.722
        46  -8.4241     69.6269     72.1999   9.8509114710e+01   5.4296008718e+01    0.1950645    0.1251037 -48.57 0.0002780847    1.502    0.334
        47  -9.7720    163.8803     64.7577   6.8907677757e+01   3.5212908449e+01    0.3239169      0.26154 -84.23 0.0004971179    1.507    0.337
        48  -8.6670     81.8109    195.1030   1.1471327856e+02   2.5740308411e+01    0.2111946    0.1612682  33.17  0.001414498    1.318    0.241
        49 -11.3513    176.6305     48.2685   6.1300841385e+01   3.4448919150e+01    0.5891413    0.4963316 -19.92 0.0008506936    1.205    0.170
        50 -12.4834    189.6185     36.3910   5.5541479966e+01   3.2646380967e+01     1.202012     0.786906  27.18  0.004503003    1.927    0.481
        51  -9.9031    139.4423    249.0177   1.0871374169e+02   1.0041494763e+01    0.2638716    0.1278124  50.16  0.001611067    1.989    0.497
        52  -9.3714    191.6879    192.4576   9.2283663852e+01   9.4377309772e+00    0.3092662    0.2169461 -73.76  0.001436122    4.240    0.764
        53  -8.4694    150.3189    190.6781   9.9900272696e+01   1.6299586749e+01    0.1208833    0.0879817  60.92 0.0007043819    1.668    0.401
        54  -9.0072    150.7151    220.9996   1.0375027802e+02   1.1974048118e+01    0.1600548    0.1272062  34.82  0.001172694    1.064    0.060
        55  -9.7236    177.9853    219.2246   9.8591768970e+01   8.2387366175e+00    0.1592996    0.1104479   4.71  0.001053511    1.637    0.389
