#   1 NUMBER                 Running object number                                     
#   2 MAG_AUTO               Kron-like elliptical aperture magnitude                    [mag]
#   3 X_IMAGE                Object position along x                                    [pixel]
#   4 Y_IMAGE                Object position along y                                    [pixel]
#   5 X_WORLD                Barycenter position along world x axis                     [deg]
#   6 Y_WORLD                Barycenter position along world y axis                     [deg]
#   7 A_WORLD                Profile RMS along major axis (world units)                 [deg]
#   8 B_WORLD                Profile RMS along minor axis (world units)                 [deg]
#   9 THETA_WORLD            Position angle (CCW/world-x)                               [deg]
#  10 FWHM_WORLD             FWHM assuming a gaussian core                              [deg]
#  11 ELONGATION             A_IMAGE/B_IMAGE                                           
#  12 ELLIPTICITY            1 - B_IMAGE/A_IMAGE                                       
         1 -11.7934    227.7995     23.3040   3.2780575055e+01   2.6644318222e+01    0.7067509    0.5652305 -66.41  0.002753534    1.039    0.037
         2 -12.5068    210.6663     38.5918   3.7810186077e+01   2.8444228030e+01     1.133402     1.018356  26.23  0.007255079    1.515    0.340
         3 -10.6530      2.0000     18.5482   9.2295296266e+01   7.2028310049e+01     0.735143    0.1112608 -51.21  0.002516074    5.241    0.809
         4 -10.3617      1.7558      6.3290   8.6857858058e+01   7.3962062617e+01    0.7649951     0.152585 -45.96  0.003003715    4.375    0.771
         5 -10.4544    248.4601      3.7327   2.7448520676e+01   2.4684277977e+01    0.4349406    0.2740071 -63.07  0.002960043    1.238    0.192
         6 -11.4313     30.3121    201.9346   1.1614543551e+02   2.7551323465e+01    0.4626068    0.3923391 -37.54  0.001286817    1.553    0.356
         7  -9.5159     81.2373    249.7722   1.0944638775e+02   1.1064465637e+01    0.2945575    0.1746548  40.59  0.001076958    1.407    0.289
         8 -13.1955    110.6338    229.8340   1.0085415119e+02   1.0770034985e+01     9.302695     1.982083  29.96   0.01886781    9.894    0.899
         9 -12.9049     11.4468    235.0002   1.2229615942e+02   2.2219374129e+01     1.553458    0.8230839  69.86  0.009257553    1.614    0.381
        10  -7.6313    111.7492    205.3659   9.7150871627e+01   1.5775515777e+01    0.1415156    0.1067882  75.52 0.0004417443    1.623    0.384
        11 -10.5769     20.8516    194.9409   1.1772867601e+02   3.0123472518e+01    0.2823514    0.2527592  38.90  0.001247424    1.301    0.231
        12 -13.4276      9.3969    208.0699   1.2116297457e+02   2.8173289204e+01     1.658711      1.04315 -76.92  0.008715633    1.406    0.289
        13 -11.8282     56.9534    239.1402   1.1351079286e+02   1.6329301759e+01    0.6196411    0.4919503  74.74 0.0004837419    1.138    0.121
        14 -10.2731     58.9818    175.8022   1.0626438758e+02   3.0593693002e+01    0.4462492    0.2950589 -34.91  0.001782328    1.966    0.491
        15 -10.2720     64.4329    170.4998   1.0405743814e+02   3.1223412216e+01     0.357276    0.2815994 -30.92  0.001262926    1.538    0.350
        16 -13.2077     25.1094    249.8018   1.2053453046e+02   1.7874111621e+01     2.890146    0.8529316  25.08  0.009576104    6.520    0.847
        17 -11.4810     58.9046    132.8028   9.9398768853e+01   4.1636157378e+01     1.294024    0.5258339 -76.04  0.003561153    4.867    0.795
        18 -12.0679     68.2120    144.5087   9.8710670165e+01   3.7380871832e+01     1.200104    0.7485777  86.56  0.004344321    2.302    0.566
        19 -11.7746     61.5126    157.1005   1.0283218780e+02   3.5027493379e+01    0.5364011    0.3335834 -39.47  0.001200231    1.857    0.462
        20  -8.8795     32.6049    156.6399   1.1095159921e+02   3.8413077017e+01     0.285758    0.1851624  85.47 0.0009942732    1.595    0.373
        21 -12.2525      3.0701    248.4368   1.2447831625e+02   2.0347403447e+01     1.183579    0.4290201 -81.24  0.006265689    2.515    0.602
        22 -12.3217      5.8477    186.5477   1.2052615051e+02   3.3409104962e+01     1.518925    0.6536282 -89.44  0.007168621    2.169    0.539
        23 -10.4162     74.6019    161.1478   9.9768943132e+01   3.2201067496e+01    0.4371759    0.3177448 -40.94 0.0004275832    1.495    0.331
        24  -9.1187     96.9692    141.4985   8.9508994860e+01   3.3679786176e+01    0.3815408    0.2786142  14.86  0.001718615    1.663    0.399
        25  -8.2956    100.2596    137.9760   8.7765675165e+01   3.3988860038e+01    0.3848971    0.2505869 -11.17  0.001449123    2.531    0.605
        26 -10.5770     84.8207    139.8156   9.2773472649e+01   3.6118106048e+01    0.3149891    0.2776526 -45.24 0.0004247087    1.104    0.094
        27 -11.4729     81.8915    155.1417   9.6634081326e+01   3.2657642723e+01     1.221357    0.7264578 -58.49  0.001702692    1.604    0.377
        28  -9.8232     71.5980    132.4838   9.5328986388e+01   3.9997137574e+01    0.3504413    0.2567623  78.60  0.001471222    1.771    0.435
        29  -9.2736    107.2753    130.9588   8.4079654673e+01   3.4450391762e+01    0.4611411    0.3193105  20.11  0.001983739    1.736    0.424
        30  -7.6249    135.6734    130.3255   7.5981348097e+01   2.8974832524e+01    0.1622744    0.1291508  87.05 0.0004857862    1.695    0.410
        31  -8.0843     95.9826    126.0730   8.6300181669e+01   3.7701314984e+01    0.2562198    0.1879618 -16.33  0.001123281    1.732    0.422
        32  -8.0054     73.6491    126.3228   9.3371380209e+01   4.1267137644e+01     0.156296    0.1162334  71.75 0.0007048291    1.751    0.429
        33 -10.7975     84.0518    218.7656   1.0551569054e+02   1.7025021444e+01    0.6055239    0.3278933 -80.89  0.002409508    2.423    0.587
        34 -14.2660     38.3042    191.0678   1.1328138208e+02   2.9268139843e+01     11.32941     4.289341  84.85   0.03241735    5.694    0.824
        35  -8.2266    105.8801    119.1643   8.1585652816e+01   3.7567731767e+01    0.2216618    0.2088322  66.22   0.00029926    1.161    0.139
        36 -10.2686      8.3787    110.2509   1.1218232793e+02   5.2017157113e+01    0.3828103    0.1169095 -64.69  0.001549501    2.381    0.580
        37  -8.3327    205.7986    110.1884   5.5505744594e+01   1.8086487644e+01    0.1943891    0.1689994 -10.02 0.0007025498    1.300    0.231
        38  -8.3531     51.6584     94.0204   9.3364467047e+01   5.2192641953e+01    0.2554317     0.071302 -40.82 0.0003163012    4.385    0.772
        39 -10.1985      6.6518     88.5232   1.0933827032e+02   5.7366348613e+01     0.386008     0.158769 -44.69  0.001811958    2.004    0.501
        40 -10.1846     13.1998     59.9084   1.0029963966e+02   6.3445328965e+01    0.3063919    0.1691851 -55.82   0.00134268    1.546    0.353
        41  -7.9742     21.4970     56.4857   9.5486047256e+01   6.3555033642e+01    0.1288133     0.104045 -30.83 0.0008104637    1.016    0.016
        42  -9.1447     32.8330    222.4911   1.1722093760e+02   2.2664496284e+01    0.2254815     0.152469 -85.59 0.0009471629    1.354    0.261
        43 -10.6655    219.4663     31.2890   3.5251603294e+01   2.7447539903e+01    0.4342538    0.3192246  37.82  0.001111467    1.996    0.499
        44 -11.8256    202.3127     44.6603   4.0219060379e+01   2.9512817644e+01    0.5819799    0.4933424  64.74  0.002414729    1.233    0.189
        45  -9.5121     32.5342    233.7565   1.1808912817e+02   2.0302091622e+01    0.2416452    0.1694924  83.45  0.001331991    1.265    0.209
        46  -8.1975     16.6830     54.7188   9.7209833375e+01   6.4288815170e+01    0.1320369   0.07528191 -28.74 0.0002963854    1.579    0.366
        47  -9.7629     11.8960     52.8540   9.8937628992e+01   6.5001662288e+01    0.2067301    0.1359996 -32.20  0.001245106    1.246    0.197
        48 -10.1820    193.8515     50.3861   4.2732401966e+01   3.0660521326e+01    0.3449828    0.1485802 -49.43  0.001421099    2.364    0.577
        49 -10.6351      2.0000     44.9842   1.0152319473e+02   6.7164608983e+01     0.582454    0.1211376 -59.91  0.002113857    3.947    0.747
        50 -10.5231     75.7783    221.9638   1.0776929057e+02   1.7486189934e+01    0.4686309    0.2617856  78.42  0.002108041    2.433    0.589
        51 -10.2569     43.1480    218.0369   1.1465290477e+02   2.2484833928e+01    0.3315198    0.2381834  84.10 0.0005168819    1.278    0.217
