#   1 NUMBER                 Running object number                                     
#   2 MAG_AUTO               Kron-like elliptical aperture magnitude                    [mag]
#   3 X_IMAGE                Object position along x                                    [pixel]
#   4 Y_IMAGE                Object position along y                                    [pixel]
#   5 X_WORLD                Barycenter position along world x axis                     [deg]
#   6 Y_WORLD                Barycenter position along world y axis                     [deg]
#   7 A_WORLD                Profile RMS along major axis (world units)                 [deg]
#   8 B_WORLD                Profile RMS along minor axis (world units)                 [deg]
#   9 THETA_WORLD            Position angle (CCW/world-x)                               [deg]
#  10 FWHM_WORLD             FWHM assuming a gaussian core                              [deg]
#  11 ELONGATION             A_IMAGE/B_IMAGE                                           
#  12 ELLIPTICITY            1 - B_IMAGE/A_IMAGE                                       
         1 -13.3441    196.2513     41.4113   4.5751227301e+01   3.0948950182e+01     1.155375    0.9558343 -43.54  0.003431691    1.170    0.145
         2 -14.0203    205.0773     32.3164   4.2620358150e+01   3.0107572997e+01     1.712002     1.224768   6.62  0.001318955    2.253    0.556
         3 -11.8586     29.3066     17.4055   8.2151002880e+01   7.0910717445e+01    0.4615311    0.1744955 -32.95  0.001986429    2.703    0.630
         4 -13.0064    229.2845      5.9942   3.4980664051e+01   2.7907682898e+01    0.7829266    0.5893733 -86.97  0.004677324    1.206    0.171
         5  -9.9715     64.3014      9.0591   6.1087870239e+01   6.5701318593e+01    0.1828179    0.1573451  25.20  0.001029376    1.068    0.064
         6 -10.6228     59.5300      3.0111   5.9708229438e+01   6.7260104374e+01     0.242696    0.1789092  66.10  0.001401984    1.629    0.386
         7 -11.1484    183.8090    212.5057   8.6462748883e+01   4.4312582322e+00    0.5057233    0.3176924 -31.42   0.00275066    1.559    0.358
         8 -11.5034    139.5971    246.3012   1.0111087606e+02   5.0139684267e+00    0.6946713    0.3074933 -53.24  0.003284967    2.932    0.659
         9 -15.5712     71.5370    150.5931   1.0425145792e+02   3.5365316625e+01     14.51994     7.397294  75.35   0.01129836    6.258    0.840
        10 -10.5944    120.2939    194.4280   9.8033261516e+01   1.7586916773e+01    0.2788768    0.2337653  70.60 0.0006654593    1.527    0.345
        11  -9.6111    107.5220    249.9478   1.0853629375e+02   8.6488225768e+00    0.1585736    0.1254274 -55.01 0.0007557364    1.557    0.358
        12 -10.3778     99.3299    180.8547   1.0129476459e+02   2.3866141811e+01     0.292262    0.2552224  20.33 0.0006262275    1.106    0.096
        13  -9.9562    188.6315    176.8228   7.8819947535e+01   9.8698701961e+00    0.3741078    0.3287627 -65.05  0.002125796    1.659    0.397
        14  -9.8976    146.3794    172.0126   8.7414911099e+01   1.8000070926e+01    0.3122413    0.2567427 -72.10  0.001569668    1.676    0.403
        15 -10.1525     48.8757    170.9673   1.1404037148e+02   3.3060702390e+01     0.471119    0.2985084 -29.38  0.002186579    2.086    0.521
        16 -10.1232     46.0564    167.2823   1.1440644543e+02   3.4293449403e+01    0.6459211    0.3121723 -38.13  0.002536942    2.800    0.643
        17  -8.9286     82.0105    194.9508   1.0801203363e+02   2.3140114477e+01    0.2162571    0.2023217  27.71  0.001287693    1.045    0.043
        18  -9.2774    185.5295    169.5385   7.7992979832e+01   1.1707647479e+01     0.235642    0.1302607 -49.52 0.0007321501    2.150    0.535
        19  -9.5031    240.4660    169.4652   6.7848843757e+01   3.2371714094e+00    0.1266429   0.09975853 -17.91 1.625785e-05    1.016    0.015
        20  -9.4045    137.2382    167.8488   8.8867015147e+01   2.0492356083e+01    0.3750031    0.2129715  38.18  0.001072282    1.706    0.414
        21 -10.4456     32.6742    165.5574   1.1808461132e+02   3.6092408915e+01    0.3450806    0.2243364  86.97 0.0009648267    1.598    0.374
        22 -10.1572     53.1845    157.6727   1.1102556649e+02   3.5918208124e+01    0.2488743    0.1898976 -82.13 0.0008631013    1.359    0.264
        23 -18.0903     16.5127    214.7680   1.2605301154e+02   2.6052920144e+01     12.77519     4.812257 -82.44   0.05860539    2.706    0.630
        24 -11.5115     91.1704    152.2196   9.8547187604e+01   3.2013407275e+01    0.7417203    0.5057002 -24.39  0.003248766    1.830    0.454
        25 -10.1472    149.6236    187.7950   8.9659287235e+01   1.4221279833e+01    0.3150078    0.2698487 -73.94  0.001135286    1.638    0.389
        26 -10.7948    133.7573    145.1265   8.4926900744e+01   2.6136891976e+01     1.211789    0.3222603 -53.17  0.002854881    5.773    0.827
        27  -8.6830    112.5105    150.5423   9.1961560886e+01   2.8814167060e+01    0.1536259    0.1480789  21.00 4.730816e-05    1.045    0.043
        28  -9.4127    174.8523    149.1645   7.5925472731e+01   1.7464048634e+01     0.216466    0.2064972 -64.62  0.000638442    1.293    0.226
        29 -11.8341    107.6318    203.9242   1.0269075660e+02   1.7498845953e+01    0.4352774    0.3561789  65.83 0.0004243166    1.462    0.316
        30 -10.1796    104.0191    138.4599   9.1826012791e+01   3.3207236380e+01    0.5886485    0.3567059 -20.03  0.002169305    2.536    0.606
        31 -11.6194     91.7808    138.0199   9.5475968160e+01   3.5425730329e+01    0.3079016    0.2678199 -26.67 0.0003796935    1.179    0.152
        32 -10.1661    105.8306    130.7584   8.9515776433e+01   3.4726704039e+01    0.3810658    0.3458551 -63.35  0.001121385    1.206    0.171
        33  -9.9546    135.6834    129.5760   8.0752257631e+01   2.9199613774e+01    0.3844459    0.1429202 -49.44  0.001065577    2.930    0.659
        34 -10.0639    112.8554    129.2774   8.7064577834e+01   3.3761556704e+01    0.3853514    0.2920961   8.03 0.0009819831    1.547    0.354
        35  -9.3714    160.5850    127.7629   7.4145115127e+01   2.4503506926e+01    0.2207838    0.1410643 -50.60   0.00095507    1.709    0.415
        36 -10.2975    100.0848    125.1435   8.9944588009e+01   3.7122092616e+01    0.3300731    0.2582223  -6.74  0.001074302    1.494    0.330
        37  -9.6140     90.0340    213.0224   1.0829462796e+02   1.8075890317e+01    0.3280258     0.220343  59.18  0.001083764    1.706    0.414
        38 -10.8149    119.2708    123.2251   8.3702981436e+01   3.3910471780e+01    0.4977675    0.3188095  24.93  0.001524695    1.772    0.436
        39 -10.0769    135.0000    120.0170   7.8534714430e+01   3.1418425620e+01    0.4272513   0.08848908 -44.53  0.001038377    4.817    0.792
        40  -9.2849    108.6956    118.3534   8.5595165180e+01   3.7106892010e+01    0.2398899    0.2271896  57.52 0.0004949429    1.161    0.139
        41  -9.8584    231.2823    113.7260   5.7857728748e+01   1.3391430528e+01    0.2344881    0.2209458  -0.81 0.0008236954    1.163    0.140
        42  -9.4855     93.4680    205.5167   1.0647405048e+02   1.9201916310e+01    0.2628382    0.1769861  -4.88 0.0008937009    2.046    0.511
        43  -8.7471    167.8897    112.7730   6.8790838950e+01   2.5925325536e+01    0.2924239    0.1970719 -65.65  0.001231614    2.170    0.539
        44  -9.5351    134.6267    106.4003   7.5026362984e+01   3.4382473521e+01     0.307882    0.1482302 -46.85  0.001134027    2.164    0.538
        45 -11.3105    119.2336    109.9922   8.0256717183e+01   3.6882761143e+01    0.6143129    0.4446819  86.87  0.002456159    2.374    0.579
        46  -9.4371    205.4672    110.1484   6.1034761870e+01   1.8717080444e+01    0.2806785    0.1985999  36.93 0.0009085402    1.600    0.375
        47  -9.6956    105.4050    246.2209   1.0859216065e+02   9.5767677439e+00     0.196358    0.1276273 -79.54  0.001055623    2.353    0.575
        48  -9.3654     65.9986    104.4538   9.6486601452e+01   4.7860773155e+01    0.2307009    0.1480277  28.16   0.00102956    1.593    0.372
        49 -11.2798    194.5494    195.9838   8.1294838340e+01   5.6174132989e+00     1.053482    0.8302184  74.30  0.005238032    2.810    0.644
        50 -10.7207     56.1983     95.8518   9.8068763713e+01   5.1359493271e+01    0.5598251    0.2739248  39.19  0.002254106    2.194    0.544
        51 -10.8589     51.1149     90.2699   9.8668124970e+01   5.3386111894e+01    0.3676241    0.3447679 -65.18 0.0009653352    1.186    0.157
        52  -8.1565    120.3058     87.7021   7.3562883273e+01   4.1335761436e+01     0.150963    0.1257106 -88.28 0.0002941048    1.589    0.371
        53  -9.3839    157.5429     82.2689   6.2860593772e+01   3.3818622179e+01    0.1992984    0.1439585 -23.17 0.0006472549    1.543    0.352
        54  -8.4087    184.3374     77.2924   5.6516315256e+01   2.8543533769e+01    0.1394298    0.1088139  20.19 0.0004297677    1.644    0.392
        55  -9.7158     60.7739     68.4092   8.8029521666e+01   5.6977900248e+01    0.3035721    0.2327219  50.18  0.001527025    1.613    0.380
        56 -11.1086    171.3728     62.0748   5.4637405309e+01   3.3838318541e+01    0.6421785    0.2316428 -38.36  0.002408801    2.611    0.617
        57 -12.9302    184.8501     50.1892   4.9411320740e+01   3.2389544895e+01    0.8626133    0.7676957   6.68  0.001017767    1.383    0.277
        58  -9.2354     86.4185    247.2090   1.1288143613e+02   1.1830573771e+01    0.1513203    0.1151542  83.32 0.0006429189    1.641    0.391
        59  -8.1595     89.2847    242.3218   1.1176205496e+02   1.2366596303e+01    0.1181779   0.09208434  -9.25 0.0003436557    1.595    0.373
        60 -13.6556     50.5640    200.8934   1.1683271308e+02   2.5717035514e+01     2.189532    0.9096881  60.66   0.00725464    3.354    0.702
        61  -8.0951     70.6326    202.2912   1.1187306292e+02   2.2984161408e+01    0.1468827   0.09047156  55.37 0.0007025953    1.712    0.416
        62  -9.8500    198.2990     23.1827   4.1111984849e+01   3.2614183674e+01    0.2069017    0.1834257  15.03 0.0007001709    1.508    0.337
        63 -11.8608    111.9614    205.1093   1.0178497309e+02   1.6607830934e+01    0.4444078    0.3230478 -62.64  0.001666672    1.633    0.388
        64 -10.2269    163.4980    217.4829   9.1644972416e+01   6.5291776668e+00    0.1948649    0.1169347 -29.72 0.0009837851    1.762    0.432
        65 -10.1481    164.4289    214.2814   9.0913258347e+01   6.9492116370e+00    0.3660524    0.0939476  37.89  0.001219639    3.635    0.725
        66  -9.1119    189.5031     14.9915   3.9949766320e+01   3.5433721106e+01    0.1743257    0.1163911 -33.83 0.0005516976    1.540    0.351
