#   1 NUMBER                 Running object number                                     
#   2 MAG_AUTO               Kron-like elliptical aperture magnitude                    [mag]
#   3 X_IMAGE                Object position along x                                    [pixel]
#   4 Y_IMAGE                Object position along y                                    [pixel]
#   5 X_WORLD                Barycenter position along world x axis                     [deg]
#   6 Y_WORLD                Barycenter position along world y axis                     [deg]
#   7 A_WORLD                Profile RMS along major axis (world units)                 [deg]
#   8 B_WORLD                Profile RMS along minor axis (world units)                 [deg]
#   9 THETA_WORLD            Position angle (CCW/world-x)                               [deg]
#  10 FWHM_WORLD             FWHM assuming a gaussian core                              [deg]
#  11 ELONGATION             A_IMAGE/B_IMAGE                                           
#  12 ELLIPTICITY            1 - B_IMAGE/A_IMAGE                                       
         1 -10.3994     67.4424     19.5969   1.8165079070e+01   6.5926793034e+01    0.3151678    0.1891145  22.77  0.001347018    2.353    0.575
         2 -11.5820     49.9651     14.1437   2.2359483649e+01   7.0427899555e+01    0.4284485    0.2735715  46.99 0.0008236309    1.480    0.324
         3 -10.2064     45.5649     12.2313   2.3317537807e+01   7.1575696217e+01    0.2165411    0.1726605  31.14 0.0007882375    1.187    0.158
         4 -10.1284     35.0027     13.7082   3.0285276406e+01   7.3336638789e+01    0.2469521    0.1894218 -37.89 0.0007835377    1.352    0.260
         5 -10.2086     32.4874     10.5031   2.9690481381e+01   7.4260864141e+01    0.2294241    0.1217155 -39.55 0.0007812317    1.937    0.484
         6  -9.9516     27.5092     11.0594   3.3460060536e+01   7.5004329410e+01    0.1894985    0.1201368 -37.42  0.001025052    1.567    0.362
         7  -9.6010    218.9491      8.9266   3.5165632138e+02   3.0638428632e+01    0.1453954    0.1108613 -52.52 0.0005504931    1.033    0.031
         8  -9.7512     69.4535      9.5062   1.1841278236e+01   6.6686508457e+01     0.135043    0.1226269  41.90 0.0001536368    1.035    0.034
         9 -10.0893      1.4028      8.2617   5.4685489112e+01   7.8657672614e+01     0.217632    0.1002328 -53.23 0.0006843785    1.919    0.479
        10  -9.4104    115.3649      8.7473   1.0698323752e+00   5.5300550856e+01    0.1436105   0.09415875 -70.78 0.0003796391    1.624    0.384
        11 -11.6447    100.0397      6.0672   2.5300014495e+00   5.9477772975e+01    0.5280244    0.3177625  50.67  0.002618277    1.609    0.379
        12 -11.0800     85.5496      7.2111   6.1322384747e+00   6.3022389102e+01    0.2637066    0.2376848 -47.70 0.0006930234    1.184    0.155
        13 -10.8988    123.8776      6.7221   3.5902483747e+02   5.3298862907e+01    0.3314081     0.206277 -83.07  0.001450859    1.639    0.390
        14 -10.4625    160.4911      6.0200   3.5481866609e+02   4.4125426913e+01    0.1959335    0.1216643 -31.05  0.001031687    1.591    0.371
        15 -10.8669     16.2017      3.1339   3.6418743855e+01   7.7954365058e+01    0.2964093    0.2744051  83.91  0.001977836    1.610    0.379
        16 -11.4691    174.1912      3.0237   3.5284979475e+02   4.1107939338e+01    0.3198622     0.140589 -77.47  0.001397821    2.387    0.581
        17 -11.1343    113.8610      1.7844   3.5842917592e+02   5.6305010081e+01     0.294383    0.1752082  74.14 0.0007241678    1.518    0.341
        18 -10.0300    178.8053      1.3548   3.5206205658e+02   4.0179185581e+01    0.1663098    0.1048848  71.45 0.0001137014    1.593    0.372
        19  -9.5777     35.6926      1.6663   2.1167139127e+01   7.4856435268e+01    0.1334718   0.08861894  18.39 0.0007040877    1.669    0.401
        20 -10.4685    104.6978    112.9321   3.9983522342e+01   3.9048566447e+01    0.2235067    0.2033942 -61.76 0.0006834918    1.078    0.072
        21  -9.9890     96.0349    111.9293   4.2378420385e+01   4.0958200569e+01    0.2336544    0.2205715 -55.20 0.0005152301    1.054    0.051
        22 -10.0873     89.3921    111.2730   4.4335474545e+01   4.2358074965e+01    0.2191304    0.1474703 -66.02 0.0007989676    1.590    0.371
        23 -10.2994      1.3908    108.7305   7.7083593512e+01   5.3684695539e+01    0.2660124    0.1187752 -80.04 0.0002890868    1.934    0.483
        24 -10.3255      1.8550    104.8974   7.6586674504e+01   5.4697948285e+01    0.2544084    0.1589506 -66.91  0.001300766    1.416    0.294
        25 -10.4718     76.7372    106.2330   4.7377525740e+01   4.5883914370e+01    0.3852377    0.2269045 -42.27  0.001574217    1.865    0.464
        26 -10.5929     73.3132    104.1955   4.8095248905e+01   4.6989668246e+01    0.3091642    0.2295659 -34.02  0.001420861    1.564    0.361
        27  -9.3558     66.0506    103.0276   5.0473387804e+01   4.8480906643e+01    0.1800531    0.1694523 -72.25 0.0009534687    1.016    0.016
        28  -9.9800    231.3146    102.6312   1.2075061581e+01   1.6045681160e+01     0.131551   0.08272871 -55.75 0.0007036686    1.777    0.437
        29 -11.2778    246.8031    101.0368   9.9264333460e+00   1.3772000987e+01    0.1981324    0.1236446 -14.38  0.001085605    1.988    0.497
        30 -10.3078    103.3512     96.7706   3.6086840402e+01   4.3135158626e+01    0.3500974    0.2561351 -51.45  0.001615948    1.337    0.252
        31 -11.6651     64.8113     96.4211   4.9316247810e+01   5.0394915488e+01    0.3445711     0.276374  40.48  0.000592288    1.280    0.219
        32 -10.3646    236.7422     96.0048   1.0001608246e+01   1.6110286920e+01    0.1727793    0.0870043 -35.61 0.0008927081    1.570    0.363
        33 -11.6476     16.6808     93.3284   6.8969900834e+01   5.6928261366e+01    0.5616434    0.3292623  59.41  0.002585947    1.890    0.471
        34  -9.6865     89.9933     94.4209   3.9691046536e+01   4.6382547107e+01    0.2356324    0.1530961  40.59 0.0008029973    1.581    0.367
        35 -10.6997      2.2465     88.4675   7.4851895876e+01   5.9115452229e+01    0.2545728    0.2297466 -80.97 0.0008195573    1.037    0.036
        36 -11.2517    249.4488     85.2580   6.3639766978e+00   1.5536098563e+01    0.3209635   0.08782641 -35.80  0.001326622    2.671    0.626
        37 -10.5754     11.9749     85.9325   7.0026736855e+01   5.9256396549e+01    0.2077793    0.1859982 -74.06 0.0003436621    1.007    0.007
        38 -11.2184    238.6036     82.3999   6.8587215873e+00   1.7731325129e+01    0.2686311   0.06226359 -43.50 0.0009623001    3.429    0.708
        39  -9.4350      5.5236     80.4258   7.2332227394e+01   6.1109201179e+01    0.1356062    0.1209538 -77.51 0.0001132717    1.026    0.025
        40 -11.5771     54.1820     78.5196   4.8795228491e+01   5.6627550817e+01    0.3778678      0.30674  55.45 0.0006508329    1.336    0.252
        41 -10.3937     78.0400     77.9999   3.8952363658e+01   5.2606799191e+01    0.2224259    0.2183352 -84.70  0.001205715    1.017    0.017
        42  -9.8799    243.1955     79.7946   5.8277216472e+00   1.7313310944e+01     0.288364   0.05357492 -38.88  0.001018795    3.493    0.714
        43 -10.1660    135.0009     75.5187   2.1218993493e+01   4.0564824005e+01    0.2130575    0.1272496  32.00 0.0005862974    2.481    0.597
        44 -10.2500      2.3719     74.7322   7.3133701617e+01   6.2773542661e+01    0.2316895     0.154359  30.45  0.001064259    1.651    0.394
        45 -10.9503     64.0552     69.5916   4.1716009773e+01   5.7164854796e+01    0.2629251    0.2108037 -52.96 0.0003016618    1.215    0.177
        46 -10.2192      7.8298     68.8022   6.9356576580e+01   6.4057641843e+01    0.2022383    0.1679494 -48.24 0.0005169252    1.133    0.118
        47  -9.6354    192.1457     65.8730   8.3911636533e+00   2.9127351281e+01    0.2071444     0.156414 -54.92 0.0004399894    1.203    0.169
        48 -10.8545     16.7240     65.5810   6.3864456631e+01   6.4301127880e+01    0.2886126    0.2431296 -44.40   0.00120241    1.123    0.109
        49  -9.7920    204.4236     65.3051   6.7033657771e+00   2.6627457259e+01    0.1908587    0.1040358 -43.92 0.0009354338    1.536    0.349
        50 -10.8244     99.9844     62.8256   2.6232784193e+01   5.1216183103e+01    0.3606241    0.2304981 -50.43  0.001585754    1.601    0.375
        51 -10.5799      4.3998     63.6969   7.0352668179e+01   6.5565106165e+01    0.2552751    0.1928259 -57.74  0.001070603    1.157    0.136
        52 -10.7881      3.4233     58.9224   7.0057945760e+01   6.6838729681e+01    0.3260487    0.2303704 -46.41  0.001823056    1.291    0.225
        53 -10.2356    230.9141     60.8438   2.8356653232e+00   2.2066254123e+01    0.1846092    0.1608591 -25.63  0.001244274    1.266    0.210
        54 -11.6997    249.6401     57.8901   5.6674478308e-01   1.9116295853e+01    0.4728061    0.1197927 -41.22  0.002016919    2.627    0.619
        55  -9.8283    125.1225     59.8226   1.8425879012e+01   4.5805665234e+01     0.199204    0.1786114  26.44 0.0004263402    1.302    0.232
        56 -11.9133     67.5642     57.5139   3.5839270449e+01   5.9217838634e+01    0.4681153    0.4267242   0.39  0.001541907    1.187    0.157
        57 -10.1897     35.5656     59.6801   5.1940717997e+01   6.3875440733e+01     0.249998    0.1298514  28.98  0.001083683    2.012    0.503
        58 -10.5890     22.1840     57.9378   5.8837192100e+01   6.5771215163e+01    0.2014274     0.180607  77.67 0.0004783893    1.242    0.195
        59  -9.6294    114.1863     60.8513   2.1499883620e+01   4.8260039287e+01    0.2030658    0.1807104  23.32 0.0004417163    1.309    0.236
        60  -9.7960     28.6212     57.1859   5.4944890459e+01   6.5299967616e+01    0.2102654    0.1131988 -50.89 0.0009480921    1.676    0.403
        61  -9.8761     99.1179     55.6604   2.3846984540e+01   5.2786387484e+01    0.2080523    0.1858231  50.17 0.0003859649    1.126    0.112
        62  -9.4586     45.1793     56.6021   4.5850844232e+01   6.3280191275e+01    0.1922381    0.1381744  17.26  0.000563383    1.585    0.369
        63  -9.9186     18.3146     56.3358   6.0643544142e+01   6.6514927189e+01    0.1496238   0.08964999 -36.82 0.0004582164    1.691    0.409
        64  -9.4406    122.0105     49.0136   1.5361250489e+01   4.8400329149e+01    0.1788028    0.1628132 -50.68  0.000389164    1.084    0.078
        65 -10.6871     93.9206     48.6707   2.2711157497e+01   5.5269047651e+01    0.2557716    0.2152687 -31.08 0.0002906671    1.248    0.199
        66 -10.8523     88.8241     48.6593   2.4334532670e+01   5.6449745005e+01    0.5684732    0.2566327  46.18  0.002173243    2.233    0.552
        67 -10.3445     18.8335     48.1854   5.7897270351e+01   6.8460907678e+01    0.1924453    0.1429823 -29.24 0.0004656579    1.346    0.257
        68 -10.8442     39.2383     44.0979   4.4073792888e+01   6.6958259539e+01    0.3781687    0.2831226 -40.60   0.00202121    1.281    0.219
        69 -10.4825    249.2028     44.3557   3.5771899063e+02   2.0872321043e+01    0.2471526    0.1754721 -60.06   0.00137981    1.257    0.204
        70 -10.1449     78.1968     62.8897   3.3665164923e+01   5.5954852330e+01    0.2209853    0.2000865 -81.13 0.0003395803    1.194    0.162
        71 -10.8086    185.3223     41.6560   2.7423687160e+00   3.4101320856e+01    0.2910717    0.2214148  48.80 0.0008802507    1.601    0.375
        72 -10.0754     90.0079     39.0510   1.9919005983e+01   5.7819502569e+01    0.2094192     0.206552  30.54 0.0002904931    1.045    0.043
        73  -9.5651     96.0360     38.0206   1.7685167386e+01   5.6540917924e+01    0.1756482     0.160512  62.66 0.0004177783    1.062    0.059
        74 -10.2953     74.4769     37.4235   2.4485156686e+01   6.1643597346e+01    0.2940442    0.1423357 -36.28   0.00115533    2.133    0.531
        75  -9.8069     65.4994     38.4924   2.8554081361e+01   6.3374596688e+01    0.2522482    0.1367487  58.07  0.001032819    2.232    0.552
        76  -9.6695     27.4760     37.5191   4.8310965913e+01   6.9979162510e+01    0.1343881    0.1233557 -26.66 4.134386e-05    1.009    0.009
        77 -10.2874     40.2317     35.6595   3.9665490709e+01   6.8560784948e+01    0.3021128    0.1529056  45.72   0.00130665    2.215    0.548
        78 -10.6409    119.1004     34.8571   1.0745152956e+01   5.1271492041e+01    0.2271885    0.2177706  -0.39 0.0004343321    1.183    0.155
        79  -9.3605    174.3080     34.6879   2.0369366839e+00   3.7570908246e+01    0.1470314   0.08874832 -60.93  0.000702559    1.622    0.384
        80  -9.9963    153.3030     32.3219   3.9850576016e+00   4.2975143521e+01    0.2248791    0.2149752  39.38 0.0007743553    1.241    0.194
        81 -11.3086     17.7597     31.5992   5.2363996680e+01   7.2361879778e+01    0.3232795    0.2617632  42.78 0.0006707206    1.437    0.304
        82 -11.2266     58.3425     30.0295   2.7502096941e+01   6.6304257632e+01    0.4249581    0.2961615  -0.87  0.002008659    1.990    0.498
        83 -10.6756     60.5234     25.4309   2.4106779347e+01   6.6594224823e+01    0.3125999    0.1896944 -24.24  0.001210639    1.891    0.471
        84 -10.3682      3.7484     31.2187   6.2884331128e+01   7.3573439708e+01    0.2391194    0.1724764  40.86  0.001091313    1.637    0.389
        85 -10.4009     92.4809     31.0452   1.5670939348e+01   5.8449758529e+01    0.2449966     0.186032  44.86 0.0003413975    1.326    0.246
        86  -9.7039     65.0000     30.9469   2.5087613300e+01   6.4771700620e+01    0.2315201   0.07959345 -37.27 0.0007963274    2.973    0.664
        87 -11.6137     35.3635     29.3840   3.9384843558e+01   7.0549971377e+01    0.3990443     0.291187  34.25  0.001474879    1.380    0.276
        88 -10.8013    153.1338     27.8533   2.5656947523e+00   4.3578427433e+01    0.2194479    0.1947683 -70.68 0.0002928726    1.001    0.001
        89  -9.5175    103.8592     28.1927   1.1470070876e+01   5.6030093806e+01    0.1919151    0.1591977  39.54 0.0003485576    1.291    0.226
        90  -9.4250    175.3360     27.3247   3.5978769859e+02   3.8241752423e+01    0.2433257    0.1661402  30.71  0.001202017    2.204    0.546
        91  -9.8296    177.0350     24.4986   3.5879893496e+02   3.8175293452e+01    0.1864745    0.1571133 -70.45 0.0004862167    1.048    0.046
        92  -9.2077    160.6464     27.2701   1.4286505602e+00   4.1791971268e+01    0.1472341   0.09120887 -66.29 0.0004151618    1.633    0.388
        93 -11.1758     47.1935     26.5697   3.1095658470e+01   6.9050862358e+01    0.2935021    0.2293943  -6.23 9.745177e-05    1.435    0.303
        94  -9.8380     77.0280     26.4944   1.8333093857e+01   6.2777404933e+01    0.2110712    0.1342197  56.41 0.0005135965    1.517    0.341
        95 -10.4108    111.5153     25.0223   8.4450090365e+00   5.4502435528e+01    0.2011353    0.1413894 -28.79 0.0003703817    1.506    0.336
        96  -9.7031    129.1109     23.8811   4.7376715354e+00   5.0140974408e+01    0.1832145    0.1621399  40.66 0.0003433831    1.280    0.219
        97  -9.7349     38.2412     22.7781   3.3966203649e+01   7.1291780183e+01    0.1798877     0.145305  -1.82 0.0003761401    1.295    0.228
        98 -10.7360     19.2893     22.7999   4.6918288237e+01   7.4030261286e+01    0.2572108    0.1683232   9.66 0.0009726444    1.679    0.404
        99  -9.8151     98.4792     22.5221   1.0297556831e+01   5.8109123847e+01    0.1405891    0.1325086  73.49 3.634546e-05    1.001    0.001
       100  -9.5475      1.4075    181.4495   8.0939701828e+01   3.4931946147e+01    0.1276141    0.1011695  65.21 8.514067e-05    1.018    0.017
       101  -9.2825     48.5347     19.5001   2.6341411065e+01   6.9940210961e+01    0.1335543    0.1240857  14.53 7.459663e-05    1.005    0.005
       102  -9.9042     23.5127     16.5145   4.0025379461e+01   7.4679540408e+01    0.1744889    0.1218496 -53.98 -3.824772e-05    1.659    0.397
       103 -10.2478     19.8576     15.8472   4.2424947356e+01   7.5292571593e+01    0.2299995    0.1667918  19.21 0.0008972015    1.367    0.269
       104 -10.2056    109.6024     18.7779   6.2478092367e+00   5.5735447814e+01    0.2023695     0.120646 -41.21 0.0008882127    1.692    0.409
       105  -9.8894     85.4538     15.6658   1.0394756263e+01   6.2158319835e+01    0.3497527    0.1050786  58.58  0.001233924    2.826    0.646
       106 -10.7905    224.0045    172.7803   2.7162270609e+01   6.6338246425e+00    0.2127082    0.1348167 -42.63 0.0009006093    1.647    0.393
       107 -10.4765     21.4346    170.3085   7.4909097192e+01   3.6001457898e+01    0.2224179    0.1979638  42.30 0.0005919624    1.161    0.139
       108  -9.6390    183.6345     14.7422   3.5545112315e+02   3.7723474016e+01    0.1220107   0.09380519  48.66 0.0006971993    1.635    0.388
       109 -10.8583      8.0845    156.7527   7.7963419659e+01   4.0524472262e+01    0.4867968    0.1063975 -68.78  0.001640493    3.714    0.731
       110  -9.8030      3.1675    156.3598   7.9406961990e+01   4.0976252141e+01    0.1797526    0.1462094 -84.88 0.0004341079    1.159    0.137
       111  -9.9474    120.8541     12.6710   1.7855037042e+00   5.3502353043e+01    0.2217998    0.1535211  56.68 0.0006223622    1.415    0.293
       112  -9.8045     46.4849    154.5034   6.6027963952e+01   3.7459435827e+01     0.143622    0.1291659  71.37  3.78057e-05    1.003    0.003
       113  -9.9528     40.0026    147.7501   6.7281746492e+01   3.9960152152e+01    0.2008465    0.1751547  64.11 0.0004418413    1.057    0.054
       114 -10.7887     21.8468    141.4436   7.2535130307e+01   4.3423368371e+01    0.2523245     0.181618 -82.19 0.0005737201    1.268    0.211
       115  -9.9060     28.5233    138.0743   6.9978845570e+01   4.3717266594e+01    0.2028756    0.1840361  53.47 0.0004413051    1.107    0.096
       116 -10.2918     17.1593    138.1563   7.3803276324e+01   4.4693880518e+01    0.2036681    0.1419026  58.51 0.0005298465    1.341    0.255
       117  -9.5791     10.9937    134.2299   7.5564259717e+01   4.6214064706e+01    0.1679278    0.1133453  22.55 0.0008694965    1.613    0.380
       118 -10.8401     18.3442    132.5208   7.2899943468e+01   4.6111652984e+01    0.3908806     0.161888  43.49  0.001069507    2.265    0.559
       119  -9.8838     55.3291    128.7039   5.9508980908e+01   4.3198999355e+01    0.1587325    0.1059565  63.37 0.0006075648    1.634    0.388
       120 -11.3095    134.9054    124.6381   3.4647081634e+01   3.0378750649e+01     0.299508    0.2189292 -55.91 0.0008579177    1.409    0.290
       121  -9.5548     64.1722    122.4417   5.5319055719e+01   4.3638728575e+01    0.2060752     0.134841  46.74  0.000460592    1.542    0.352
       122 -11.1061    245.3784    120.1690   1.3999439146e+01   1.1277767519e+01    0.1807818   0.08697166 -41.33 0.0009501124    1.713    0.416
       123 -10.2687     14.6109    115.5565   7.2586390837e+01   5.1008922632e+01    0.5288633    0.1148839 -58.34  0.001669362    3.634    0.725
       124 -10.0513     20.8718    115.4540   7.0177110131e+01   5.0550338424e+01    0.3097245    0.1476214 -56.92  0.001316538    1.956    0.489
