#   1 NUMBER                 Running object number                                     
#   2 MAG_AUTO               Kron-like elliptical aperture magnitude                    [mag]
#   3 X_IMAGE                Object position along x                                    [pixel]
#   4 Y_IMAGE                Object position along y                                    [pixel]
#   5 X_WORLD                Barycenter position along world x axis                     [deg]
#   6 Y_WORLD                Barycenter position along world y axis                     [deg]
#   7 A_WORLD                Profile RMS along major axis (world units)                 [deg]
#   8 B_WORLD                Profile RMS along minor axis (world units)                 [deg]
#   9 THETA_WORLD            Position angle (CCW/world-x)                               [deg]
#  10 FWHM_WORLD             FWHM assuming a gaussian core                              [deg]
#  11 ELONGATION             A_IMAGE/B_IMAGE                                           
#  12 ELLIPTICITY            1 - B_IMAGE/A_IMAGE                                       
         1 -12.4752     74.9818     50.8992   8.4713853083e+01   5.7283281595e+01     1.437069    0.8911703 -56.00  0.006745519    2.086    0.521
         2 -11.7940     26.7901     56.1097   1.0489563559e+02   6.2169832050e+01     1.800038    0.5145447 -43.50  0.007175472    2.955    0.662
         3 -12.0646    124.9595     27.8353   6.1030640888e+01   5.0607062406e+01    0.7331382    0.5521621  33.33  0.002011917    1.309    0.236
         4 -11.8563    119.4584     57.9063   7.3353158269e+01   4.7350152432e+01     1.422276     1.226053 -87.52  0.007367118    1.473    0.321
         5 -12.6953    119.7413     37.9843   6.6106444167e+01   5.0463599169e+01    0.8290673    0.6486968  85.36  0.003120594    1.730    0.422
         6 -10.7343    139.1249     32.8713   5.9695287227e+01   4.6520413422e+01    0.5371062    0.5167826  -8.55   0.00200248    1.072    0.067
         7 -10.8783    155.6101     22.9683   5.3101347638e+01   4.3572776059e+01    0.9091346    0.7267249  24.89  0.004846239    1.383    0.277
         8 -11.9759    132.9857     14.7290   5.4424383226e+01   5.0159597225e+01     1.336597    0.5460885  65.16  0.005210011    2.445    0.591
         9 -11.1488    165.0131     17.7685   4.9866360525e+01   4.1734607387e+01    0.4969522    0.2959123  34.76  0.001725882    1.999    0.500
        10 -12.6345    163.4135     28.1432   5.3452613581e+01   4.0954024649e+01    0.7021822    0.3996301  41.57 0.0006905455    1.901    0.474
        11 -12.1017     60.8284     45.2443   8.7813633853e+01   6.0494819196e+01     1.160371     0.476425 -42.66  0.005026606    2.176    0.541
        12 -10.0523      4.0669     44.7463   1.1123998725e+02   6.6027894114e+01     1.435745    0.1474347 -52.61  0.005463537    3.508    0.715
        13 -10.5891     22.0161      4.7176   8.7308688946e+01   7.1841774503e+01      0.42322    0.1759242 -44.36 0.0009959907    2.486    0.598
        14 -11.6162     26.5129     27.9531   9.5622833161e+01   6.7667263802e+01    0.4691599    0.4087231   0.12  0.003130166    1.254    0.203
        15 -11.5970     14.1562     23.6280   9.9865405002e+01   6.9472969809e+01    0.4561903    0.4067413 -20.93  0.002168482    1.251    0.200
        16 -11.6377     19.8993     22.4972   9.6590938402e+01   6.9214288047e+01    0.6237103    0.2774804 -45.40  0.001906564    1.793    0.442
        17 -12.8593     17.7080     13.6065   9.3870113214e+01   7.0894523221e+01    0.6018956    0.4747567  -0.16 0.0007932485    1.248    0.198
        18 -10.9695    178.4786     21.3039   4.8970166969e+01   3.7864434144e+01    0.6686283    0.4022641  24.20  0.002854921    2.430    0.588
        19 -11.3846    182.7621     25.1805   4.9522018475e+01   3.6307581332e+01    0.6141911    0.3766611  46.51  0.002849696    1.716    0.417
        20 -12.0370    105.9872     20.2322   6.2763422000e+01   5.5891703612e+01     0.398857    0.2960042 -21.06  0.002187142    1.365    0.268
        21 -11.0478    198.7453     28.7311   4.8374100829e+01   3.1778499443e+01    0.6213408    0.4157649 -11.22  0.002701846    1.911    0.477
        22 -10.3195     87.2285      7.5447   6.2501571756e+01   6.1268489162e+01    0.5539873    0.3143452  54.47  0.002593064    1.758    0.431
        23 -11.1754     90.9740     20.7368   6.7217355797e+01   5.9020074901e+01    0.7102357    0.4016054 -19.40    0.0034418    1.835    0.455
        24 -11.3698     85.9523     14.3390   6.5944442850e+01   6.0794168388e+01      0.58417    0.3330933 -15.47  0.001967352    1.832    0.454
        25 -10.8406    214.5361     23.4734   4.5060700529e+01   2.8459715671e+01    0.4580346    0.3618251   4.47  0.002487195    1.689    0.408
        26 -10.2794     47.1980     19.0904   8.2431052809e+01   6.6738175057e+01    0.3488523    0.2430002 -22.85  0.001379385    1.223    0.182
        27 -12.4060     48.4392     13.0145   7.9001320684e+01   6.7428681871e+01    0.8043569    0.3281009  35.26  0.003832225    2.498    0.600
        28 -11.0893     32.5149     12.4982   8.5959822825e+01   6.9563330314e+01    0.2300912    0.2162169  55.32 0.0005618138    1.803    0.445
        29 -11.4505     35.5505     18.7028   8.7455411107e+01   6.8267664884e+01    0.5347236    0.2042678 -34.23  0.001945525    2.345    0.574
        30 -10.5214    146.5168     16.4877   5.2506407641e+01   4.6601119756e+01    0.5195063    0.3544796  51.52 -0.0003554439    1.342    0.255
        31  -9.9498    120.3068     19.1976   5.8821762243e+01   5.2734772230e+01     0.521282    0.1943938 -26.18  0.002000582    2.761    0.638
        32 -11.8315     68.2240     18.0766   7.3599286598e+01   6.3633020853e+01    0.4882378     0.414892  19.02  0.002408996    1.123    0.110
        33 -12.1307    238.8803     15.8155   4.0783765056e+01   2.3547129842e+01    0.8720831    0.4243428  70.01  0.002996518    2.005    0.501
        34 -11.5801    233.9155      7.0316   3.9132353055e+01   2.5673119203e+01    0.6798222    0.2690493  70.12  0.003023775    2.364    0.577
        35 -11.9344    246.8997      6.8303   3.8079981134e+01   2.2736415889e+01    0.5832744    0.4616693   0.06  0.002614631    1.813    0.448
        36 -10.9483    242.2404      3.5841   3.7692875266e+01   2.4132618116e+01    0.4906058    0.1529705  75.87  0.001936984    3.173    0.685
        37 -10.9029    218.8052      3.2613   3.9487701997e+01   2.9647803407e+01    0.3199012     0.294376 -61.79  0.001139398    1.122    0.109
        38 -11.0638    225.0953      2.3697   3.8739938868e+01   2.8233915452e+01    0.6279015     0.269995  88.29   0.00257995    2.568    0.611
        39  -9.7626    191.5127     16.7327   4.5904203245e+01   3.5024359788e+01    0.3112045    0.2575849   2.56  0.001732554    1.489    0.328
        40 -11.4273    192.4385      7.6934   4.3247354751e+01   3.5738428493e+01    0.5573331    0.3781094  13.44  0.001416349    2.095    0.523
        41 -10.0282    225.8740     15.4110   4.1856183487e+01   2.6643957023e+01    0.3737708    0.1947667 -35.85  0.001777621    1.793    0.442
        42 -11.6759     22.8574     10.8859   8.9953466155e+01   7.0842795217e+01    0.3970921    0.2259852  14.78  0.002078833    1.866    0.464
        43 -12.3011    104.5801     12.7932   6.0057817653e+01   5.7029513179e+01    0.5033838    0.4382192 -24.09  0.001895344    1.238    0.192
        44 -11.3345    137.9271     22.0519   5.6093978552e+01   4.8143380316e+01     1.034794    0.3084713  50.85  0.002757409    2.872    0.652
        45 -11.5211    211.9739      9.8143   4.1776543360e+01   3.0631859746e+01     0.429074    0.3069093   7.29 0.0005153983    2.020    0.505
        46 -10.0078     64.7243     10.5812   7.1337738782e+01   6.5174038838e+01    0.5541605    0.2188807  36.59  0.002447582    2.525    0.604
        47 -10.0235     62.9104      6.7955   7.0147887572e+01   6.5924194671e+01     0.311271    0.2013265   7.10  0.001390613    1.543    0.352
        48  -8.9479      4.2949     12.1092   1.0034394788e+02   7.2158110462e+01     0.209954    0.1507388 -33.84  0.001535762    1.033    0.032
        49  -9.8450    169.0575      9.6842   4.6731265983e+01   4.1526471032e+01    0.3711569    0.1704842  47.27  0.001548641    2.211    0.548
        50  -9.0186    163.2209      9.9654   4.7644881748e+01   4.2998731900e+01    0.1843882    0.1792687 -31.30 0.0006054516    1.126    0.112
        51  -9.1207    162.9758      6.0166   4.6421984647e+01   4.3437048359e+01    0.3011436    0.2109641  36.07  0.001204925    1.558    0.358
        52  -9.1824    153.0696      7.2476   4.8277374873e+01   4.5852788634e+01     0.317792    0.1500835  54.90  0.001395633    1.845    0.458
        53 -11.4320     40.6358      5.9752   7.8875581861e+01   6.9446783234e+01    0.4345402    0.2146378 -15.97   0.00144471    2.275    0.560
        54  -9.4009      1.2039      7.4652   1.0006325613e+02   7.3129474045e+01    0.1838235    0.0662575 -49.40 0.0006443187    2.162    0.537
        55 -10.2740    183.5497      5.0072   4.3494702149e+01   3.8262821941e+01    0.3450684    0.2489902 -39.53  0.001466214    1.429    0.300
        56  -9.1340     78.5061      7.4705   6.5122635895e+01   6.3008428117e+01    0.2165772      0.17078  33.56 0.0007097033    1.150    0.130
        57 -10.5649     76.5704      3.6420   6.3918864706e+01   6.3770563232e+01    0.3705018    0.2563922  12.63  0.001694329    1.366    0.268
        58 -10.0435     72.6811      2.6855   6.4709328003e+01   6.4603881955e+01    0.4666674    0.2174322  23.56  0.002026083    2.672    0.626
        59 -10.4266    175.9622      5.2623   4.4480152710e+01   4.0178726716e+01    0.4499345    0.2379162  83.69  0.001994284    2.006    0.501
        60 -10.8958    112.0756      2.7754   5.4155327704e+01   5.6278740484e+01    0.6917296    0.2747721  67.33  0.001769488    2.810    0.644
        61 -10.6579    105.3633      1.7830   5.5252814589e+01   5.7896059692e+01    0.4037051    0.2747115  82.76 0.0008268382    1.985    0.496
        62  -9.4338     50.4795      6.5242   7.4887030830e+01   6.7963974869e+01    0.2109357    0.1108794  40.78 0.0006276711    1.942    0.485
        63 -10.4671    142.2659      3.4767   4.8706992144e+01   4.8917679226e+01    0.3864709    0.2329054  54.78  0.001367047    1.450    0.310
        64 -11.6934    133.6722      2.7433   4.9905228912e+01   5.1114250936e+01     0.427574    0.2747795  58.94  0.001191914    1.365    0.267
        65  -9.9771    206.6294      2.7008   4.0445315290e+01   3.2677914696e+01    0.4559408    0.2090494 -87.31  0.001874357    2.557    0.609
        66  -9.1514    157.1929      2.7861   4.6197401716e+01   4.5204509290e+01    0.2465914    0.1816315  62.86  0.001350729    1.206    0.171
        67  -8.7803    161.0873      1.0000   4.5084806116e+01   4.4366670013e+01    0.3282215   0.07031365  69.45 0.0009640539    4.175    0.760
        68 -11.1244      2.9373      1.8292   9.6445051777e+01   7.3920434258e+01    0.3592105    0.1682515   7.15   0.00207286    2.471    0.595
        69  -9.9633     13.1764      1.7971   9.0565536378e+01   7.3113294157e+01    0.2377322    0.1364256  11.06  0.001476452    1.787    0.440
        70  -9.3988    122.3011      1.1929   5.1425438427e+01   5.4004416257e+01    0.4111039   0.07599922  61.77  0.001257538    4.049    0.753
        71 -10.0773     82.1038      1.3322   6.1130274260e+01   6.2902144141e+01    0.1763285    0.1073839  50.55 0.0003754199    1.539    0.350
        72  -8.5659    151.9685      1.0000   4.6361598567e+01   4.6684342841e+01    0.2243895   0.07029327  68.42 0.0006930899    2.856    0.650
        73  -9.7560    214.6284    150.9615   7.7500221998e+01   7.9685214020e+00    0.2734995    0.2155983  51.40 0.0009070314    1.404    0.288
        74  -9.9147    239.7887    146.5876   7.2011041599e+01   3.7687318591e+00    0.2485366    0.1810533 -27.61 0.0007108984    1.256    0.204
        75 -10.6528    249.6589    142.2706   6.9417577206e+01   2.6013341491e+00    0.6104866     0.223977 -32.09  0.002363658    2.544    0.607
        76 -10.7968     32.7963    144.4733   1.1903782017e+02   4.1357276684e+01    0.2798236    0.2770297  11.00  0.001327188    1.349    0.259
        77  -9.9568    133.0999    140.2307   9.2819807006e+01   2.7169899834e+01      0.33237    0.3028441  43.24  0.001206878    1.107    0.096
        78 -11.8470     23.9003    136.3650   1.2031474537e+02   4.4067557673e+01    0.6116617    0.3773318  62.79  0.002658602    1.680    0.405
        79 -12.6858     29.8973    133.0486   1.1838907958e+02   4.4302883659e+01    0.4748857    0.2959577 -88.23 0.0003946547    1.487    0.328
        80 -10.2238     80.0783    136.7119   1.0571960374e+02   3.7377983987e+01    0.4275923    0.3220433 -14.36  0.002121092    2.034    0.508
        81 -10.2237     47.1365    135.9021   1.1428600605e+02   4.1870090188e+01    0.4293553     0.163633 -66.50  0.001383586    2.246    0.555
        82 -10.5134     39.6562    137.5788   1.1645736793e+02   4.2279334091e+01    0.2576082    0.2255292 -35.35 0.0008340881    1.446    0.308
        83  -9.2388    192.4604    136.4937   7.8534388396e+01   1.5245000908e+01    0.1499934    0.1442676  -5.22 0.0001117541    1.009    0.009
        84  -9.3547     86.6871    135.8926   1.0381767031e+02   3.6558957318e+01    0.2374327    0.1688474 -43.87  0.001189089    1.521    0.343
        85  -9.0862    216.6163    135.2192   7.3533787610e+01   1.0296794148e+01     0.203158    0.1329211 -24.41 0.0005241485    1.588    0.370
        86 -10.8910     93.1392    129.4350   1.0081366720e+02   3.7047046772e+01    0.4170103    0.2962487 -76.41  0.002024591    1.551    0.355
        87  -9.7808    107.7861    145.9679   1.0030899854e+02   3.0662673701e+01    0.2297664    0.2036436  57.66 0.0003529344    1.114    0.103
        88  -9.6736     62.4151    131.7314   1.0956917988e+02   4.1027824981e+01    0.3611705    0.1613012 -51.68  0.001557439    2.125    0.529
        89  -9.5680    103.7394    130.8116   9.8267422850e+01   3.4903570067e+01    0.2375045     0.197614  29.74 0.0003957003    1.355    0.262
        90 -10.6899     81.2126    126.1997   1.0341108266e+02   3.9711971310e+01    0.5789756    0.3472165 -17.45  0.002014466    4.067    0.754
        91  -9.0669    223.9657    126.9449   7.0254824969e+01   1.0187284501e+01    0.2237267    0.1721414 -61.82 0.0005706106    1.652    0.395
        92  -9.6593     22.9477    126.9333   1.1944375522e+02   4.6348131078e+01    0.1812087    0.1440049 -84.45 0.0002895048    1.055    0.052
        93  -9.6789      2.4440    125.9801   1.2463192392e+02   4.8076945148e+01    0.2893362    0.1499013  88.09   0.00128292    1.738    0.425
        94 -10.8863     56.0331    123.6235   1.0993441903e+02   4.3766086580e+01    0.4760961    0.3864166 -10.21  0.001840156    1.682    0.406
        95 -10.9656     46.2879    120.4405   1.1213164805e+02   4.5646448812e+01    0.6918003    0.3847656  74.56  0.002418426    2.562    0.610
        96 -10.2022     18.7072    124.5034   1.2026817916e+02   4.7259978568e+01    0.2842062    0.1572065 -70.36   0.00103503    1.420    0.296
        97  -9.7907    239.0000    124.9923   6.7236566144e+01   7.4162978083e+00    0.2407402   0.07441667 -34.99 0.0008033243    2.949    0.661
        98 -11.8257    104.2894    122.1028   9.6197498511e+01   3.6840364616e+01    0.4577945    0.4427846  18.53 0.0009958025    1.141    0.123
        99  -9.3782     67.1274    124.2361   1.0694367699e+02   4.2201421298e+01    0.2941038    0.2039446   2.25  0.001401713    2.322    0.569
       100 -10.7229     32.9085    119.1843   1.1569255817e+02   4.7293150657e+01    0.3643321    0.2692946 -81.88  0.001558084    1.193    0.162
       101 -10.7210      4.5257    120.4155   1.2354205795e+02   4.9213920461e+01     0.839281     0.111028 -54.86  0.002755769    5.153    0.806
       102 -11.4873      2.3604    112.0547   1.2322551857e+02   5.1258929990e+01    0.3766631    0.2667525  80.37  0.001017519    1.345    0.257
       103 -11.6207      3.7288    105.7224   1.2211769014e+02   5.2626845528e+01    0.4416321    0.3349239 -79.00  0.001884691    1.059    0.056
       104  -9.1502    221.4678    120.4710   6.9145197397e+01   1.1836466807e+01     0.146911    0.1368298 -26.02 0.0004257007    1.028    0.028
       105  -9.2506    148.2090    119.9869   8.4338445533e+01   2.8421706972e+01    0.2538985    0.1810052 -15.43 0.0006412652    1.942    0.485
       106  -9.0771     71.9835    120.2201   1.0480179661e+02   4.2493250404e+01    0.2167351    0.1575533 -20.24 0.0008564295    1.964    0.491
       107  -9.4864    185.2362    119.0150   7.5745912098e+01   2.0217625353e+01    0.2148046    0.1279572 -38.27 0.0008887548    1.651    0.394
       108  -8.4714     81.3386    117.3045   1.0153360685e+02   4.1811308058e+01    0.1435684    0.1091141 -25.39 0.0007039967    1.674    0.403
       109 -10.3533    113.2776    115.9783   9.2307210981e+01   3.6579914941e+01    0.2888241    0.2227103  41.04 0.0002463624    1.352    0.260
       110 -10.7292    107.6040    111.5139   9.2761331049e+01   3.8682648032e+01    0.6730625    0.3962385 -73.88   0.00242196    2.803    0.643
       111 -11.0150    101.9609    109.4452   9.3828836623e+01   4.0200643276e+01    0.6426979    0.5064843 -14.90  0.003135587    1.632    0.387
       112  -8.8795     58.5029    116.4678   1.0793856134e+02   4.5176513485e+01    0.1368617    0.1189419 -72.77 -1.876449e-05    1.030    0.029
       113  -9.3190     67.6548    114.3226   1.0485807489e+02   4.4501249151e+01    0.3914039    0.2552544  84.08   0.00180561    2.098    0.523
       114  -9.6640     67.2435    110.5791   1.0420237936e+02   4.5448643118e+01    0.3293329    0.1676256  36.37  0.001481818    2.160    0.537
       115  -9.4777     36.5804    114.3066   1.1389968316e+02   4.8101478626e+01    0.2983854    0.1607873  77.49  0.001313972    2.678    0.627
       116 -10.5973     42.2638     94.0526   1.0846374292e+02   5.2313351925e+01    0.5003976     0.339208 -87.56   0.00262267    1.761    0.432
       117 -11.6712      9.7252     97.4359   1.1927562152e+02   5.4166717000e+01     1.106411     0.539992 -84.22  0.005592517    2.060    0.515
       118 -11.9551      7.1359     88.9218   1.1882861224e+02   5.6265052611e+01    0.6138144    0.4734514  -2.55  0.002378225    1.699    0.411
       119 -10.8872     17.2248    100.9047   1.1751789068e+02   5.2867152610e+01     0.385462    0.2867408  21.46 0.0005436986    1.712    0.416
       120 -12.4843     42.0679     85.3013   1.0663115727e+02   5.4354373896e+01     1.659367    0.5227647  23.91   0.00606733    4.299    0.767
       121 -11.6538     35.3076     92.8837   1.1047120147e+02   5.3260498889e+01     1.510443    0.6569694 -70.92  0.006532765    2.356    0.576
       122 -11.1073     28.5076    113.0430   1.1602449335e+02   4.9138306289e+01    0.3179386    0.2791474  -6.06  0.001180546    1.481    0.325
       123 -12.0813     22.1746     95.1165   1.1507045235e+02   5.3845142390e+01    0.6441956    0.4864753 -12.83  0.004068139    1.709    0.415
       124 -12.2335     18.2307     90.2383   1.1549474313e+02   5.5258111407e+01    0.4235735    0.2387072 -54.62 0.0004000188    1.426    0.299
       125 -11.3221     22.3856    114.0523   1.1791245654e+02   4.9410860798e+01    0.4107294    0.2744877   0.20  0.002345521    2.224    0.550
       126 -12.5793     25.0835    107.8675   1.1623521817e+02   5.0642965370e+01    0.8522676     0.554443 -36.71  0.004252283    1.792    0.442
       127 -12.1039     18.7227    106.1637   1.1784785847e+02   5.1536149816e+01    0.2821972    0.2099772 -50.61 0.0002582805    1.300    0.231
       128  -9.1828    127.0033    113.5160   8.8031023499e+01   3.4388382659e+01    0.2342898    0.1532978  43.50   0.00102394    1.567    0.362
       129  -9.7751     48.9284    112.1675   1.0993432701e+02   4.7329126568e+01    0.2313392     0.211864  55.69  0.001101021    1.227    0.185
       130 -11.1726    170.9885    110.1502   7.6504402248e+01   2.5268373763e+01    0.6520939    0.4721339  24.82  0.002642151    1.693    0.409
       131 -11.3953     79.7571    108.0928   9.9942956622e+01   4.4233542040e+01    0.6417707    0.4497119  37.55  0.002374229    1.562    0.360
       132 -10.2664     90.7801    104.1229   9.5731718975e+01   4.3389371278e+01    0.4459424    0.3142616  10.41  0.002031204    2.053    0.513
       133 -10.7747     85.9829    103.9717   9.7114433605e+01   4.4217821935e+01    0.5529049    0.3216513 -28.36  0.002002671    2.559    0.609
       134 -10.1534    120.9647    108.9321   8.8448589572e+01   3.6652523341e+01    0.4596411    0.3299268  -3.44  0.001922976    2.175    0.540
       135  -9.5254     58.5112    108.2475   1.0632614176e+02   4.7135651328e+01    0.2492932      0.12349 -65.24 0.0005938482    1.907    0.476
       136 -10.4273    157.5268    106.3258   7.8538062780e+01   2.9182728006e+01    0.4212432    0.2942677 -16.98  0.001328125    1.882    0.469
       137 -10.3603    143.3014    105.9917   8.1878282752e+01   3.2502218166e+01    0.3432226    0.2761571  60.85  0.001450567    1.346    0.257
       138 -11.9399    145.4086    100.6350   7.9884493067e+01   3.3150891444e+01    0.6080189    0.5642522 -15.66  0.002392509    1.125    0.111
       139  -9.3043     45.7632    105.8168   1.0969971512e+02   4.9183235570e+01     0.188292    0.1544811 -53.35 0.0005890512    1.125    0.111
       140  -9.9953     57.5072    102.5120   1.0543687102e+02   4.8617636958e+01    0.3904775    0.2161154 -56.22  0.001353102    1.544    0.352
       141  -9.8664     57.2683     97.9716   1.0452215639e+02   4.9714223164e+01    0.4878408    0.2002811  30.72  0.002023172    2.829    0.646
       142 -10.0153     81.3101     97.9804   9.7033204890e+01   4.6350995316e+01    0.2224337    0.1955367  14.54 0.0005089126    1.300    0.231
       143  -9.7209     77.1682     97.0813   9.8082152581e+01   4.7196891797e+01    0.2954808    0.2400072 -12.16 0.0008709959    1.495    0.331
       144 -11.0694     89.7456     89.5832   9.2207421190e+01   4.6870719205e+01    0.7829422    0.3768424 -36.30   0.00298294    2.423    0.587
       145 -10.6318     64.7187     99.3695   1.0250250012e+02   4.8434299941e+01    0.4811658     0.319586  -0.31  0.002126243    2.367    0.577
       146 -10.6863     68.4564     95.3801   1.0038555537e+02   4.8854948360e+01    0.4264312    0.3106192  33.32  0.001741207    1.544    0.352
       147 -10.9456     82.2651     93.0611   9.5466781961e+01   4.7325981301e+01    0.5422624    0.3776158  57.12  0.002032023    1.778    0.437
       148 -10.4149     76.6776     92.9201   9.7176243131e+01   4.8227148868e+01    0.4259693    0.3003069 -22.13  0.001842334    1.797    0.444
       149  -9.5668     82.4566    102.3202   9.7764931277e+01   4.5165732405e+01    0.3260823    0.1703508 -35.64  0.001285023    2.412    0.585
       150  -9.5613    121.0588    101.3463   8.6396333386e+01   3.8314081060e+01    0.2735702     0.211861 -33.29  0.001098043    1.344    0.256
       151 -10.9214     51.8381     97.2253   1.0607541920e+02   5.0534279778e+01    0.9652713    0.2993378 -61.94  0.003351473    3.018    0.669
       152  -9.9376    210.9480     97.6371   6.5282201548e+01   1.8185691477e+01    0.4445482     0.292094  30.17  0.001930286    1.930    0.482
       153 -10.3116    117.5816     93.0981   8.5041775940e+01   4.0825684956e+01    0.4740868    0.2943552  32.29  0.001221185    1.879    0.468
       154 -10.5507    120.6127     89.2414   8.3082410764e+01   4.1014357831e+01    0.4207984    0.3549137  36.62  0.002070637    1.232    0.189
       155 -10.8364    120.8680     85.3259   8.1847005523e+01   4.1778343678e+01    0.4894347     0.314045  58.01  0.002094942    1.843    0.457
       156 -10.4495    125.9836     93.5106   8.2864163336e+01   3.8966562235e+01    0.4327135    0.3606057 -51.49  0.001296564    1.203    0.169
       157 -10.2246    122.4821     93.5320   8.3817510686e+01   3.9708980787e+01    0.2968675    0.2765824   0.02 0.0007609706    1.137    0.121
       158  -9.4755    160.7300     93.8420   7.4332033900e+01   3.0936117963e+01    0.3887924    0.2487218  82.67  0.001385456    2.785    0.641
       159 -10.6062    152.3889     91.5953   7.5627403673e+01   3.3366737419e+01    0.5575905    0.4312878  62.09   0.00258385    1.409    0.290
       160  -9.3444    137.7486     93.4402   7.9764239060e+01   3.6384386148e+01    0.3781704    0.2374032  18.38  0.001228099    2.667    0.625
       161 -12.3619    101.9658     90.1614   8.8680929668e+01   4.4545990669e+01    0.6826641    0.5826963   7.84 0.0005940957    1.343    0.255
       162 -10.0346    104.8633     76.4062   8.3687777799e+01   4.6904234479e+01    0.4855829     0.421451 -30.43  0.002592472    1.108    0.098
       163 -11.0955    113.8565     83.8389   8.3362558492e+01   4.3556173150e+01    0.5695099     0.314429 -39.84  0.001739861    1.772    0.436
       164  -9.8789     66.9548     88.4651   9.9135407511e+01   5.0651065115e+01    0.3251858    0.2033129 -32.67 0.0009794132    1.810    0.447
       165 -10.8449     67.3037     81.8053   9.7251008402e+01   5.2102159787e+01    0.7179298    0.3961079  19.19  0.003098051    2.571    0.611
       166 -10.7772     46.8765     74.3981   1.0229666666e+02   5.6300325451e+01    0.3114153    0.1769494 -54.01  0.001592311    1.485    0.326
       167 -13.1418     52.5487     73.5724   1.0006102810e+02   5.5832451729e+01    0.5339565    0.2842947 -57.32  0.001140248    1.727    0.421
       168 -11.4349     78.6472     81.6296   9.3465830381e+01   5.0453822345e+01    0.9413936    0.5620308 -65.45  0.004076615    2.159    0.537
       169 -11.0888     72.5443     78.6934   9.4628490123e+01   5.2031468159e+01    0.5476744    0.3462328 -44.74  0.001724914    1.418    0.295
       170  -9.6184    199.9720     87.9337   6.4673435232e+01   2.2491118367e+01     0.229748    0.2228966 -51.74 0.0004317079    1.020    0.020
       171 -10.3725    183.8067     86.0939   6.7224744805e+01   2.6770372241e+01    0.6328501    0.3311079 -48.10  0.002428768    2.040    0.510
       172 -10.4848    165.6004     83.3515   7.0216730750e+01   3.1761743428e+01    0.4518349    0.3659319 -58.15  0.001406719    1.337    0.252
       173 -11.1668    142.9853     84.0654   7.5683380470e+01   3.7070440328e+01    0.4098073    0.3396113  39.33 0.0007424097    1.237    0.191
       174 -10.4470    127.4458     82.8546   7.9311769868e+01   4.0854890823e+01    0.4382171    0.2879937 -48.21  0.001738631    1.549    0.355
       175 -10.3627    127.0336     77.2941   7.7701018970e+01   4.2053851635e+01    0.4281103    0.3036776 -59.51 0.0009408445    1.696    0.410
       176  -9.8040    124.0229     73.0000   7.7147506202e+01   4.3558678060e+01     0.336441     0.225579  55.24  0.001410663    1.625    0.385
       177 -10.4528    119.9784     68.9962   7.6952581751e+01   4.5214851817e+01    0.3070298    0.2638625 -59.27 0.0007973948    1.303    0.233
       178 -11.3602    123.8668     68.0949   7.5595510680e+01   4.4523870844e+01     0.428113    0.4027652   4.13  0.001097645    1.057    0.054
       179 -10.8593    109.2622     80.6493   8.3712355937e+01   4.5154198027e+01    0.4077552    0.3596136 -16.88  0.001204287    1.170    0.145
       180 -10.5404    232.1814     76.6227   5.6521283450e+01   1.6758508397e+01    0.6613097    0.2718851 -47.10  0.002472218    2.483    0.597
       181  -9.2122     19.9873     71.4904   1.1128092037e+02   5.9369524141e+01    0.1555148    0.1199793  -1.04 0.0007377973    1.575    0.365
       182  -9.3356      8.5845     76.5533   1.1631425803e+02   5.8968905769e+01    0.2985399   0.09608592 -51.20 0.0007798952    2.292    0.564
       183 -11.6790     14.1229     74.7541   1.1404796997e+02   5.9038056720e+01    0.4845241    0.3103559 -64.22  0.001679078    1.238    0.192
       184 -10.2409     14.1559     67.3702   1.1252628754e+02   6.0667555181e+01    0.3443494    0.2440047   7.12  0.002222169    1.755    0.430
       185 -10.0894    142.9672    249.3364   1.0832193698e+02   4.7476286166e+00    0.1786634    0.1254372  43.79  0.001169914    1.112    0.101
       186 -10.2155     93.9593     76.5621   8.7063239851e+01   4.8940473103e+01    0.5713812     0.359913  29.89  0.001922772    1.823    0.452
       187 -10.2260     98.9650     61.7797   8.0661032728e+01   5.0941279152e+01     0.491829     0.316423 -12.37  0.001971251    2.158    0.537
       188 -11.6954     85.5943     73.6848   8.8827353590e+01   5.1017222766e+01    0.6410742    0.5418556  39.39  0.002843367    1.284    0.221
       189 -10.8637     79.6323     67.6680   8.8882412301e+01   5.3258410289e+01    0.6510783    0.4796294  35.40  0.003449298    1.462    0.316
       190 -10.8525     91.7268     57.7204   8.1526686493e+01   5.3084274000e+01    0.3350019    0.2761774  41.69  0.001034186    1.294    0.227
       191 -10.9923     87.5828     57.2328   8.2701448175e+01   5.3936158430e+01     0.637194    0.2515136 -37.78  0.002412247    2.464    0.594
       192 -11.7854      1.9408     71.3755   1.1771406282e+02   6.0463746400e+01    0.6530001    0.1451321 -65.89  0.002629641    3.005    0.667
       193 -12.2739      5.3796     62.1255   1.1470561287e+02   6.2309681872e+01    0.6689202    0.3564739 -36.68  0.002196313    1.792    0.442
       194 -10.1611     10.4832     62.5613   1.1286379248e+02   6.1936042648e+01    0.2039395    0.1797518 -23.95 0.0006267341    1.268    0.211
       195  -9.4909    139.0217     77.4574   7.4649652239e+01   3.9280357150e+01    0.2321999    0.1529042  49.45 0.0003167482    1.534    0.348
       196  -9.7785    192.5611     65.7135   5.9820519385e+01   2.8073282687e+01    0.2916305    0.2504334 -74.42 0.0008339222    1.237    0.192
       197 -12.0449    186.6805     70.4528   6.2225910946e+01   2.8776803698e+01    0.9587834    0.6563067 -40.03  0.003083452    1.423    0.297
       198  -9.4727    241.9482     75.2953   5.4846473244e+01   1.4771433961e+01     0.186595    0.1803787 -56.57 0.0001643692    1.082    0.076
       199  -9.2248    113.4643     75.1612   8.0780455256e+01   4.5409164922e+01    0.3934335    0.1710821  36.46  0.001365626    2.782    0.640
       200  -9.7402     65.8250     74.4224   9.5664550323e+01   5.3930098093e+01    0.3115934      0.21176  -6.99  0.001213047    2.022    0.505
       201  -9.9747    184.2122     61.7796   6.0155454855e+01   3.0819290130e+01    0.2909478    0.2439448 -24.16 0.0008041589    1.252    0.201
       202 -11.6217     40.7621     70.7261   1.0353056702e+02   5.7754305417e+01    0.4961059    0.2696997 -52.96  0.002159189    1.506    0.336
       203 -11.3101     32.4426     72.0105   1.0688119416e+02   5.8261296377e+01    0.5201333    0.2697145  27.17   0.00255536    2.274    0.560
       204  -9.6351     24.6470     73.1627   1.0996700338e+02   5.8652741118e+01     0.341442    0.1293682 -65.10  0.001491069    2.350    0.575
       205  -9.2007    151.2151     73.6171   7.0517686303e+01   3.7083668518e+01    0.2300793    0.1404668  42.43 0.0009494419    1.706    0.414
       206  -9.8473    162.2249     70.8114   6.7196589011e+01   3.4868371122e+01    0.3192822    0.2672467 -74.72  0.001073971    1.380    0.275
       207 -10.5683    171.5827     66.7488   6.4025212608e+01   3.3213438738e+01    0.6261734    0.3782396 -43.84  0.002664427    1.669    0.401
       208  -9.2671    115.2166     69.3864   7.8412499266e+01   4.6169722835e+01    0.2073298     0.144569  57.23 0.0006451395    1.641    0.391
       209 -11.4742    219.8914     66.4205   5.5672629069e+01   2.1224056951e+01    0.6339546    0.3857052  62.58  0.002099982    1.728    0.421
       210 -10.7401     21.3409     65.5831   1.0944404337e+02   6.0568817090e+01    0.3049993    0.2301124 -89.55 0.0009467526    1.642    0.391
       211  -9.9352     25.9742     65.3347   1.0763813195e+02   6.0268575190e+01    0.2149413    0.1439702 -54.72 0.0003857899    1.193    0.162
       212 -11.0729     91.4753     62.5420   8.3281759669e+01   5.2216659000e+01     0.460048    0.4171111  50.45  0.001824995    1.257    0.205
       213 -10.8232     59.5079     64.0019   9.4747564613e+01   5.7002028074e+01    0.5398887    0.2624004 -41.98  0.002466602    1.833    0.455
       214 -10.0680     57.3107     61.2878   9.4694066031e+01   5.7851853998e+01    0.2383621    0.1903911 -32.81 0.0005314811    1.105    0.095
       215 -11.0177     58.1124     77.8559   9.9288758148e+01   5.4205136854e+01    0.5621469    0.2950949 -64.49 0.0004334812    2.201    0.546
       216  -9.6655    106.1597     64.4625   7.9397517436e+01   4.8998067656e+01    0.3431205    0.2432007  22.82  0.001612202    1.651    0.394
       217 -11.3836    234.1042     61.1954   5.2385218489e+01   1.8669775773e+01    0.6215506    0.4680052  83.77  0.003290718    1.468    0.319
       218  -9.8358    199.4592     63.5867   5.8059544614e+01   2.6679224063e+01    0.4851472    0.2964586  84.24  0.001964253    2.249    0.555
       219 -10.4208    159.1444     62.0313   6.5134337085e+01   3.7142890556e+01    0.5207065    0.2837759  40.70  0.002046607    2.040    0.510
       220 -10.2365     22.0400     36.8078   1.0093836037e+02   6.6426074655e+01     1.205236    0.3243847  37.32  0.004477467    5.410    0.815
       221 -10.4709     53.2576     49.3459   9.2228246233e+01   6.0753215109e+01    0.6025282    0.3941225  65.38  0.002645314    3.433    0.709
       222 -11.7014     21.3122     46.6821   1.0442143474e+02   6.4543172457e+01    0.5496118    0.3306058 -33.10  0.001111369    1.497    0.332
       223 -11.4590     33.1746     58.6693   1.0309636289e+02   6.1075817094e+01    0.4173952    0.2450761 -20.90 0.0002490926    2.060    0.514
       224  -9.3701    213.4957    248.5017   9.5652779407e+01  -6.1148947918e+00     0.118153   0.08817845  23.03 -0.000188596    1.046    0.044
       225 -11.1995     19.8464     55.3621   1.0747010509e+02   6.2863483377e+01    0.3574791    0.2978582  13.56  0.001182422    1.437    0.304
       226 -11.4820     40.6482     56.7700   9.9611640826e+01   6.0737609904e+01    0.6111274    0.4186577 -82.19  0.002222116    2.415    0.586
       227 -11.4921     46.3900     49.0896   9.4846545910e+01   6.1645377999e+01    0.4976165    0.3381725  -6.41  0.001687724    1.709    0.415
       228 -12.5615     42.2802     45.1712   9.5147592528e+01   6.2873760408e+01    0.5666107    0.3757767  14.01  0.001110559    1.707    0.414
       229 -11.4014     50.9374     61.2223   9.7043768303e+01   5.8662326155e+01    0.3885262    0.3183339 -50.88 0.0008302465    1.166    0.142
       230 -11.4277     46.1076     58.3443   9.7983092444e+01   5.9819703499e+01    0.4913864     0.291782 -45.91  0.001241798    1.407    0.289
       231  -9.4785    175.1702    246.6894   1.0218262093e+02   3.7119576091e-02     0.197037    0.1273853  48.83   0.00100649    1.440    0.305
       232 -11.1636    127.6602    242.1747   1.1028223046e+02   8.2322450989e+00    0.3777722    0.2117453 -72.53  0.002021659    2.623    0.619
       233 -11.2963    113.3069     49.6384   7.2122275779e+01   5.0112815728e+01    0.7016156    0.3956754  32.29  0.002680685    2.076    0.518
       234  -9.3866    199.0307    244.5235   9.7609869194e+01  -3.4302617312e+00     0.188815   0.09429868  39.74  0.001035758    1.612    0.379
       235 -12.3706    117.9218     43.7053   6.8698059230e+01   5.0028805219e+01      1.21737     0.563571  64.09  0.004213378    3.250    0.692
       236 -11.3207    114.1730     38.3769   6.7714628843e+01   5.1672279409e+01    0.4560267    0.2245494 -27.79  0.001133778    2.113    0.527
       237  -9.4885    147.7253     60.7542   6.7242946543e+01   4.0199596772e+01     0.489468    0.1415639  58.62    0.0013197    4.233    0.764
       238  -9.0521    163.5344    243.4970   1.0386995359e+02   2.3332258021e+00    0.1211362   0.09615931  41.42 0.0001294976    1.036    0.035
       239 -10.3257    144.3475     25.3265   5.5980100105e+01   4.6157806113e+01    0.5894241    0.2737197  68.39  0.002291303    2.369    0.578
       240 -10.9248    135.9072     54.4675   6.7936057717e+01   4.4119283576e+01    0.9865419    0.4588367 -40.13  0.003804239    2.168    0.539
       241 -11.6662    145.6453     47.3902   6.3288556330e+01   4.2852602555e+01     1.099287    0.4806966 -25.18  0.003923728    2.692    0.629
       242 -10.6352    140.0233     43.3246   6.3151003381e+01   4.4848423386e+01    0.6730318    0.4097195  18.40  0.001911593    2.456    0.593
       243  -9.6349     68.0505    240.4721   1.2083426679e+02   1.7167277199e+01    0.1686445   0.09078017  43.81 0.0008238507    1.580    0.367
       244 -11.1186    148.9655    237.8948   1.0583133934e+02   5.5087533578e+00    0.4690578    0.2015921  41.95  0.002316854    1.869    0.465
       245 -10.7855    198.0292    232.9053   9.6059513080e+01  -1.7694960471e+00    0.2968007    0.2594226 -72.74  0.001986541    1.780    0.438
       246  -9.8815    247.4770    231.5124   8.7168877323e+01  -9.1574823367e+00    0.1689038    0.1028064 -37.88 0.0006251126    2.085    0.520
       247 -11.2109    157.5663     55.1907   6.3296272719e+01   3.8653526682e+01    0.5782634    0.4719616 -83.20  0.002844972    1.447    0.309
       248 -10.8404    155.4780     49.8115   6.1993773664e+01   4.0017703024e+01    0.4504786    0.3300881 -15.05  0.000737624    1.559    0.359
       249 -10.5546    105.2744     58.0019   7.7431678838e+01   5.0374395365e+01    0.3805486    0.2605023  41.12  0.001841187    1.485    0.326
       250 -10.1858    188.0237     55.7447   5.7726225709e+01   3.0789999180e+01    0.2591537      0.25219  25.48 0.0005088408    1.099    0.090
       251 -10.0885     67.0381     54.9372   8.9005467969e+01   5.7762730629e+01    0.2939739    0.1815006 -50.32 0.0007631327    1.634    0.388
       252  -9.2523      2.0280     56.4473   1.1480793809e+02   6.3689653325e+01    0.1405589    0.1121194   1.37  0.000400721    1.542    0.352
       253 -10.0214    248.6487     52.3679   4.8488632371e+01   1.6651198600e+01    0.2904422     0.194817 -51.76 0.0008162006    1.360    0.265
       254 -10.1013    244.8623     51.1331   4.8615601229e+01   1.7666477281e+01    0.3008807    0.2145073 -81.99 0.0008360409    1.546    0.353
       255  -9.6959    237.4230     54.2766   5.0248916807e+01   1.8911045027e+01     0.300389    0.2270798 -83.61 0.0007821172    1.431    0.301
       256 -10.8495    240.2795     50.5039   4.8984671366e+01   1.8790768373e+01    0.4474282    0.3260463 -40.77  0.001552859    1.236    0.191
       257  -8.4953    219.6767     57.2825   5.3306273536e+01   2.2659151091e+01    0.1493225    0.1038746 -66.55 0.0003236795    1.594    0.373
       258  -9.7647     59.6397     24.0237   7.9563599657e+01   6.4199511506e+01     0.289528    0.1624701 -31.35 0.0004656699    1.621    0.383
       259  -9.4454     60.5872     20.2006   7.7459516250e+01   6.4604483202e+01    0.2731356    0.2228486 -70.59  0.001481089    2.273    0.560
       260 -10.4202    242.5532    231.1450   8.7937193781e+01  -8.4075971254e+00    0.2515283    0.1245478  48.90  0.001238583    2.822    0.646
       261 -11.6099     60.4721     36.1693   8.4412932014e+01   6.2144168310e+01    0.3445551    0.2169847 -30.98 0.0006251843    1.426    0.299
       262 -10.8922     56.8705     31.0566   8.3718070267e+01   6.3518610560e+01    0.3799583    0.2918013   5.78  0.002317874    1.261    0.207
       263 -11.4015     48.7802     30.4312   8.6764143388e+01   6.4738150928e+01    0.6759211    0.2742779  29.34   0.00253502    2.821    0.645
       264  -9.6297    211.0666     53.0685   5.3391321927e+01   2.5384819194e+01    0.3166887    0.2116332  73.20  0.001505658    1.588    0.370
       265 -11.1566    201.8186     48.2663   5.3411392012e+01   2.8390761249e+01    0.9430446    0.4579789 -43.00  0.003877149    1.985    0.496
       266 -10.3533     90.8717     47.4577   7.8059330821e+01   5.5079617085e+01    0.2854832    0.2305583 -37.50 0.0006112952    1.236    0.191
       267  -9.4880     23.8597    231.5051   1.2778395759e+02   2.4040332892e+01    0.1478583   0.08417642  46.91  0.000804934    1.528    0.345
       268 -10.0393      6.4977     36.3483   1.0784234234e+02   6.7579401672e+01     0.288633    0.2075917  51.80  0.001853196    2.153    0.536
       269  -9.6124      6.4470     30.8951   1.0617558363e+02   6.8637090301e+01    0.6558539    0.2497771 -20.75  0.002759026    4.000    0.750
       270  -9.7622     15.0571    233.6157   1.2933291657e+02   2.4573867523e+01    0.1998044    0.1218471  88.95  0.001013923    1.338    0.253
       271  -9.1432    108.2885    230.3304   1.1257019939e+02   1.3204640799e+01    0.1062027   0.09465539   5.42 0.0004064005    1.621    0.383
       272  -9.9230    234.3345    222.9600   8.7972498065e+01  -6.2151552151e+00    0.1678767    0.1328947   5.45  0.000474049    1.085    0.078
       273  -8.8368    209.3315    223.3169   9.2481605300e+01  -2.3140072532e+00    0.1290639   0.08369744  12.37 0.0007047078    1.686    0.407
       274  -9.3155      9.9920    217.9474   1.2940686143e+02   2.7958884867e+01    0.1326076   0.09041011  79.33 0.0006150916    1.071    0.066
       275  -9.3346    161.6525     47.7767   6.0094159195e+01   3.8752876381e+01    0.2464691    0.1839031 -87.31 0.0004162194    1.649    0.393
       276  -9.6578    162.5918     43.8690   5.8661094677e+01   3.9081518767e+01     0.279611    0.2428091  43.27 0.0009825024    1.154    0.134
       277 -10.1436     14.0186     46.1957   1.0737898589e+02   6.5157514344e+01    0.3325935    0.1318436 -38.26  0.001624949    2.249    0.555
       278  -9.9327     17.6744     42.0167   1.0456924207e+02   6.5746203184e+01    0.3766301    0.1873214 -23.62  0.001934821    2.332    0.571
       279 -10.8177    174.3219     47.9634   5.7783312129e+01   3.5471868994e+01    0.5714428    0.4193043  81.95  0.002544724    1.532    0.347
       280  -9.5937    234.2392     45.0019   4.8324782729e+01   2.0946395691e+01    0.1975879    0.1697834 -55.04 0.0005378506    1.044    0.042
       281  -9.1674    132.0969     45.4935   6.5753321434e+01   4.6449971644e+01    0.2233864    0.1410089  51.35 0.0005453461    1.532    0.347
       282 -11.2825    155.9178     41.9565   5.9334724871e+01   4.1059537755e+01    0.4029523    0.3827331 -53.35 0.0009449418    1.092    0.085
       283 -11.3445    153.0800     36.0596   5.7938123158e+01   4.2593022861e+01    0.3103016    0.2773913 -62.44 0.0004164218    1.205    0.170
       284 -10.7700     97.8059     41.6101   7.3647684238e+01   5.4680216154e+01    0.5449593    0.3789406  77.01  0.002076168    2.553    0.608
       285 -10.6625     92.8235     41.2791   7.5068700422e+01   5.5725791270e+01     0.424399    0.3249537  37.05  0.001814862    1.298    0.230
       286 -10.5996    189.4950     40.3672   5.3003129953e+01   3.2634805938e+01    0.5626709     0.409754 -20.79  0.002777062    1.529    0.346
       287  -9.3908     86.3446     31.1341   7.3069434431e+01   5.8531207429e+01    0.2188282     0.200913   1.99  0.001342116    1.083    0.077
       288 -10.6143     80.6494     40.0473   7.8595766372e+01   5.8204724809e+01    0.5573697    0.3770801  44.52  0.002930033    1.595    0.373
       289 -10.9451     77.2232     34.2177   7.7424476174e+01   5.9744761239e+01    0.4026835    0.2528462  41.19  0.001045775    1.639    0.390
       290 -10.2295     81.6128     31.3568   7.4729271206e+01   5.9388332104e+01    0.4266301    0.2692997 -49.61  0.002071772    2.091    0.522
       291 -10.0711    231.7803     39.3142   4.7187863971e+01   2.2290769219e+01    0.3991849    0.2326509 -59.37  0.001702219    1.785    0.440
       292  -8.8388    217.6698     39.3045   4.8844374775e+01   2.5684460697e+01    0.1507224   0.09783337 -64.86  0.000381354    1.655    0.396
       293 -11.2950    176.6595     35.4366   5.3544949190e+01   3.6605799936e+01    0.8269171    0.5860354  63.30   0.00296176    1.350    0.259
       294 -10.4565    165.2775    212.4819   9.9103058988e+01   6.8054282431e+00    0.3006181    0.1801045  53.92  0.001083744    1.768    0.434
       295 -10.2929    176.8595     29.9687   5.1842320993e+01   3.7252051965e+01    0.4988144     0.200672  55.84  0.001464694    2.262    0.558
       296  -9.4885    153.0694    207.8254   1.0081490713e+02   9.7436433281e+00     0.206409    0.1651904  59.41 0.0008372985    1.276    0.216
       297  -9.7719    206.9737     36.9984   4.9585587831e+01   2.8643144169e+01    0.2200818    0.2006302 -70.98  0.000628074    1.023    0.022
       298  -9.6334    132.8195     36.5643   6.2408880709e+01   4.7569481021e+01    0.3375153    0.2357801 -67.75  0.001524273    2.032    0.508
       299  -9.3244     94.4494     36.0154   7.2484638594e+01   5.6219903823e+01    0.2429029    0.1948545  64.17  0.001023992    1.594    0.373
       300  -9.2790    148.6728     31.9844   5.7426897676e+01   4.4244635179e+01    0.1969006     0.185581  -6.62 0.0003930792    1.108    0.097
       301  -9.6370     60.9981    206.9848   1.1931505064e+02   2.4373368137e+01    0.1852314    0.1412403  71.48 0.0004712587    1.051    0.049
       302 -12.0812    105.9026     32.8147   6.7837786241e+01   5.4291372997e+01    0.7765821      0.42155  14.41  0.002828506    3.255    0.693
       303 -12.4841    114.2541     25.0471   6.2559070374e+01   5.3451949324e+01    0.7690585    0.3454714  56.08  0.001119926    2.156    0.536
       304  -9.9591    177.6784     43.3014   5.5775085703e+01   3.5274776212e+01    0.4413956    0.2455874  54.89  0.001902199    1.724    0.420
       305 -10.9645    240.3574     32.9060   4.4709575085e+01   2.1131152479e+01    0.4174731    0.3030991  79.74  0.002347129    1.393    0.282
       306 -10.3899     68.6022     32.9358   7.9993942274e+01   6.1409655929e+01    0.3972868    0.2924152  41.34  0.002279079    1.506    0.336
       307  -9.2374    216.3887     32.4516   4.7200431636e+01   2.6894490417e+01     0.242804    0.1672138  14.14  0.001076468    2.246    0.555
       308 -10.0766    238.6640    204.6757   8.3988824632e+01  -4.5633763755e+00    0.2518877    0.1471922 -36.94  0.001382131    1.877    0.467
       309 -10.4311    189.3070     28.0402   4.9443077218e+01   3.4276721408e+01    0.4416891    0.3000782  -3.88   0.00172172    1.979    0.495
       310  -9.2302     35.8133     31.5590   9.2823027579e+01   6.6093690916e+01     0.150976    0.1124738  36.81 0.0006666993    1.703    0.413
       311 -10.3159    230.6556     27.2119   4.4302914393e+01   2.4108684105e+01    0.4311871    0.2004646 -38.47  0.001388672    1.917    0.478
       312  -9.6137    221.7666     29.4918   4.5819510124e+01   2.5955230277e+01    0.2379881    0.1814868 -33.62 0.0005303865    1.318    0.242
       313 -10.1281     98.3949     27.8236   6.7982987505e+01   5.6574579422e+01    0.4517346    0.2521287 -42.92  0.001244063    2.081    0.519
       314  -9.2057     41.1923     28.1037   8.9037195425e+01   6.6078621567e+01    0.3313793    0.1205851 -32.31  0.001137769    2.968    0.663
       315  -9.2168     65.7880     28.4127   7.9124567764e+01   6.2569768251e+01     0.186319    0.1123566  26.31 0.0008189302    1.743    0.426
       316  -9.7983    250.5744     26.7603   4.2303225313e+01   1.9598589770e+01    0.2459591    0.1138208 -32.94 0.0004722433    1.984    0.496
       317  -9.0605     86.1799     23.8461   7.0043159424e+01   5.9575763592e+01    0.1783589    0.1361468  13.34            0    1.267    0.211
       318  -9.3907    221.9964    205.7569   8.7151989532e+01  -1.9933817434e+00    0.1750348   0.09547214  38.28 0.0008972661    1.648    0.393
       319 -11.0814      5.0405    202.5653   1.2948300115e+02   3.1389893320e+01    0.6349172   0.08840858 -67.59  0.002448507    4.916    0.797
       320  -9.7910     81.0999     19.3083   6.9701599160e+01   6.1141440729e+01    0.3643426    0.1928045  44.19  0.001317448    1.809    0.447
       321 -12.1423      4.6396    184.5444   1.2855718496e+02   3.5070450678e+01    0.5681129    0.3848561  76.27  0.003042043    1.117    0.105
       322  -8.8733    207.4236    201.4700   8.9072914352e+01   1.1147760171e+00    0.1309167    0.1122668  17.39  0.000195585    1.010    0.010
       323  -8.9299     55.5823     24.7274   8.1495855594e+01   6.4703888928e+01    0.1619655    0.1097176 -40.21 0.0002228448    1.525    0.344
       324  -9.7844    161.5224     23.4766   5.2261948211e+01   4.1995752304e+01    0.2218521    0.2172311  68.96 -2.678658e-06    1.044    0.043
       325  -8.5413      1.3261    200.2994   1.3002684052e+02   3.2166344170e+01   0.09403325   0.07275794 -64.06 0.0003605703    1.634    0.388
       326 -10.2123    233.9619    196.9987   8.3389578261e+01  -2.7631381643e+00    0.3233786    0.2162951 -12.16   0.00112694    1.519    0.342
       327  -8.7147     83.5186    195.9871   1.1360022126e+02   2.3512182424e+01    0.1761763    0.1175178 -69.22 0.0004747406    1.499    0.333
       328  -9.5907    246.9769    194.2381   8.0600598094e+01  -4.5028746741e+00    0.1664281    0.0958896  37.48 0.0008944551    1.662    0.398
       329 -10.1485    242.5005     22.1369   4.1949995468e+01   2.1975493244e+01    0.2687174    0.1605588  67.91  0.000930863    1.689    0.408
       330  -9.3535    223.2065     22.3811   4.3858124778e+01   2.6474887636e+01    0.2278937    0.1615758 -67.40 0.0006905355    1.363    0.266
       331  -8.9848    221.1099     19.1674   4.3259304502e+01   2.7359557441e+01    0.1808219    0.1546133 -76.97  0.001077591    1.051    0.048
       332 -10.0135    169.7758    191.5080   9.4700910910e+01   9.5903904344e+00    0.3471026    0.2033033  30.15  0.001010499    1.825    0.452
       333  -9.9550    239.9247    184.6102   7.9952321528e+01  -2.0170951623e+00    0.2176247    0.1600251 -11.26 0.0006282296    1.270    0.213
       334  -9.9859    213.2655    180.7640   8.4039465617e+01   3.2727080028e+00    0.2260579    0.1440733   8.00  0.001046975    2.048    0.512
       335  -9.6247     74.2821     19.4706   7.2077188723e+01   6.2383823434e+01    0.2320418    0.1836949  26.34 0.0007032645    1.173    0.148
       336  -9.6059    250.1032    178.8467   7.7059433935e+01  -2.9013741821e+00    0.3046725    0.1499012 -22.74  0.001416879    2.123    0.529
       337  -9.5244     28.2510    176.4763   1.2324802253e+02   3.4590815961e+01    0.2628049    0.1889053 -75.10   0.00168753    1.253    0.202
       338 -10.0410     51.9079    173.3921   1.1784358542e+02   3.2646614895e+01    0.4067288    0.1708675 -84.07  0.001665415    2.932    0.659
       339  -8.9923    224.6657    175.6620   8.0889566150e+01   1.9891206392e+00     0.144848   0.09694467   6.43 0.0007051782    1.747    0.428
       340  -9.0852    230.4562    175.4889   7.9803294490e+01   9.7172891365e-01    0.1356714     0.116659   2.99 6.881892e-05    1.010    0.010
       341 -10.6161    245.4814    200.9566   8.2122773936e+01  -5.1538141956e+00    0.1942709    0.1459341  23.61 0.0005623215    1.175    0.149
       342  -9.6385    211.4517     18.8466   4.4184535804e+01   2.9763370015e+01    0.2219605    0.1781936  79.96 0.0002876015    1.173    0.148
       343  -9.9435    247.6167    173.9267   7.6486413600e+01  -1.7862739279e+00    0.4561641    0.1567366  31.06  0.001485026    4.482    0.777
       344  -9.9284     39.0611    173.5002   1.2067281659e+02   3.4104287148e+01    0.2848786    0.1594806  65.32  0.001331875    1.715    0.417
       345 -10.3086     35.4719    170.1376   1.2113027160e+02   3.5236846450e+01    0.3353477    0.1495612 -81.62  0.001626105    2.109    0.526
       346  -8.5289      1.4641     20.5566   1.0512523148e+02   7.0840430482e+01     0.114698   0.07962123 -36.93 0.0002099677    1.058    0.055
       347 -10.6731    186.2262     15.1169   4.6098920058e+01   3.6553077317e+01    0.2603799    0.2110789  77.63 0.0002856423    1.144    0.126
       348  -9.0128    174.2355     15.8305   4.7906491386e+01   3.9563133045e+01    0.1887806    0.1501851  45.45 0.0004554591    1.292    0.226
       349 -10.0849      8.9799    156.3792   1.2573680777e+02   4.0760307790e+01    0.2634099    0.1434478 -66.65   0.00158013    1.578    0.366
       350 -11.8683      9.6567    167.0091   1.2639925214e+02   3.8370897872e+01    0.5420573    0.3158885 -80.91   0.00234183    1.347    0.257
       351 -10.6870     38.8253     21.8957   8.7400922664e+01   6.7377791781e+01    0.2686191    0.1705589 -25.26 0.0006448913    1.356    0.262
       352 -11.2204     13.9080    158.7837   1.2484768775e+02   3.9820939190e+01     0.437153    0.2147425 -76.24  0.001863754    1.617    0.382
       353  -8.9795    197.9772    168.0211   8.4418501362e+01   8.3220048929e+00    0.1722508    0.1578172 -11.12 0.0005993805    1.074    0.069
       354  -8.5855     94.4258     12.4366   6.2618998145e+01   5.9266037818e+01    0.1335642    0.1144639  21.01 0.0001788043    1.018    0.017
       355  -9.9274    188.7161    164.5952   8.5575803563e+01   1.0780801688e+01    0.3947738     0.198813 -31.16  0.001238792    2.338    0.572
       356 -10.1092     18.7460    165.0034   1.2430853983e+02   3.8018574539e+01    0.2465671    0.2267399 -37.23   0.00157186    1.558    0.358
       357 -10.1501    204.9919    163.0204   8.1981648198e+01   7.8078841585e+00    0.2723995    0.1968684  31.63 0.0006291218    1.359    0.264
       358  -9.4467     40.2525    162.6372   1.1930057283e+02   3.6407695002e+01    0.3631527    0.1385098 -79.70  0.001505953    2.765    0.638
       359 -10.4547     27.9109    161.9487   1.2202103208e+02   3.7837385172e+01      0.37207    0.1892414 -79.06  0.002013814    1.661    0.398
       360  -9.3522     79.3828    160.2689   1.0978470031e+02   3.1955914131e+01    0.2529328     0.164082 -77.35  0.001287296    1.547    0.354
       361 -10.1216    246.4917    159.0277   7.3575461136e+01   6.0830058966e-01    0.3176602    0.1216886 -28.36  0.001218888    2.743    0.635
       362  -9.4812    215.2737    158.3103   7.8992830505e+01   6.5853327167e+00    0.2670842    0.1652449 -24.20  0.001100683    1.725    0.420
       363  -9.0738    223.7545    156.9437   7.7119118725e+01   5.1605277517e+00    0.1838543    0.1130761 -32.12 0.0007004665    1.570    0.363
       364 -10.4640    104.7550    154.3111   1.0262339389e+02   2.9277572007e+01    0.4417171    0.3271905 -65.60  0.002287772    1.338    0.253
       365 -10.0421     21.9708    155.3842   1.2274267436e+02   3.9875921230e+01    0.2931165    0.2102402  30.61  0.001901217    1.731    0.422
       366 -12.0965     22.7327    149.3008   1.2197758233e+02   4.1189103638e+01    0.5589701    0.3165381 -39.17  0.002127811    2.654    0.623
       367 -10.9515     11.0841    126.8479   1.2252101602e+02   4.7291601673e+01    0.6445997    0.2504798 -67.77 0.0009654298    1.929    0.481
       368 -10.8679     15.2908    147.8020   1.2357431071e+02   4.2171099473e+01    0.3460765    0.2697222  72.76  0.002019728    1.184    0.155
       369 -11.0580     14.0201    141.3765   1.2326706574e+02   4.3735836957e+01    0.3366954    0.2778339  75.92  0.001277271    1.165    0.142
       370 -10.8759     11.1604    137.5181   1.2358442887e+02   4.4838345373e+01    0.5506985    0.2931958 -55.54   0.00314368    1.814    0.449
       371 -10.7781     31.4357    152.8759   1.2030022371e+02   3.9550957870e+01    0.4632948    0.2765565 -88.51  0.002618307    1.498    0.332
       372  -9.3099     74.8082    153.5499   1.0988136799e+02   3.4175038485e+01    0.2515554    0.1755203 -67.62 0.0007678461    1.322    0.244
       373  -9.7228     70.8125    151.3364   1.1053350948e+02   3.5254181692e+01    0.2601782    0.1726673  55.65  0.001242449    1.526    0.345
       374 -11.8142      3.8674    147.2366   1.2615056434e+02   4.3184164347e+01    0.6696824    0.3600823 -79.39  0.003391668    1.426    0.299
       375 -11.3227      3.8595    142.2751   1.2574663090e+02   4.4295410477e+01    0.3925487    0.2791892  30.34  0.002694368    1.769    0.435
       376 -12.6334      3.7947    137.0621   1.2531543790e+02   4.5474185803e+01    0.2826803    0.1906004 -72.61 0.0004403094    1.192    0.161
       377  -9.5422     42.1391    148.6215   1.1724508620e+02   3.9427096838e+01    0.3519727    0.2253228   1.36  0.001600922    2.981    0.665
       378 -11.0224     47.5067    148.0047   1.1584791731e+02   3.8975074443e+01    0.4755275    0.2385822 -61.17  0.002013267    1.750    0.429
       379  -9.9284     46.3132    144.6655   1.1570708784e+02   3.9892759583e+01     0.227337    0.2025126 -70.62 0.0007886455    1.163    0.140
       380 -11.2152     63.0083    150.2345   1.1231054824e+02   3.6561234776e+01    0.4110404    0.3967864  16.03  0.001977358    1.323    0.244
