#   1 NUMBER                 Running object number                                     
#   2 MAG_AUTO               Kron-like elliptical aperture magnitude                    [mag]
#   3 X_IMAGE                Object position along x                                    [pixel]
#   4 Y_IMAGE                Object position along y                                    [pixel]
#   5 X_WORLD                Barycenter position along world x axis                     [deg]
#   6 Y_WORLD                Barycenter position along world y axis                     [deg]
#   7 A_WORLD                Profile RMS along major axis (world units)                 [deg]
#   8 B_WORLD                Profile RMS along minor axis (world units)                 [deg]
#   9 THETA_WORLD            Position angle (CCW/world-x)                               [deg]
#  10 FWHM_WORLD             FWHM assuming a gaussian core                              [deg]
#  11 ELONGATION             A_IMAGE/B_IMAGE                                           
#  12 ELLIPTICITY            1 - B_IMAGE/A_IMAGE                                       
         1 -14.9277    180.4090    112.3814   1.4133720183e+01   2.3972765858e+01     4.738806     2.348876 -43.30    0.0217721    1.771    0.435
         2 -14.8010    240.0190     69.4467   3.5748159092e+02   2.0282554222e+01      6.81586      2.00133 -56.14   0.02147517    6.189    0.838
         3 -14.1741    216.9852    120.4577   1.0292449813e+01   1.6384625791e+01     2.420877     1.421538 -33.07   0.01353327    1.524    0.344
         4 -11.9295    248.1790     17.4951   3.4675236025e+02   2.5306673290e+01    0.6485186    0.2518438 -47.09  0.003401576    1.699    0.412
         5 -12.3215    234.9813      4.8332   3.4484240301e+02   2.8913803513e+01    0.7883309    0.4460122  83.32  0.005328109    1.834    0.455
         6  -9.5448    176.3535    225.6015   3.5605545365e+01   4.6768476552e+00     0.190277    0.1719006 -22.54 0.0004805992    1.293    0.227
         7  -9.1380    230.9466    249.6990   2.9712609336e+01  -3.8578151234e+00    0.2327658     0.130738  40.83  0.001426535    3.324    0.699
         8 -10.0464    173.3167    221.5323   3.5595580861e+01   5.6550794102e+00    0.2200779     0.192922   6.08 0.0006764975    1.161    0.139
         9 -10.7246    224.5527    219.9945   2.6509251581e+01   4.2218388577e-01     0.280395    0.2526926  68.00  0.002046288    2.357    0.576
        10  -9.3547    241.5201    221.5668   2.4196779590e+01  -1.3595438891e+00    0.1970491   0.08076619 -37.77  0.001173883    2.054    0.513
        11  -8.7245    232.0770    219.2519   2.5248721378e+01  -1.9864018366e-01    0.1576026    0.1071044 -11.78 0.0004294883    1.164    0.141
        12  -9.3710    230.6877    213.8615   2.4652006420e+01   6.4201460383e-01    0.2548642    0.2003348 -60.94  0.001718717    2.547    0.607
        13  -7.4922    152.3297    213.3229   3.8579523243e+01   9.5507680820e+00     0.131042   0.08663613 -10.06 0.0007049523    1.697    0.411
        14 -10.2417    246.2247    208.9093   2.1642570338e+01  -1.8642001157e-01    0.3212633    0.2820167 -78.28  0.001888357    2.691    0.628
        15  -7.8512    173.6839    211.2988   3.4007224149e+01   7.2538970027e+00    0.1064253   0.09546098  54.69 0.0004139926    1.612    0.380
        16  -8.0166    167.2697    211.6772   3.5312018752e+01   7.9731451570e+00    0.1049743   0.09779441  67.36  0.000208943    1.569    0.363
        17  -9.6363      6.2456    208.3900   7.3931359255e+01   2.7641867109e+01    0.1881957   0.09265546  36.15 0.0009474435    1.641    0.390
        18 -12.6690    233.3063    197.7239   2.1766214408e+01   2.5643330074e+00     1.327536    0.7220945 -20.93  0.008188211    1.722    0.419
        19  -9.2493    249.6262    247.2220   2.6638223371e+01  -5.0639654919e+00     0.260795   0.07868442 -43.12  0.001269654    4.209    0.762
        20  -9.2224    213.5484    240.4893   3.1194814968e+01  -1.2125296946e+00    0.2892328    0.1482628  41.50  0.001613163    3.247    0.692
        21 -14.2014    238.5562    160.5233   1.4837327103e+01   7.2749127300e+00     2.296468    0.9309361 -50.97  0.006671602    3.643    0.726
        22 -15.6029    238.8204    138.2534   1.0833619051e+01   1.0520948333e+01     3.036366     1.984196  25.14   0.01918563    2.096    0.523
        23 -14.4643    236.4214    117.8043   7.3109654232e+00   1.3895655130e+01     1.375976     1.024385   3.43  0.008315652    1.917    0.478
        24  -8.6673    250.2552    203.4283   2.0250503063e+01   1.4085604265e-01     0.117397   0.09347071  25.94 0.0009437765    1.635    0.388
        25  -9.3037     24.2170    202.3991   6.8945273627e+01   2.7464893819e+01    0.1989304   0.09876527  36.78 0.0009507483    1.662    0.398
        26  -9.9642    174.3176    190.9122   3.0640758891e+01   1.0614464944e+01    0.4290016    0.1846528 -43.69  0.001909966    2.195    0.545
        27  -9.4698    177.9835    198.0196   3.1103828513e+01   8.9219283613e+00    0.3178527    0.2199605 -58.49  0.000742759    2.003    0.501
        28 -10.3307    181.2635    194.6779   2.9940630138e+01   9.0640204207e+00    0.4304675    0.3006113 -70.27  0.002203222    2.784    0.641
        29  -8.8959     72.4679    194.5143   5.5181893914e+01   2.3953271699e+01    0.3029739    0.1907433 -24.87  0.001277934    2.297    0.565
        30  -8.5887    150.5777    193.5086   3.5907316258e+01   1.3377676837e+01    0.2627131    0.1213497  31.96  0.001192229    2.100    0.524
        31  -9.4101     10.7360    183.9864   7.1632068803e+01   3.3145651299e+01    0.1886853    0.1613074  74.00 0.0004457414    1.074    0.069
        32 -14.3422    205.5913    175.9243   2.2460409364e+01   9.0157786548e+00     2.090695     1.723714 -51.55   0.01225451    1.475    0.322
        33 -11.7808    134.4597    148.7086   3.1480337222e+01   2.5051829881e+01     1.440699    0.4267062 -56.12  0.003945612    4.809    0.792
        34 -10.6217    151.5451    152.5695   2.8349811633e+01   2.1310896043e+01    0.3019843    0.2436486 -55.82 0.0008878896    1.293    0.227
        35 -12.8257    200.2285    115.5979   1.1679256380e+01   1.9902551728e+01     1.059555    0.8168259  25.86  0.006295501    1.699    0.411
        36 -10.8852     67.9353    144.1844   4.9496523931e+01   3.7221355620e+01    0.7995122    0.4230478  58.32  0.003008439    2.370    0.578
        37  -9.9371    137.2797    138.3735   2.8662160415e+01   2.6797433068e+01     0.618132    0.1347529 -50.07  0.001648183    4.666    0.786
        38 -11.1504    136.9472    128.2433   2.6518185563e+01   2.9052045577e+01    0.6522535     0.367393 -44.42  0.002078315    1.719    0.418
        39 -10.1351    142.1061    133.4180   2.6467481381e+01   2.6975556338e+01    0.3478492    0.2589408 -52.03  0.001293043    1.307    0.235
        40  -9.7719    165.4992    133.5176   2.1510059512e+01   2.2703630722e+01    0.2501209    0.2261534 -41.77 0.0008157844    1.016    0.016
        41 -11.7681    161.3958    128.7029   2.1285426986e+01   2.4386745246e+01    0.5887557      0.49489 -26.25  0.002689556    1.235    0.190
        42  -8.6986     67.5577    130.5479   4.7182794985e+01   4.0898841663e+01    0.1538091    0.1456136  76.21 4.893289e-05    1.019    0.019
        43  -9.6916    153.6013    126.6931   2.2447538376e+01   2.6231314464e+01    0.2600991    0.1726997 -53.74  0.001146975    1.499    0.333
        44 -10.7453    132.7908    119.2901   2.5443640222e+01   3.1796394353e+01    0.5393481    0.4513294 -39.80  0.001844069    1.201    0.167
        45  -9.4027    135.0000    113.0149   2.3409297958e+01   3.2704974096e+01    0.3357085    0.1912837 -46.44  0.001449488    1.679    0.405
        46 -10.1377    135.0289    107.1804   2.1960520228e+01   3.3933376179e+01    0.5304476    0.2566208 -47.18  0.000997705    1.976    0.494
        47 -10.2486    149.7305    113.7367   2.0282440348e+01   2.9604799837e+01    0.3951294     0.272802 -42.07   0.00112399    1.381    0.276
        48 -11.6236     62.9328    106.8971   4.3897097880e+01   4.7887309779e+01     1.670391     1.122081  40.05  0.007575869    1.476    0.323
        49 -11.8096     49.7250    110.2877   4.9762955056e+01   4.8952309956e+01    0.6512412    0.4986405 -57.23  0.001680038    1.277    0.217
        50 -12.9672     41.6294    106.3228   5.2252440111e+01   5.1095282214e+01     1.108722    0.9657217  -2.17  0.003934333    1.297    0.229
        51 -11.7200     33.3293    106.0051   5.5681288833e+01   5.2165211483e+01    0.5139348     0.354174  25.39  0.001210293    1.504    0.335
        52 -11.0890     20.3612    113.6704   6.2333704052e+01   5.1323758645e+01     0.420378    0.2301662  55.10  0.001785218    1.966    0.491
        53  -9.7719    139.0242    113.5068   2.2591995929e+01   3.1790320220e+01    0.3521675    0.2141985  71.78  0.001205178    2.647    0.622
        54  -9.5428    126.9334    111.8057   2.5071926909e+01   3.4599656662e+01    0.2734607    0.2085385 -53.36 0.0005592357    1.272    0.214
        55 -12.5969      3.9502    104.4726   6.8247961852e+01   5.5053426392e+01      1.07566    0.5668249 -78.15  0.004833546    1.735    0.423
        56  -9.9882    143.4328    106.4400   1.9871245203e+01   3.2356553914e+01      0.33946    0.2683305 -86.69 0.0008380126    1.503    0.335
        57  -9.1941    125.9991    105.5022   2.3719627084e+01   3.6160968987e+01    0.2284226     0.149143  47.27 0.0006900335    1.580    0.367
        58 -10.2806    158.7428    102.0820   1.5646091837e+01   3.0086408809e+01    0.5544181    0.2587825  59.09   0.00219156    2.642    0.621
        59 -10.2326    211.1467     97.3116   6.2941162481e+00   2.1026675439e+01    0.3162631    0.2590972 -11.05  0.001514101    1.552    0.356
        60  -8.7576    203.6375     99.1286   7.6719309944e+00   2.2043587621e+01    0.1853707    0.1375683 -41.52 0.0005780612    1.138    0.121
        61  -9.1974    197.5980     97.4250   8.1344513108e+00   2.3404394126e+01    0.2475732     0.213513 -34.57  0.001212246    1.165    0.142
        62  -8.2883    139.2393     94.7686   1.7813879279e+01   3.5589380480e+01    0.1845963    0.1717218  -5.32 0.0003026209    1.289    0.224
        63  -7.9066     91.6603    109.7626   3.4560928207e+01   4.2087978121e+01    0.1486114    0.1233503   1.04 0.0005795633    1.550    0.355
        64  -8.7298    112.2585     96.6372   2.4979611413e+01   4.0979842104e+01    0.3286103    0.2286289 -14.58  0.001052881    2.436    0.590
        65  -9.4779    217.9753     88.6858   3.6404316608e+00   2.1191086334e+01    0.2360693    0.1427783 -45.78 0.0006271938    1.321    0.243
        66 -13.1287    188.6959    175.0507   2.5219343935e+01   1.1408225756e+01     2.861544    0.5937501 -48.64  0.007616043    6.924    0.856
        67  -9.4214    212.5596     85.7170   3.6421874060e+00   2.2583343898e+01    0.3011428     0.184615 -64.39  0.001636794    1.822    0.451
        68  -8.0351    217.4817     69.4738   3.5960206912e+02   2.4115248817e+01    0.1776286    0.1627286 -86.92 0.0006792474    1.258    0.205
        69  -9.5233    220.6402     74.1854   2.8456914010e-01   2.2877906393e+01    0.3137027    0.2181828   7.68  0.001594259    3.051    0.672
        70  -9.5865    217.6874     83.3502   2.5460307028e+00   2.2044389674e+01    0.3083371    0.2045874 -48.38  0.001270949    1.213    0.176
        71  -9.9301    217.2952     79.3513   1.7389214268e+00   2.2708215876e+01    0.2421806    0.2261435 -42.69  0.001509144    1.230    0.187
        72  -9.3347    224.0943     72.2972   3.5953727109e+02   2.2548026488e+01    0.1809793     0.159247 -61.66 0.0005183347    1.157    0.136
        73  -9.5878    220.9532     69.6233   3.5928452169e+02   2.3476837235e+01    0.2223282    0.1432391 -41.70 0.0002429236    1.250    0.200
        74 -14.6131    177.8901    166.9619   2.5752098222e+01   1.4373353524e+01     2.593931     2.455648  89.61   0.01666679    1.374    0.272
        75  -9.7142    211.7824     79.7702   2.4468374572e+00   2.3624353104e+01    0.3200735    0.1995274 -24.80  0.001662404    1.942    0.485
        76 -11.8019    209.7540    105.5280   8.2109706217e+00   1.9953011446e+01    0.2907753    0.2301171 -42.01 0.0003150473    1.049    0.046
        77  -8.4030    209.4973     73.1063   1.2452183171e+00   2.5036107528e+01    0.1999676    0.1030585 -39.78  0.001035811    1.598    0.374
        78  -9.9687    196.2925     71.2779   2.3706664526e+00   2.7815695426e+01    0.2270332    0.1400455 -38.45 0.0007014766    1.442    0.306
        79 -10.0510    163.3724     59.3723   3.8291506983e+00   3.6551015463e+01    0.2631077    0.2077656 -61.68 0.0006141874    1.129    0.114
        80  -8.9413    208.8455     55.6132   3.5741568120e+02   2.7667607971e+01    0.3813813    0.1854999 -22.22  0.001577694    3.439    0.709
        81 -13.7566    228.3181    169.3286   1.7794459299e+01   7.2045802436e+00     1.268451    0.8470461 -36.92   0.00406451    1.240    0.193
        82  -9.3125    248.7280     55.9091   3.5413569879e+02   2.0665795619e+01    0.1752533    0.1703353 -42.04  0.000629194    1.432    0.302
        83 -10.8414    146.7077     52.8523   4.6211677031e+00   4.1369104586e+01    0.5388962    0.3351595 -15.96  0.001638853    2.641    0.621
        84 -10.5438    179.3004     53.7344   1.9808775368e-01   3.3917161322e+01    0.3367586    0.2384342  42.70  0.001826252    1.948    0.487
        85  -9.9172    184.6377     50.3084   3.5870649601e+02   3.3273332048e+01    0.2908761    0.2165783   0.16   0.00153243    2.303    0.566
        86  -9.9015    250.5006     46.9907   3.5229298073e+02   2.1499670690e+01    0.3304513    0.1613514 -34.42  0.001533588    1.739    0.425
        87 -10.6625    249.1631     43.1255   3.5163376477e+02   2.2187261991e+01    0.4187045    0.2130818 -30.90  0.001746256    1.912    0.477
        88 -10.9162    238.1289     36.8823   3.5110312379e+02   2.4781140330e+01    0.3261884    0.2718351  15.65  0.001509917    2.077    0.518
        89 -11.4010    248.2858     31.7438   3.4948743001e+02   2.3684126384e+01    0.4393033     0.404145 -49.29  0.002917366    1.401    0.286
        90 -11.2495    238.9828     27.0942   3.4909216590e+02   2.5788566022e+01     0.341884    0.2426931  60.40  0.001618171    1.924    0.480
        91  -7.6871     94.2692     37.6659   1.0529855098e+01   5.6305339840e+01    0.1440485     0.104502 -71.11 0.0003250486    1.591    0.371
        92 -13.9595    241.8257     94.9410   2.3183106347e+00   1.6445086804e+01     1.082953    0.8561755 -70.17  0.001075301    1.411    0.291
        93  -9.5013     48.8414    235.2215   6.4848073510e+01   1.7765714534e+01    0.1934458    0.1850217 -41.76 0.0004343053    1.286    0.222
        94 -10.7035    229.9955     32.5075   3.5073066363e+02   2.6729944216e+01    0.2422093    0.2105847  -8.91  0.001316885    1.715    0.417
        95  -8.9276    143.0118    232.2558   4.3123375846e+01   7.4491505415e+00    0.1681805    0.1379469  10.37 0.0004415291    1.019    0.019
        96  -7.8417     94.7198     20.7588   3.5679501683e+00   5.8481852070e+01    0.1294134   0.09637018  43.82 0.0006799569    1.449    0.310
