#   1 NUMBER                 Running object number                                     
#   2 MAG_AUTO               Kron-like elliptical aperture magnitude                    [mag]
#   3 X_IMAGE                Object position along x                                    [pixel]
#   4 Y_IMAGE                Object position along y                                    [pixel]
#   5 X_WORLD                Barycenter position along world x axis                     [deg]
#   6 Y_WORLD                Barycenter position along world y axis                     [deg]
#   7 A_WORLD                Profile RMS along major axis (world units)                 [deg]
#   8 B_WORLD                Profile RMS along minor axis (world units)                 [deg]
#   9 THETA_WORLD            Position angle (CCW/world-x)                               [deg]
#  10 FWHM_WORLD             FWHM assuming a gaussian core                              [deg]
#  11 ELONGATION             A_IMAGE/B_IMAGE                                           
#  12 ELLIPTICITY            1 - B_IMAGE/A_IMAGE                                       
         1 -15.2073    182.5233     93.4042   8.3832373568e+01   2.6257811240e+01     8.103798     1.828352 -43.98   0.02173339    4.299    0.767
         2 -13.7463    139.4110     28.6419   7.4123230239e+01   4.6602122498e+01     3.701329     1.480675  50.53   0.01315782    2.178    0.541
         3 -18.5362    228.0975     46.3075   6.5297208649e+01   2.3304474071e+01     10.05918     8.139669 -54.28   0.06112813    1.166    0.142
         4 -12.3261    185.6743     19.2182   6.4149841298e+01   3.6674694065e+01    0.3881393    0.1775185 -39.43  0.001828859    2.234    0.552
         5 -13.6463    159.2488     11.4059   6.5735367787e+01   4.3755341680e+01    0.7039021    0.2563753 -27.22  0.002984915    3.141    0.682
         6 -11.1039    207.4158     10.0531   5.9511877911e+01   3.2585077935e+01    0.2713884    0.1854102 -48.22   0.00143098    1.460    0.315
         7 -11.8388    115.8757     11.8252   7.3543089599e+01   5.3607120970e+01    0.3768206    0.1591807  65.38  0.001423435    2.516    0.603
         8 -11.3061     42.8145     10.8433   9.4653903521e+01   6.6854956858e+01     0.143411    0.1270941  -3.26  0.001088654    1.353    0.261
         9  -9.9293    195.7287     10.2570   6.0792722042e+01   3.5269887554e+01    0.1345685     0.111068 -37.00 0.0002297403    1.409    0.290
        10 -11.8957    119.5842      4.8609   7.0487065634e+01   5.3399519427e+01    0.4731058    0.2170173 -11.09  0.001272825    2.990    0.666
        11 -11.0581    188.0000      4.3887   6.0260978614e+01   3.7663816300e+01     0.301502   0.07136354 -27.61  0.001049258    4.915    0.797
        12 -11.8408     63.8026      4.9939   8.4658090267e+01   6.4274032145e+01    0.2918857    0.1139928  34.78  0.001408306    2.376    0.579
        13 -11.0136      2.2435      3.0909   1.0934363971e+02   7.2089891922e+01      0.19367    0.1040796 -37.25  0.001335802    1.646    0.392
        14 -12.2020     56.2035      2.5917   8.6160045713e+01   6.5720723661e+01    0.3843389    0.1348414  38.94  0.001880814    2.419    0.587
        15 -10.8798    221.1610    169.1654   9.4099286650e+01   2.8993283841e+00    0.1869369    0.1707018 -75.44 0.0003685949    1.320    0.242
        16  -9.6136    100.1024    135.4901   1.1454971932e+02   3.4932386535e+01    0.2053623    0.1505024  39.14 0.0004594134    1.449    0.310
        17 -15.2226     13.4644    196.9011   1.4442585588e+02   3.1676370433e+01      2.08356     1.223693  85.78   0.01231431    1.420    0.296
        18 -11.3992    153.9572    125.9341   9.8421497606e+01   2.6215665019e+01    0.3363537    0.2571467  74.54  0.001216396    1.593    0.372
        19 -12.8804    152.7113    119.8637   9.7192998906e+01   2.7823427494e+01    0.7639295    0.5431397  47.07  0.002628257    1.428    0.300
        20 -12.0596    120.4479    111.7365   1.0326598954e+02   3.6569693673e+01    0.7058265     0.421525  72.93   0.00237484    3.381    0.704
        21 -11.4659    127.6755    109.8268   1.0084599704e+02   3.5490419884e+01    0.3868587    0.2067306 -44.88  0.001107573    1.834    0.455
        22 -12.5736    120.6068    101.9587   1.0061051343e+02   3.8661116908e+01    0.7538833    0.5582716  26.01  0.003534544    1.572    0.364
        23 -11.1845    112.1791    104.0724   1.0349095215e+02   3.9906900406e+01    0.2733833    0.2532486 -85.59 0.0007781237    1.187    0.158
        24 -10.4392    113.1803     95.1242   1.0075051837e+02   4.1607275848e+01    0.2265479    0.1986589  -7.33 0.0004476676    1.243    0.195
        25 -11.2392    153.9208    109.7700   9.4302982994e+01   2.9708524391e+01    0.3095121    0.2001721  55.51  0.001320871    1.625    0.384
        26 -11.9048    137.3044     89.6289   9.2836232616e+01   3.7576856465e+01    0.3577497    0.3156348  64.50 0.0007352787    1.186    0.157
        27 -12.9386    149.6737     83.8347   8.8239294235e+01   3.5849400365e+01    0.3894635    0.3358383 -61.80  0.002014765    1.226    0.184
        28 -13.5061    208.8638     36.7808   6.5453490388e+01   2.9042253462e+01    0.4760224    0.3254729 -62.42  0.002365647    1.414    0.293
        29  -9.2436     86.6562    169.2700   1.2461235099e+02   2.8975311349e+01    0.1483569    0.1033608  71.49 0.0006990674    1.612    0.380
        30 -10.4017    127.9545     82.5083   9.3154496927e+01   4.1015243055e+01    0.2258923    0.1454397  48.38 0.0004522914    1.547    0.354
        31  -9.7674    107.6290     77.1556   9.7062796496e+01   4.6262410113e+01    0.2069135    0.1312715 -29.50 0.0006135689    1.704    0.413
        32 -11.5661    172.8711    149.8927   9.9778802626e+01   1.6769064254e+01    0.2415315    0.2177042  -8.13 0.0006916897    1.244    0.196
        33 -11.2932    123.1143     71.8277   9.1224885224e+01   4.4017976359e+01    0.4521889    0.2858572 -63.70  0.001875171    2.415    0.586
        34 -13.3542    193.0827     62.3572   7.3950944888e+01   2.9098086845e+01    0.8025627    0.7399913  33.92  0.003922171    1.293    0.227
        35 -10.8573     87.8485     68.6799   1.0031529576e+02   5.1516595957e+01    0.2696178    0.1193018  33.90 0.0009713216    2.525    0.604
        36 -11.2115    205.2177     64.6282   7.2614166502e+01   2.5840431910e+01    0.3025461    0.2473245 -77.14 0.0009911422    1.178    0.151
        37 -11.5003    150.6270     65.1145   8.2675511246e+01   3.8896821546e+01     0.494933    0.2397064  48.44  0.002012102    1.993    0.498
        38 -11.9675     65.6870     64.7903   1.0631405995e+02   5.5763258111e+01    0.3129363     0.171159  18.72  0.001422411    2.367    0.578
        39 -13.7811    162.0148     69.2909   8.1470053473e+01   3.5489914017e+01    0.5118107    0.4016973  -3.71    0.0016782    1.695    0.410
        40 -15.1683     30.8033    189.9070   1.4026354295e+02   3.1476550535e+01     1.107015    0.9407054 -86.32  0.003547779    1.133    0.117
        41 -11.0258    165.1396    150.1247   1.0157354085e+02   1.8389403980e+01     0.234115     0.212779  -7.33 0.0002644898    1.238    0.192
        42 -10.9620    134.1271    147.7627   1.0844007678e+02   2.5483436122e+01    0.6799746    0.1808987 -52.92  0.001789202    4.218    0.763
        43 -13.2123    205.6270     51.8402   6.9455044848e+01   2.7699900045e+01    0.4532892     0.330926  47.43   0.00189002    1.577    0.366
        44 -10.6872    152.5551    145.2700   1.0339005272e+02   2.2189646489e+01    0.3400026    0.2553002 -11.41  0.001360626    1.895    0.472
        45 -10.7157    144.1197    145.9286   1.0556845217e+02   2.3834453529e+01    0.3504195    0.2394064  85.98  0.001370416    2.288    0.563
        46 -13.4252     68.8732    145.2315   1.2497082015e+02   3.7506009524e+01     2.493037      1.31024  66.17  0.007331979    3.185    0.686
        47 -12.8768    187.8825     47.1115   7.0887404667e+01   3.2630798907e+01     0.492492    0.2092561 -47.58  0.001847101    2.459    0.593
        48 -12.1460    150.0786    140.8523   1.0295362864e+02   2.3724833636e+01    0.4636632    0.3231782  29.83  0.002007823    1.706    0.414
        49 -10.1620    179.5072     44.3808   7.1492670164e+01   3.5038425402e+01    0.4117979    0.1435244 -45.28   0.00150177    3.021    0.669
        50 -10.6086    190.1170     41.0554   6.9014348567e+01   3.2927885489e+01     0.197372    0.1756789  85.04 0.0004996153    1.019    0.019
        51  -9.8988    189.9184     35.9728   6.7764320076e+01   3.3647238988e+01    0.1936362    0.1641788 -79.07 0.0004732034    1.102    0.092
        52 -10.6225    139.6482    104.0917   9.6249341705e+01   3.4121477519e+01    0.2725945      0.22108  15.04 0.0008150588    1.520    0.342
        53 -11.5496    131.6005     96.2977   9.6150955001e+01   3.7506343890e+01    0.5029533    0.3184936 -58.43  0.001420923    1.885    0.469
        54 -12.1476    192.3795    194.1450   1.0495575892e+02   3.6116779096e+00     1.112582    0.5548417 -65.07  0.002905112    6.667    0.850
        55 -13.7025     46.8490    173.3737   1.3482310622e+02   3.3519356819e+01     1.589783    0.9873373  73.49  0.008242289    1.728    0.421
        56 -13.1017     56.2262    170.8160   1.3226477814e+02   3.2970909119e+01    0.3613676    0.3266969 -20.58  0.001055251    1.485    0.327
        57 -14.6562     63.0354    165.5656   1.2984790030e+02   3.3345148222e+01     1.104655     0.854035  33.51  0.003393303    1.505    0.335
        58 -13.8793     68.2536    159.5155   1.2759244845e+02   3.4102260728e+01    0.6925419    0.5566356  76.53  0.001407812    1.257    0.204
        59 -13.1993    213.9979     66.3840   7.1735360597e+01   2.3500342668e+01    0.9210274    0.5604706 -59.45   0.00401137    1.698    0.411
        60 -11.9216    242.9563    249.5222   1.0530155098e+02  -1.3612648178e+01    0.3055097    0.1011525  36.87  0.001368452    2.754    0.637
        61 -12.0490    135.6977    128.6966   1.0358204012e+02   2.9573346559e+01    0.9401174    0.2702407 -51.81  0.002538156    3.976    0.749
        62 -11.7583    134.9957    120.6701   1.0176183860e+02   3.1537084685e+01    0.6234392    0.2152922 -46.65  0.001777789    2.839    0.648
        63 -11.1732    148.5815    102.7787   9.3714054729e+01   3.2382341868e+01    0.2847463    0.2569088  88.73 0.0003125648    1.191    0.160
        64 -11.9241    144.5373    100.0471   9.3950062777e+01   3.3861927343e+01    0.4727744    0.3775012 -40.73  0.001419795    1.254    0.202
        65 -12.5844    134.6765    108.4208   9.8662906767e+01   3.4295213597e+01     1.331028    0.2953358 -45.03  0.003423145    4.438    0.775
