#   1 NUMBER                 Running object number                                     
#   2 MAG_AUTO               Kron-like elliptical aperture magnitude                    [mag]
#   3 X_IMAGE                Object position along x                                    [pixel]
#   4 Y_IMAGE                Object position along y                                    [pixel]
#   5 X_WORLD                Barycenter position along world x axis                     [deg]
#   6 Y_WORLD                Barycenter position along world y axis                     [deg]
#   7 A_WORLD                Profile RMS along major axis (world units)                 [deg]
#   8 B_WORLD                Profile RMS along minor axis (world units)                 [deg]
#   9 THETA_WORLD            Position angle (CCW/world-x)                               [deg]
#  10 FWHM_WORLD             FWHM assuming a gaussian core                              [deg]
#  11 ELONGATION             A_IMAGE/B_IMAGE                                           
#  12 ELLIPTICITY            1 - B_IMAGE/A_IMAGE                                       
         1 -14.1203    241.1816     43.8853   3.5687925101e+02   2.1663899771e+01    0.9678548    0.7603174 -39.39  0.003772981    1.181    0.153
         2 -14.0781    222.5130     55.2227   8.2746174155e-01   2.3679497548e+01     1.022346    0.9698032  16.06  0.006855817    1.422    0.297
         3 -12.8944      4.4893     18.0445   5.2136534785e+01   7.6376190696e+01    0.4372754    0.3247996 -16.54  0.002690388    1.285    0.222
         4 -13.2508      3.3043      5.3553   4.5467071750e+01   7.8874380059e+01    0.9344086    0.5314091 -39.96  0.005279037    1.649    0.394
         5 -11.0404     72.4012      7.8391   7.6614242612e+00   6.5288069275e+01    0.3154678    0.1914366  77.30  0.001534866    1.752    0.429
         6 -10.6204     60.6824     21.6478   1.8977085979e+01   6.6413028375e+01    0.2533847    0.2260948  75.90  0.001024436    1.218    0.179
         7 -10.1725    216.0495    250.0100   3.8263380833e+01  -2.9378501933e+00    0.1408916    0.1163605  28.49 0.0009971815    1.696    0.410
         8 -12.2303     74.7622    246.8601   6.5316533687e+01   1.3804495217e+01    0.4972585    0.2685383 -62.30  0.002853721    2.257    0.557
         9 -14.9943      6.5654     74.0887   6.7772448379e+01   6.3093062124e+01     7.001401    0.4517646 -70.92    0.0156009    7.535    0.867
        10 -15.0762      9.9289    206.8511   7.7876066934e+01   2.8780268971e+01     1.383339     0.898905  19.44  0.005269631    1.664    0.399
        11 -12.9833    107.8295    228.8795   5.6289806303e+01   1.2911103106e+01    0.6424427    0.1908039  36.26  0.002616872    2.621    0.618
        12  -9.5279    222.3213    231.6647   3.4688905034e+01  -1.4262058446e+00   0.08768999   0.08262509   7.68 0.0007050079    1.706    0.414
        13 -10.6614    176.1890    230.8268   4.2518576230e+01   3.8641782590e+00      0.20667    0.1697201   2.05  0.001491713    1.063    0.059
        14 -12.6769    126.0651    229.9285   5.2443047572e+01   1.0350247441e+01    0.3966148     0.271564  31.62  0.002419237    1.222    0.182
        15 -10.8029    164.4393    225.7169   4.4035550147e+01   6.0657569836e+00    0.2027972    0.1161251 -49.32  0.001137929    2.145    0.534
        16 -10.7669    174.9016    223.3564   4.1693419806e+01   5.1015373308e+00    0.1688277    0.1289828  12.52 0.0005121264    1.093    0.085
        17 -10.2727    139.8975    221.6604   4.8440741017e+01   9.9132634135e+00    0.1916913    0.1577776 -19.60 0.0004154706    1.273    0.215
        18 -11.0294     95.4523    219.6053   5.8052368996e+01   1.6256630655e+01    0.2354152    0.1769266  27.73 0.0007726295    1.173    0.147
        19 -15.6884     27.6377    154.0131   6.9447159288e+01   3.9929244805e+01     5.424014     1.671558  48.96   0.01637116    3.153    0.683
        20 -10.6217    103.9644    203.5188   5.4085778355e+01   1.8255953790e+01    0.1920492    0.1779483 -60.00 0.0006169052    1.225    0.183
        21 -10.0697    130.6829    201.6645   4.7610815725e+01   1.4748983070e+01    0.2998686    0.1941891 -70.17  0.001481822    2.319    0.569
        22 -10.1394    210.8405    198.8462   3.1473974821e+01   4.1512833161e+00    0.1739723    0.1290564  -8.19 0.0004863876    1.152    0.132
        23 -10.4187    194.4236    197.2849   3.4037976991e+01   6.4809145681e+00    0.3260897    0.1373565 -47.69  0.001481257    2.918    0.657
        24 -10.8563     96.5702    195.8095   5.4872791424e+01   2.0909115198e+01    0.3058174    0.1406022 -64.69  0.001281399    2.639    0.621
        25 -11.2354     69.1797    193.5237   6.1609896897e+01   2.5218517652e+01    0.4687144    0.2345701  58.67  0.001983166    2.340    0.573
        26  -9.8499    206.9158    190.8963   3.0800151554e+01   5.7913561475e+00    0.1625157    0.1479658 -63.42  0.001121669    1.710    0.415
        27 -11.8665    107.8220    190.1201   5.1287552436e+01   2.0447147464e+01    0.3911985    0.1945687  21.69  0.001583563    2.447    0.591
        28 -11.7196     83.5343    187.4191   5.7097820978e+01   2.4616766288e+01    0.5867184    0.2980062  16.19 0.0005857542    2.822    0.646
        29 -11.5786     80.8345    184.8337   5.7472860279e+01   2.5587847160e+01    0.5120873    0.2964996  29.20  0.001310147    1.649    0.394
        30 -15.8194     10.6799    243.5194   7.9053124266e+01   2.1181596284e+01     2.258707     1.806375  39.13   0.01378582    1.171    0.146
        31 -10.8648    116.4441    182.0209   4.7925717440e+01   2.0818518983e+01    0.2052808    0.1374504 -52.85 0.0007501073    1.603    0.376
        32 -11.1490     99.2066    182.1355   5.2277865010e+01   2.3474065030e+01    0.3266398    0.2007702  32.11   0.00111861    1.518    0.341
        33 -15.4290      4.7237    214.2397   7.9412436634e+01   2.7628310349e+01     3.423952     1.118298  16.98  0.007741367    3.964    0.748
        34 -11.6901     78.3936    177.8887   5.7204853880e+01   2.7544081821e+01    0.3389874    0.2466154  85.80   0.00108309    1.592    0.372
        35 -10.9242     73.6790    172.4825   5.7775382988e+01   2.9505942618e+01    0.4438003    0.2453455 -87.36  0.001490299    2.550    0.608
        36 -11.6658     57.4385    169.9720   6.2106659746e+01   3.2352721942e+01    0.6719468    0.3552179 -86.94  0.002774985    2.358    0.576
        37 -11.8867     86.5635    165.4048   5.3106478393e+01   2.9273002057e+01    0.8262281    0.4626295  57.79  0.003206006    2.148    0.534
        38  -9.7339    110.4468    167.2311   4.6970678121e+01   2.4992777242e+01    0.1846744    0.1418059 -73.23  0.000329127    1.528    0.346
        39 -10.4055    180.4271    167.2412   3.1292061726e+01   1.3365657583e+01    0.1809782    0.1188264 -49.03 0.0009531456    1.661    0.398
        40 -14.5284     66.0705    121.8171   5.1672076361e+01   4.3520254681e+01     2.570605     1.716769  67.72  0.004525544    1.796    0.443
        41 -13.4983     58.9281    111.0997   5.1982453934e+01   4.7443006379e+01     1.327346    0.6555916  45.07 0.0004236122    2.058    0.514
        42 -11.1375     49.9303    152.4354   6.2161786009e+01   3.7782980121e+01    0.2912037    0.2345213 -79.00 0.0006622126    1.222    0.182
        43 -13.7943     52.9392    144.9997   6.0157045028e+01   3.9333434688e+01    0.9458758    0.6950269 -34.41  0.001258977    1.691    0.409
        44 -12.4167     79.3928    132.2569   4.9353805068e+01   3.8646205998e+01    0.5070651    0.3403039 -45.93 0.0005422243    1.600    0.375
        45 -14.9157     68.2645    149.2473   5.5926256521e+01   3.6068577828e+01     1.894311     1.212686 -76.21  0.002167081    1.701    0.412
        46 -12.0464     49.1666    161.2478   6.3514156235e+01   3.5608502881e+01    0.4410077    0.3308878  -5.71  0.001507802    1.792    0.442
        47 -12.3342     77.9551    142.5879   5.1776767626e+01   3.6261663566e+01    0.4864922    0.4471156  72.65  0.001772529    1.056    0.053
        48  -9.3289    112.1477    150.1637   4.3373660918e+01   2.8562329306e+01    0.1974915    0.1691875  71.48 -0.0006383859    1.289    0.224
        49 -11.1150     35.5946    146.7690   6.6092940817e+01   4.0989181140e+01    0.3378165    0.2112468 -89.48   0.00157841    1.634    0.388
        50 -11.0542     36.8527    142.6697   6.5178316064e+01   4.1936283275e+01    0.3584517    0.2344237 -77.87 0.0008613915    1.486    0.327
        51  -9.0844    161.4810    147.9862   3.1239480989e+01   2.0065674341e+01    0.1975268    0.1209846 -65.43 0.0008103646    2.607    0.616
        52  -9.9113     86.6992    147.4602   5.0016858547e+01   3.3611897486e+01    0.2688212    0.1912879  54.85  0.001261028    1.447    0.309
        53 -10.9176    108.9421    145.4735   4.3304767174e+01   3.0220370462e+01    0.2871028    0.2658485  52.73 0.0006370785    1.060    0.057
        54  -9.5595    228.7121    144.6717   1.8986092091e+01   9.6424630821e+00    0.1205918   0.08223254 -10.77 0.0007013071    1.615    0.381
        55  -9.7108    133.3790    143.1958   3.6543241659e+01   2.6212421075e+01    0.2103363    0.1380398 -59.42 0.0007264091    1.721    0.419
        56 -11.9583     55.4267    157.1936   6.1076815040e+01   3.5838707706e+01    0.3699525    0.3378582 -66.36  0.001030722    1.156    0.135
        57 -11.4574     93.8957    133.7075   4.5174817223e+01   3.5752554486e+01    0.4778127    0.4001428 -19.66  0.001808198    1.458    0.314
        58 -11.0710     27.4519    132.9773   6.7243583083e+01   4.5544891943e+01    0.3267369    0.2193871  69.91 0.0006274345    1.499    0.333
        59 -10.7753    105.5841    130.6477   4.1106793553e+01   3.4325651691e+01    0.3845128    0.3390612 -67.10  0.001251789    1.156    0.135
        60 -10.0902    105.7471    126.4075   4.0104973373e+01   3.5297262121e+01     0.322007    0.2300154 -11.19 0.0008056924    2.199    0.545
        61 -11.4830     43.1877    131.5219   6.1459249770e+01   4.4170595686e+01    0.3558191      0.27124  25.03  0.001353779    1.398    0.285
        62 -10.9117     22.0387    126.4910   6.8432844166e+01   4.7823602868e+01    0.2054918    0.1406159  24.00 0.0005498854    1.551    0.355
        63 -11.6860     31.4123    121.7819   6.4314521289e+01   4.8164906511e+01    0.3443301    0.2933151 -52.15 0.0007735506    1.226    0.184
        64 -11.3746     36.4799    124.2734   6.2788932656e+01   4.6926301372e+01     0.291645    0.2344492 -52.25  0.001003316    1.291    0.226
        65 -10.8348     93.2105    120.6672   4.2499944098e+01   3.9072780710e+01    0.4588737     0.284765 -35.80  0.001870399    2.011    0.503
        66 -10.2785    167.3277    156.4745   3.1766431282e+01   1.7442038266e+01    0.2320771    0.1983348 -38.41 0.0005983397    1.143    0.125
        67 -10.1887    117.0051    120.9949   3.5708955228e+01   3.4324611122e+01     0.237883    0.1866038  86.16 0.0005581238    1.581    0.368
        68  -9.5994    110.6890    115.7516   3.6163321612e+01   3.6804550380e+01    0.2103008    0.1757628  86.70  0.000873998    1.356    0.263
        69 -10.0692    103.8551    116.0615   3.8197784335e+01   3.8110677016e+01    0.2251893    0.2180233  85.39 0.0003570351    1.002    0.002
        70 -10.3202    243.4639    114.4716   1.1191129793e+01   1.1838255003e+01    0.1196019   0.09308892 -36.67 2.098557e-05    1.031    0.030
        71  -9.4153    204.2307    110.6569   1.5502257742e+01   1.8907682559e+01    0.1718497    0.1196452  40.44  0.000945572    1.707    0.414
        72 -10.5803     19.9250    109.0980   6.7023631448e+01   5.2739844727e+01    0.2236603    0.1779948  63.88 0.0005161437    1.251    0.201
        73 -10.5834     20.2528    101.9804   6.5841133958e+01   5.4639195981e+01     0.214861    0.2023987  77.23 0.0003569108    1.051    0.048
        74 -12.1811     24.3307    104.1502   6.4449341075e+01   5.3673007564e+01    0.6041487    0.3892976  85.69  0.002826405    1.663    0.399
        75 -10.1867     28.3461    105.6972   6.3023376250e+01   5.2851907906e+01    0.2215238    0.1610246  55.15 0.0009534187    1.418    0.295
        76 -10.8209     13.8528     96.8198   6.7861834312e+01   5.6565109629e+01    0.1988006    0.1530305  62.13 0.0004641046    1.335    0.251
        77  -9.1157     85.2752     96.6030   3.8941089136e+01   4.6442115047e+01    0.1633222    0.1207256  89.28 0.0006033354    1.747    0.427
        78 -10.3287     36.1589     94.4063   5.7542827536e+01   5.5000423403e+01    0.2720022     0.203513  68.38 0.0006339776    1.481    0.325
        79 -11.0182     32.3849     91.6696   5.8627492984e+01   5.6168528569e+01    0.3690574    0.2482605  39.89 0.0008847595    1.519    0.342
        80 -11.1693     12.4003     93.2726   6.7993672147e+01   5.7627885348e+01    0.3507374     0.223654 -21.88 0.0005372425    1.908    0.476
        81  -9.3111     80.3116     93.6820   3.9827010069e+01   4.8113095873e+01    0.1599476     0.120904  80.04 0.0005472831    1.643    0.391
        82 -11.5476     49.0323     92.7146   5.1635372068e+01   5.3723017700e+01    0.4147922     0.222425  67.84  0.001398097    3.277    0.695
        83 -11.7282     54.4158     89.9028   4.8672285886e+01   5.3625937615e+01    0.3603273    0.3102033 -32.75  0.001722884    1.265    0.209
        84 -11.5545     22.5936     85.3231   6.1840220643e+01   5.8875505758e+01    0.6666813    0.2673502  50.28  0.002169959    3.196    0.687
        85 -10.5056     39.2507     86.6989   5.4407150735e+01   5.6629885692e+01    0.2853332    0.2154275  76.76  0.001011026    1.535    0.349
        86  -9.4391     48.6862     83.2975   4.9326361942e+01   5.6173722717e+01    0.1518423    0.1130542  68.77 0.0003092138    1.604    0.377
        87  -9.8714     33.8010     82.4870   5.5887410865e+01   5.8401201138e+01    0.2279505    0.1876522  75.03 0.0005425802    1.331    0.249
        88 -11.4708     68.8752     75.5724   3.8565864048e+01   5.4574381070e+01    0.5845229    0.3628554  84.19  0.002012099    3.328    0.700
        89 -10.7009     18.8384     77.9820   6.2170769888e+01   6.1144719690e+01    0.2410563     0.195489  38.71 0.0004500475    1.301    0.232
        90 -10.4362     34.8667     74.7925   5.3386408350e+01   6.0227757516e+01    0.2894714    0.1670898  51.73  0.001241725    2.057    0.514
        91  -9.7250    143.6706     70.6244   1.5561370997e+01   3.8621760953e+01    0.2478354     0.156474 -56.44 0.0003129471    1.653    0.395
        92 -11.0624     97.1064    248.3197   6.0633267673e+01   1.0896820831e+01    0.1761805    0.1585088 -23.31 0.0005168368    1.344    0.256
        93 -12.9028    212.9760     60.7954   3.0152984881e+00   2.4782863835e+01    0.4323262    0.3444785 -47.86  0.001444268    1.039    0.038
        94 -10.5948    216.3976    243.7677   3.7354010884e+01  -2.2540610688e+00    0.1449181   0.07905157 -22.85 0.0008097772    1.664    0.399
        95 -12.4084    231.9502     49.6345   3.5879408927e+02   2.2626977711e+01    0.3682099    0.3469151  32.74   0.00114108    1.473    0.321
        96 -10.8897     13.5129     60.5273   6.1023397652e+01   6.6035197520e+01    0.2439748     0.221938  89.24 0.0006447717    1.171    0.146
        97 -10.2292     73.2162     57.1894   3.0324268595e+01   5.7650310504e+01    0.2034129    0.1751273 -89.74 0.0006883363    1.329    0.248
        98 -15.9622     58.4484    233.0079   6.7879801746e+01   1.8261386503e+01     4.339184     3.348674 -67.05    0.0201184    1.543    0.352
        99  -9.1921     74.6587     42.2766   2.3660420932e+01   6.0099718140e+01    0.1448928    0.1132187 -89.39 0.0002769844    1.620    0.383
       100  -9.2787    108.6664     39.6761   1.2691807495e+01   5.2315090743e+01    0.1496205    0.1107596  30.58 0.0007050774    1.709    0.415
       101 -16.2187     27.0340    174.7942   7.1439152606e+01   3.4690952520e+01     4.027981     2.483262  60.88    0.0205941    1.495    0.331
       102 -12.0029      2.2999     23.2575   5.6594569711e+01   7.5488237790e+01    0.3415269    0.2177366 -39.52  0.001315611    1.410    0.291
       103 -11.1384     93.2724    243.5769   6.1009873964e+01   1.2165606127e+01    0.1829265    0.1699538 -75.15 0.0006072142    1.339    0.253
       104 -14.7660     15.2331    182.2509   7.5274514707e+01   3.3997609160e+01      1.82104     1.104198 -14.97  0.008511649    2.687    0.628
       105  -9.8123     75.9606     19.4781   1.2594970422e+01   6.3146690293e+01    0.2001484    0.1182218  89.72 0.0008100198    2.606    0.616
       106  -9.4107     91.3139     11.6626   4.9365357307e+00   6.0207269845e+01    0.1442008   0.09695825 -65.71 0.0007046766    1.693    0.409
       107 -13.0015     71.9677    228.2043   6.4373853500e+01   1.7586677476e+01     0.597541    0.3577363 -81.41  0.003256575    2.113    0.527
