#   1 NUMBER                 Running object number                                     
#   2 MAG_AUTO               Kron-like elliptical aperture magnitude                    [mag]
#   3 X_IMAGE                Object position along x                                    [pixel]
#   4 Y_IMAGE                Object position along y                                    [pixel]
#   5 X_WORLD                Barycenter position along world x axis                     [deg]
#   6 Y_WORLD                Barycenter position along world y axis                     [deg]
#   7 A_WORLD                Profile RMS along major axis (world units)                 [deg]
#   8 B_WORLD                Profile RMS along minor axis (world units)                 [deg]
#   9 THETA_WORLD            Position angle (CCW/world-x)                               [deg]
#  10 FWHM_WORLD             FWHM assuming a gaussian core                              [deg]
#  11 ELONGATION             A_IMAGE/B_IMAGE                                           
#  12 ELLIPTICITY            1 - B_IMAGE/A_IMAGE                                       
         1 -12.4630    213.1249     27.8084   3.9011459933e+01   2.9430770416e+01    0.9121523    0.7609712  29.28  0.004455359    1.612    0.380
         2 -12.6071    201.7300     39.4209   4.3202651818e+01   3.0634964073e+01     1.297577     1.014992  39.93  0.007273084    1.552    0.356
         3 -10.3227     32.4425     14.8010   7.8712008121e+01   6.9814849945e+01    0.4066172    0.1421785 -39.68  0.001852944    2.776    0.640
         4 -10.6957    235.4352      4.2774   3.1800411644e+01   2.7118833265e+01    0.5770578    0.3580579 -76.38  0.003508113    1.432    0.302
         5 -10.2039    242.4205      2.7676   3.1020465963e+01   2.5813928277e+01    0.3861647    0.3307975 -50.21   0.00281458    1.239    0.193
         6  -8.3327     59.3096    220.6911   1.1484109107e+02   2.1168105272e+01    0.2221374    0.1726072 -29.93  0.001327206    2.003    0.501
         7 -14.9280      5.8487    161.8869   1.2175566136e+02   3.9826754845e+01     15.20781     1.450721 -75.85   0.03568516    8.670    0.885
         8  -7.9510     53.4677    220.2098   1.1601057802e+02   2.1988194314e+01     0.160691    0.1022672  85.44 0.0007621095    1.528    0.345
         9  -7.9314     44.7953    219.4153   1.1772631983e+02   2.3180474916e+01    0.1569012    0.1133599  24.42 0.0009579231    1.747    0.428
        10  -9.4695     49.2992    217.2836   1.1662454024e+02   2.3100449490e+01    0.3988917    0.2709215 -84.09  0.002457439    1.380    0.276
        11 -12.2827     24.2775    226.6108   1.2227554655e+02   2.3938953726e+01      1.17903    0.4940634  73.25  0.003374375    2.480    0.597
        12  -8.4834     91.8919    215.9154   1.0735805738e+02   1.7738111096e+01    0.1991159    0.1663578  66.41 0.0005210218    1.105    0.095
        13  -8.6548     65.2558    208.0963   1.1234794843e+02   2.3088236495e+01    0.3236028    0.2236286 -62.06   0.00187512    1.510    0.338
        14  -9.1393    109.1989    201.8533   1.0160619451e+02   1.8064552805e+01    0.4369054    0.2635837 -40.68  0.001678817    2.070    0.517
        15  -8.0406     29.0368    201.3553   1.1959555272e+02   2.8773302394e+01    0.1644053    0.1321576  63.32 0.0004643006    1.115    0.103
        16 -14.6166      7.2818    244.2345   1.2624955321e+02   2.2198096168e+01      2.79415     1.808094  23.32   0.01893722    2.189    0.543
        17  -9.1443     61.3892    199.5220   1.1230981176e+02   2.5477402914e+01    0.2609315    0.1748285  74.56 0.0006179761    1.484    0.326
        18 -13.3175      9.0752    207.0673   1.2407100789e+02   2.9442106279e+01     1.286537    0.9945028  28.05   0.00813063    1.636    0.389
        19  -8.0889     99.6720    180.9106   1.0071882670e+02   2.4258346472e+01    0.1943296    0.1779279 -78.98 0.0005349587    1.083    0.077
        20 -12.3923     57.5128    240.4735   1.1685975065e+02   1.7440043485e+01    0.7790902    0.4532467  50.87  0.003246674    1.400    0.285
        21  -9.4755     41.1826    179.0382   1.1485718176e+02   3.2583651253e+01    0.2238732    0.1816949 -71.80 0.0003585462    1.172    0.147
        22 -14.2320     34.4199    249.4306   1.2176300064e+02   1.8445834384e+01     9.616908     3.052141  24.93   0.02420243   12.446    0.920
        23 -10.2787     67.0681    175.3048   1.0805284575e+02   3.0358910812e+01    0.4442084    0.2745692 -38.80  0.002090619    2.153    0.536
        24 -10.3127     71.6358    170.1889   1.0618064661e+02   3.0974458590e+01    0.3484542    0.2749296 -32.56  0.001221055    1.592    0.372
        25  -7.9616     33.8243    171.2393   1.1583289295e+02   3.5199561094e+01    0.2358081    0.1033716  64.39 0.0009624275    2.858    0.650
        26 -10.5946     87.0392    154.7431   9.9605966797e+01   3.2504520003e+01    0.6342643    0.4185172 -30.24  0.001621473    2.055    0.513
        27 -11.6514     58.3755    131.1073   1.0358037574e+02   4.2381686575e+01    0.9388573    0.5185434 -86.11  0.003751945    2.601    0.615
        28 -11.0575     80.7741    161.1745   1.0239749816e+02   3.1871401729e+01    0.7457052    0.3888627  56.46 0.0004600553    2.353    0.575
        29 -11.9437     68.6943    156.4685   1.0489379434e+02   3.4728700724e+01    0.6650687    0.5211614  -3.21  0.001531406    1.738    0.425
        30 -11.9830     68.6006    144.4109   1.0293141654e+02   3.7736745030e+01     1.052895    0.6458098  71.02  0.003170582    2.219    0.549
        31  -7.5689    156.5313    158.5326   8.2463300946e+01   1.9019795597e+01    0.1498374    0.1468847   8.47 0.0001382597    1.027    0.026
        32  -8.8996     33.1389    155.8560   1.1433385768e+02   3.8978541848e+01    0.2876178    0.1338549 -47.85  0.001286271    2.383    0.580
        33  -9.3191     53.5412    149.1539   1.0793712815e+02   3.8454776155e+01    0.2582206    0.1890598  -6.92  0.001320429    1.948    0.487
        34  -8.9900    133.6539    143.1777   8.4718687133e+01   2.6995104347e+01    0.9150073    0.1979325 -53.36  0.001881453    7.164    0.860
        35 -10.1101     33.2213    140.7892   1.1244953689e+02   4.2675339961e+01    0.7173085    0.0417366 -63.39  0.001916704    5.420    0.815
        36  -9.3648     82.1174    141.8878   9.8604135046e+01   3.6430765950e+01    0.3218302    0.2330505  65.56   0.00124531    1.622    0.384
        37  -9.4327    101.6474    139.9174   9.2652916496e+01   3.3745216364e+01      0.47914    0.3031574 -26.30  0.001931184    2.276    0.561
        38 -10.4693     89.0025    139.6077   9.6181374801e+01   3.5925473547e+01    0.2955279    0.2540213 -34.93 0.0004406121    1.243    0.195
        39  -9.8830     24.8836    137.7017   1.1440330164e+02   4.4173364588e+01     0.324711    0.1696319  32.51  0.001650291    2.110    0.526
        40  -9.1061    110.8598    130.4999   8.7956511566e+01   3.4362235013e+01    0.3271511    0.2490729 -10.26  0.001480706    1.736    0.424
        41  -8.6070    106.1630    130.5208   8.9293850143e+01   3.5218692002e+01    0.2862041    0.2510393 -60.36  0.001251445    1.133    0.117
        42 -10.0938     66.7170    128.6669   1.0059491438e+02   4.1920260892e+01    0.3659886    0.2411057 -82.16  0.001686191    1.817    0.450
        43  -8.9987     98.3995    126.2268   9.0551089344e+01   3.7632549835e+01    0.2999732    0.2313098 -16.10 0.0009059071    1.626    0.385
        44  -8.3395    107.7568    119.1483   8.6110251928e+01   3.7633160002e+01    0.2164261    0.2035216 -73.91 0.0004334431    1.117    0.105
        45 -11.6285     10.1060    188.4092   1.2270609359e+02   3.3414766775e+01    0.3190563     0.269212  40.43  0.002289829    1.383    0.277
        46  -8.2149     49.3268    145.3204   1.0854681580e+02   3.9893413868e+01    0.1402247   0.09647524 -38.71 0.0007047292    1.684    0.406
        47  -8.0231    205.9406    110.2511   6.0521227583e+01   1.8348039317e+01    0.1826038    0.1285887  53.65  0.000578406    1.539    0.350
        48  -9.0451     33.1240    109.3833   1.0765451978e+02   5.0438972729e+01    0.2348789      0.14364 -69.44  0.001105031    1.473    0.321
        49  -9.3538    243.6044     94.8384   5.0967725671e+01   1.3188485459e+01    0.2062723    0.1063525 -45.16 0.0009547705    1.718    0.418
        50  -8.3558    126.4789     94.4664   7.4067567295e+01   3.9362301389e+01    0.2821448    0.1487088  55.81  0.001040695    2.317    0.568
        51  -8.0288     74.7430     85.0335   8.7441268113e+01   5.1166516778e+01    0.2067656    0.1742458 -37.91 0.0004054273    1.091    0.083
        52  -8.3724    114.5101     83.9956   7.4320207481e+01   4.4065506466e+01    0.2174075    0.1324835 -63.75  0.000810294    2.560    0.609
        53  -7.9290     69.8133     81.6283   8.8187208795e+01   5.2663989610e+01    0.1900639     0.130634  43.18 0.0006927322    1.655    0.396
        54 -12.1004     41.6534    200.7301   1.1682439004e+02   2.7563506492e+01     1.025706    0.6607871  86.07  0.001890891    1.436    0.304
        55 -12.4154     51.8632    190.4576   1.1353349911e+02   2.8708366585e+01     2.552485     1.334014 -86.93   0.01152068    2.084    0.520
        56  -7.4154     37.6927     56.7180   9.3112064055e+01   6.1979991467e+01    0.1328862   0.08456107 -23.46 0.0006977055    1.561    0.359
        57  -8.5236     48.7858    225.1126   1.1737091082e+02   2.1537751181e+01    0.1742615    0.1292728  67.69  0.001139895    1.118    0.105
        58 -11.8839    192.0393     46.2345   4.6287130314e+01   3.2035648554e+01     0.756597    0.6010988  34.30  0.002055582    1.534    0.348
        59  -8.3169     86.7451    249.2236   1.1193250028e+02   1.2001678895e+01    0.1867511    0.1360902 -80.27 0.0009280049    1.517    0.341
        60  -8.7091    143.9740     40.9661   5.2972483997e+01   4.4522715421e+01    0.2144254    0.1980049  72.94 0.0004388961    1.081    0.075
        61  -8.7732     77.1808    225.8407   1.1160184637e+02   1.7777299138e+01    0.2719967    0.1640545  79.35  0.001253707    1.916    0.478
        62  -9.3476    140.5446     46.0936   5.5359941831e+01   4.4651636626e+01    0.3470842    0.2520424 -75.56 0.0008798135    1.845    0.458
        63  -8.9492     53.3816    230.4799   1.1688015040e+02   1.9902371620e+01    0.3785791    0.1710226 -87.60   0.00179474    2.655    0.623
        64  -9.2752     59.0636    230.1367   1.1571628699e+02   1.9272707550e+01    0.2323385    0.1609003 -74.98 0.0004668976    1.461    0.316
        65  -8.8469     33.3655    226.7986   1.2054199079e+02   2.2942381968e+01    0.1979292    0.1467748  83.47 0.0007187729    1.150    0.130
