#   1 NUMBER                 Running object number                                     
#   2 MAG_AUTO               Kron-like elliptical aperture magnitude                    [mag]
#   3 X_IMAGE                Object position along x                                    [pixel]
#   4 Y_IMAGE                Object position along y                                    [pixel]
#   5 X_WORLD                Barycenter position along world x axis                     [deg]
#   6 Y_WORLD                Barycenter position along world y axis                     [deg]
#   7 A_WORLD                Profile RMS along major axis (world units)                 [deg]
#   8 B_WORLD                Profile RMS along minor axis (world units)                 [deg]
#   9 THETA_WORLD            Position angle (CCW/world-x)                               [deg]
#  10 FWHM_WORLD             FWHM assuming a gaussian core                              [deg]
#  11 ELONGATION             A_IMAGE/B_IMAGE                                           
#  12 ELLIPTICITY            1 - B_IMAGE/A_IMAGE                                       
         1 -10.8302     33.3963     63.1215   9.2426004758e+01   6.1790484389e+01     1.614605    0.7410858 -23.74  0.005805013    3.452    0.710
         2 -10.3623     10.4819     18.5416   8.8488638392e+01   7.2843881881e+01     1.393864    0.5197053 -21.16  0.003912493    7.274    0.863
         3 -11.0919     23.9575     31.9851   8.6125235192e+01   6.9095244444e+01      1.49952    0.5460982 -34.88  0.005041507    2.977    0.664
         4 -10.8738     37.6773     10.5381   6.7891246472e+01   7.0520439575e+01     1.179498     0.397706 -42.86  0.004456438    4.312    0.768
         5 -10.3790     27.6945     11.1017   7.3673088137e+01   7.1974468782e+01    0.8636414    0.4207592  37.48   0.00449847    1.963    0.491
         6 -10.1710     18.2485      5.2094   7.6123114279e+01   7.4060337294e+01    0.6055318     0.404666 -44.65  0.002390711    1.946    0.486
         7  -9.3712      2.3219     13.9918   9.2064619782e+01   7.4315420788e+01    0.4210242    0.2634982 -66.42  0.002068296    2.524    0.604
         8 -10.4587      5.6706      4.6762   8.4690949836e+01   7.5553004441e+01    0.5589284    0.3756121   8.50  0.001620591    1.296    0.228
         9 -10.2977      5.0135     41.5319   1.0081185158e+02   6.8833118664e+01    0.7505282    0.3624257 -68.29  0.003375059    2.397    0.583
        10 -10.0381      7.3630     27.7924   9.4566632072e+01   7.1425074829e+01     0.335689    0.2907665  44.90   0.00109936    1.622    0.383
        11 -10.6937    134.0239     30.8277   4.6743406317e+01   4.7362761557e+01    0.3595513     0.275989   1.24 0.0002310173    1.677    0.404
        12  -8.8437     72.0226      8.3804   5.2835364820e+01   6.4178537964e+01    0.2291133    0.1838608  -8.87 0.0004485259    1.343    0.255
        13 -10.1987     62.9925      3.2409   5.3286067399e+01   6.6557414410e+01    0.5903444    0.4279985  -6.48  0.003597471    1.484    0.326
        14 -10.1054     73.6339     17.5954   5.6566459104e+01   6.2877733330e+01     1.147277    0.3123867 -26.55  0.003859248    4.329    0.769
        15  -9.8244     60.7030     31.6080   6.7712997451e+01   6.3629216659e+01    0.8146004    0.4412179 -22.50  0.003283381    2.196    0.545
        16 -10.1261     69.4488     40.7224   6.8120178274e+01   6.0581000300e+01     1.281545    0.4074294 -36.47  0.004547952    3.332    0.700
        17 -10.1952     76.3305     31.9833   6.1949375058e+01   6.0507454368e+01    0.7143379    0.5284051  87.03  0.002481174    2.291    0.563
        18  -9.6369     63.3247     21.1721   6.1900751844e+01   6.4558625785e+01    0.5443856    0.3793733 -64.45  0.002644825    2.656    0.623
        19  -9.9596     64.4808     13.3642   5.7755540151e+01   6.5244960186e+01    0.4032764    0.2755404  16.33 0.0001538052    1.553    0.356
        20  -9.0287     45.2803     15.6772   6.6890503340e+01   6.8591027114e+01    0.2356888    0.2102809  -7.40 0.0007586046    1.189    0.159
        21 -10.1044     53.1567     13.4391   6.2221793705e+01   6.7449404784e+01    0.8910301    0.4183236  25.91  0.003744781    2.793    0.642
        22 -10.0884     46.3160     29.1716   7.3003465859e+01   6.6497450749e+01     0.796824     0.288586 -43.50  0.001392326    3.089    0.676
        23  -9.0534    129.7324     19.1694   4.3689921570e+01   4.9700721278e+01    0.5174213    0.1724833 -31.53  0.002043486    3.027    0.670
        24  -9.6762    130.6915      5.5141   3.9039488958e+01   5.0748830610e+01    0.5025257    0.4106596 -50.33  0.003142867    1.319    0.242
        25  -8.6502    132.8271     16.8712   4.2417115278e+01   4.9183214458e+01    0.2729949    0.2065943 -49.47 0.0009117268    1.413    0.292
        26  -9.4264    134.0000     12.9896   4.0973201375e+01   4.9276887949e+01    0.5434285    0.2041485 -27.07  0.002284897    2.878    0.652
        27  -9.0620    115.2920      3.9175   4.0912052444e+01   5.4595116584e+01    0.3670911    0.2007135 -37.89  0.001152509    2.021    0.505
        28  -8.9115    112.1494     15.0223   4.5515474844e+01   5.4359753035e+01      0.32749    0.2017861 -40.64 0.0008803192    1.807    0.447
        29  -8.9145    114.1977      9.6775   4.3177353148e+01   5.4367823044e+01     0.309285    0.2107729  37.92 0.0006790504    1.535    0.349
        30  -9.0636     96.1315     14.8554   4.8992837740e+01   5.8155826674e+01    0.5139369    0.2323905 -17.58  0.002201751    2.808    0.644
        31  -8.6770    104.7462     14.4007   4.6831761692e+01   5.6182128274e+01    0.3989675    0.2125838  16.75  0.001643115    3.090    0.676
        32  -9.4999     85.3420     12.7727   5.0908818691e+01   6.0826601935e+01    0.3948862      0.25543 -57.68  0.001324899    2.241    0.554
        33  -8.0340     80.5291     12.2684   5.2043069081e+01   6.1948931577e+01     0.242046    0.1825368 -52.67  0.001376245    1.717    0.417
        34  -8.9260    125.8999      4.8992   3.9547682492e+01   5.1958343723e+01    0.2972283    0.2063099  38.67  0.001106482    1.566    0.361
        35  -8.6426    125.3025     12.9730   4.2368866656e+01   5.1386384501e+01    0.2242779    0.2155028 -24.96 0.0006094229    1.190    0.159
        36  -8.5774    126.9540      8.8355   4.0704621235e+01   5.1365125827e+01    0.2500884      0.17345  42.20  0.000899616    1.506    0.336
        37  -8.1401    141.5345     12.0035   3.9556021588e+01   4.7545812817e+01    0.2034835    0.1511992 -56.95  0.000579199    1.402    0.287
        38  -8.3685    137.6386      8.7780   3.9095128646e+01   4.8784507733e+01    0.2258209    0.1418936 -67.82  0.000700788    1.790    0.441
        39  -8.2424    156.1608      8.6315   3.6690104752e+01   4.4349287533e+01    0.3227669    0.1067724 -18.22   0.00112846    4.648    0.785
        40  -9.1727    102.1950      7.9518   4.4892165748e+01   5.7379299152e+01    0.3296105    0.2090692  88.89 0.0007000116    1.955    0.488
        41  -8.3593     97.8288      6.1391   4.5108335239e+01   5.8561345806e+01    0.2550437     0.169444  32.17  0.001398369    1.585    0.369
        42  -8.2498     95.9631      2.9782   4.4239338162e+01   5.9256982468e+01    0.2271947    0.1659568  64.04 0.0006239502    1.199    0.166
        43  -8.3083    165.7350      6.4241   3.5034735885e+01   4.2292252655e+01    0.1974422    0.1606846 -40.19 0.0004588974    1.310    0.237
        44  -8.4879    104.8087      1.8867   4.2035670685e+01   5.7259460673e+01    0.3759546    0.1488447  61.89  0.001568804    2.022    0.505
        45  -7.6536    110.3241      7.6441   4.3158007700e+01   5.5474356782e+01     0.137761    0.1170523  57.70 0.0004089379    1.035    0.034
        46  -8.8659    110.8085      4.1889   4.1794413676e+01   5.5647659476e+01    0.2738263    0.2288657 -49.49  0.001443429    1.353    0.261
        47  -8.4763     85.4724      6.3452   4.8104078575e+01   6.1393320772e+01     0.520493    0.1173485  41.28  0.001398411    6.106    0.836
        48  -8.7421     77.2884      5.7048   5.0024410094e+01   6.3279110218e+01    0.2658819     0.238471 -66.64    0.0013362    1.403    0.287
        49  -8.6633     78.7912      2.8466   4.8308108199e+01   6.3190199205e+01     0.288996    0.2285641  76.92 0.0007981157    1.413    0.292
        50  -8.3441    120.8939      6.1022   4.0747477259e+01   5.3066061276e+01    0.1982782    0.1604904 -81.22 0.0006095417    1.280    0.219
        51  -7.3903    143.3085      4.6749   3.7072947700e+01   4.7776792599e+01    0.1328647   0.08548497 -66.60 0.0003794516    1.652    0.395
        52  -7.6070    151.2898      1.6500   3.5235994993e+01   4.6122871617e+01    0.1320414   0.08164548 -63.46 0.0007026388    1.667    0.400
        53  -7.8527    136.0219      1.4701   3.7009684594e+01   4.9795959333e+01    0.1999464    0.1081907  70.47 0.0007147029    1.572    0.364
        54 -11.1025    108.7899    100.8181   7.4985922667e+01   4.1099954013e+01       1.4668    0.8238071 -52.51  0.004286884    1.905    0.475
        55  -8.2992    219.8568    250.1520   7.9677327919e+01  -5.5715148802e+00    0.1650273    0.1046366  -1.71   0.00107923    1.335    0.251
        56  -9.5451    201.7031    250.0803   8.2962248943e+01  -3.4994997443e+00    0.3359034    0.1150384  36.83  0.001533797    2.949    0.661
        57 -10.2279    191.9031    247.8495   8.4483029691e+01  -2.0227311861e+00    0.3144765    0.2685724 -41.63  0.002219546    1.637    0.389
        58 -11.2142    121.4011    109.4920   7.3705279376e+01   3.6611074311e+01     1.659014    0.6316931 -47.50  0.005582243    2.650    0.623
        59 -10.8366    123.4705     91.2687   6.8100738619e+01   4.0019730789e+01     1.062245    0.9688908   8.45  0.002188575    1.169    0.145
        60 -10.8334    133.8658    109.0491   7.0254833221e+01   3.4096340561e+01     0.885891    0.4179789 -47.46  0.002268492    2.148    0.534
        61 -10.0960    139.3452    103.9921   6.7530662864e+01   3.3974059882e+01    0.7712119    0.4133653 -44.05  0.001668006    1.844    0.458
        62  -9.8729     41.7276    121.9710   1.0264531537e+02   4.6542483923e+01    0.6819224    0.3569519 -89.84  0.002505184    2.914    0.657
        63  -9.8645     27.2759    122.4902   1.0781750326e+02   4.7811299703e+01    0.6693801    0.3283651  64.15  0.002556846    3.009    0.668
        64  -7.1910    158.3353    121.7038   6.7563196638e+01   2.6337822578e+01    0.1489874    0.1206476 -87.26 0.0007029693    1.648    0.393
        65  -7.3659    152.6817    120.6702   6.8605588804e+01   2.7716352865e+01    0.1559188    0.1191527  -2.29 0.0007047275    1.686    0.407
        66  -9.8123    140.7832    118.0267   7.0812857986e+01   3.0740577282e+01    0.4363217    0.3288804 -77.16  0.001387103    1.839    0.456
        67  -8.4640      1.6463    116.7116   1.1606748823e+02   5.1056808287e+01    0.3772889    0.1530642 -89.13  0.001498989    2.715    0.632
        68  -8.0771    237.5252    117.5107   5.2535501072e+01   1.2072389086e+01    0.1278703    0.1059997 -30.46 -5.728817e-05    1.071    0.066
        69 -10.1697     92.0640    112.8411   8.3380860293e+01   4.1545688373e+01    0.6732669    0.4997576  79.91  0.001656684    1.941    0.485
        70  -9.1517     92.3842    103.6895   8.0898096552e+01   4.3639420709e+01    0.7955488    0.4604647  17.14  0.002918549    2.640    0.621
        71  -8.3100    152.6593    115.1785   6.7245514869e+01   2.8845535456e+01    0.2165646    0.1367534 -34.42 0.0004952546    1.639    0.390
        72 -10.3187     78.2893    112.3165   8.7810084703e+01   4.4036153174e+01    0.7540859    0.4145344 -67.28  0.001896107    2.346    0.574
        73 -10.5143     63.0111     95.5108   8.9051197992e+01   5.0496273305e+01    0.9331017    0.5823107  85.57  0.001706673    3.396    0.706
        74  -9.0770     63.9705     86.4170   8.6198826735e+01   5.2489068932e+01     0.771619    0.4423501  -7.76  0.002685054    3.371    0.703
        75  -9.0927     63.9588    101.4762   9.0221484803e+01   4.8914200388e+01    0.4260782    0.3102724 -88.14  0.001946413    1.904    0.475
        76 -10.4585     65.8524    110.7524   9.1766154390e+01   4.6348236654e+01    0.9218549    0.6922417  82.87  0.002133717    1.770    0.435
        77  -9.6986     59.4164    109.2744   9.3741447646e+01   4.7629782975e+01    0.3911578    0.2987686 -86.27  0.001164415    1.602    0.376
        78  -7.6124    167.3961    114.1772   6.3744584763e+01   2.5952764991e+01    0.2101154    0.1333077 -50.32 0.0006235096    1.623    0.384
        79  -9.5494     14.5006    111.5211   1.1082949406e+02   5.1626496821e+01    0.4806953    0.2491293  80.78  0.001497642    2.523    0.604
        80 -11.1778     21.0338     99.9422   1.0652436233e+02   5.4109178794e+01       1.9588     0.941404 -83.54   0.00671785    2.651    0.623
        81 -10.5412     25.7264     77.8704   1.0001304199e+02   5.9161881832e+01    0.8511498    0.5248592  85.27  0.003744136    2.626    0.619
        82  -9.0337    177.5903    249.1692   8.7451337433e+01  -4.4429930384e-01    0.2310739    0.1173676 -52.00   0.00116215    2.905    0.656
        83 -10.0511     34.4695     90.2187   9.9111039369e+01   5.5349694387e+01    0.5890771    0.3419131 -86.68  0.001712495    2.641    0.621
        84  -9.8538     36.7539     80.9002   9.5889911512e+01   5.7361163734e+01    0.8976341    0.4251759 -16.04  0.002934324    4.146    0.759
        85  -8.3712    158.8811    111.5872   6.4935644582e+01   2.8251463602e+01    0.2785741    0.2075303 -48.32 0.0004853476    1.335    0.251
        86  -8.5228     99.0816    119.3329   8.2780832729e+01   3.8723557986e+01    0.3618717    0.2290664  -9.79  0.001301372    2.817    0.645
        87  -9.3964     35.9712    110.7211   1.0271483954e+02   5.0041931493e+01    0.2913554    0.2763445  38.32   0.00132136    1.145    0.127
        88  -9.0415     40.1908    106.8542   1.0038160007e+02   5.0592802941e+01    0.3569202    0.2009526 -78.86   0.00133074    2.181    0.541
        89  -9.6117    149.5865    103.0847   6.4843498367e+01   3.1932430363e+01    0.4445419    0.2954602 -55.52  0.001175182    1.676    0.403
        90  -8.5963    150.7183     95.7523   6.2632436859e+01   3.3111377696e+01    0.4398571    0.3373955 -32.76  0.002170928    1.335    0.251
        91  -9.4339      6.5989    103.4291   1.1268062018e+02   5.4169813984e+01    0.4338401    0.2564464  72.70  0.001300914    2.045    0.511
        92  -8.3706    165.9279    103.6595   6.1420414860e+01   2.8279615554e+01    0.2753946    0.1996128 -48.26 0.0005669164    1.361    0.265
        93 -10.8079     44.8835    102.1645   9.7602159395e+01   5.1254409920e+01    0.9184746    0.4961436  66.05  0.003167742    3.601    0.722
        94  -8.4502     73.9090    102.3788   8.6846974973e+01   4.7158918205e+01    0.2538403    0.2021798 -63.47 0.0006067415    1.341    0.254
        95  -8.7121    159.0189    101.0205   6.2200018584e+01   3.0277473858e+01    0.3202251    0.2047318 -48.25 0.0005282988    1.570    0.363
        96  -9.5286     81.6013    100.0275   8.3531147195e+01   4.6427463631e+01    0.4894971    0.3234217 -69.20  0.001057496    1.980    0.495
        97  -7.9713     82.8000     93.4163   8.1286795579e+01   4.7743848103e+01    0.3610519    0.2390807   0.94  0.001130729    2.286    0.563
        98  -8.9824    185.4829    100.1628   5.6781118188e+01   2.4765563068e+01    0.3454905    0.2456362 -26.34   0.00119491    1.512    0.338
        99  -9.6981     94.5443     97.1413   7.8394985513e+01   4.4727705877e+01    0.3916241    0.3195983  70.89 0.0008600992    1.535    0.348
       100  -9.2545     96.3468     90.4998   7.5900470896e+01   4.5844546795e+01    0.5811896    0.3649656   2.01  0.002066992    3.041    0.671
       101  -8.9297    164.4983     93.9016   5.9196684842e+01   3.0406900868e+01     0.358246    0.2248903 -43.92  0.001369032    1.539    0.350
       102  -9.5873    138.6900     92.4151   6.4528453911e+01   3.6431804678e+01     0.398086    0.3042777 -55.29 0.0008560938    1.400    0.286
       103  -9.1817    139.3690     74.4687   5.9210461924e+01   3.9609433809e+01    0.4744635    0.3186134 -50.01  0.002214302    1.569    0.363
       104  -9.4286    140.5115     82.1212   6.1175868767e+01   3.7971227214e+01    0.6269707      0.26058 -39.75  0.001709735    2.400    0.583
       105  -8.8976    239.1980     96.8030   4.8022554023e+01   1.4991522657e+01    0.1649726    0.1368577 -15.91 0.0004475007    1.362    0.266
       106  -8.2996    157.8653     91.5151   5.9936930995e+01   3.2316941115e+01    0.3013024    0.1800931 -56.14 0.0009534556    1.966    0.491
       107 -10.0857      4.4993     88.9913   1.1144120944e+02   5.7894202799e+01    0.7429902    0.3810724  83.91  0.002121778    2.571    0.611
       108  -9.4668      7.0047     78.0252   1.0850061499e+02   6.0446498457e+01    0.6047201    0.2091328 -31.01  0.002221529    3.481    0.713
       109 -10.4606     48.4180     82.5357   9.1360196164e+01   5.5594188289e+01     1.134775    0.5323305 -51.24  0.002463076    1.947    0.486
       110 -10.1439     63.0420     60.3966   7.8251746537e+01   5.8223530181e+01    0.7290302    0.2895584  36.86  0.001521598    2.494    0.599
       111 -10.6258     55.2789     70.8032   8.5001579202e+01   5.7293815179e+01    0.7415051    0.3850875  46.14   0.00285537    2.360    0.576
       112  -8.3317    150.4665     89.1173   6.0884168307e+01   3.4419816487e+01    0.2515948    0.2149999  52.93  0.000468362    1.186    0.157
       113 -10.1613     85.3807     86.1476   7.8268318487e+01   4.8893891320e+01    0.5113748    0.4013821 -76.78  0.001018977    1.710    0.415
       114  -9.7099     87.9731     78.4896   7.5013647623e+01   5.0031241244e+01    0.7071837    0.3674277  28.51  0.002694077    2.389    0.581
       115  -8.4580    163.3931     86.8461   5.7555608401e+01   3.1925280139e+01    0.2513241    0.1806541 -33.28 0.0006748132    1.417    0.294
       116 -10.2771    104.0318     82.5015   7.1074844663e+01   4.5963641194e+01    0.5290853    0.3336555 -55.15 0.0008980143    1.845    0.458
       117  -8.9046    103.9033     73.4781   6.8273280150e+01   4.7772460267e+01    0.4598189    0.2664773 -24.71   0.00172284    2.300    0.565
       118  -8.7440    105.7545     68.9809   6.6257008513e+01   4.8217539914e+01    0.4485727    0.3489839 -86.94  0.002000135    1.818    0.450
       119  -9.5388    109.6764     63.6347   6.3357004940e+01   4.8310248601e+01    0.4975706    0.3557054 -52.43  0.001417078    1.584    0.369
       120  -8.4298    110.8474     58.0913   6.1171393300e+01   4.8989928456e+01    0.3077715    0.2476102 -17.23  0.001273412    1.391    0.281
       121  -8.6705    236.1974     83.7913   4.5652323121e+01   1.7467361582e+01    0.2171453    0.1124112 -64.35 0.0009542294    2.830    0.647
       122  -8.7149    158.0438     82.5928   5.7485405299e+01   3.3885820430e+01    0.4704405    0.2415011 -28.55  0.001834949    2.373    0.579
       123  -7.2027    170.5195     83.4550   5.5285512590e+01   3.0922533561e+01    0.1426097    0.1353798 -62.47 5.083766e-05    1.014    0.014
       124  -8.8824    149.8975     80.7258   5.8675407445e+01   3.6076159747e+01    0.3042727    0.2170535 -39.39  0.001274033    1.393    0.282
       125  -8.7826    119.0578     80.2627   6.6040567759e+01   4.3162696992e+01    0.3313233    0.2281923 -53.24 0.0005716955    1.607    0.378
       126  -8.6694    119.9317     75.7459   6.4418550629e+01   4.3822496611e+01    0.3056546    0.2482757   1.32 0.0007124296    1.496    0.332
       127  -9.0106     74.2520     79.2203   8.0140638315e+01   5.2407990671e+01    0.6314991     0.282008 -49.70  0.001734629    2.269    0.559
       128  -7.9132     69.0314     79.4337   8.2178787239e+01   5.3250647496e+01    0.2725562     0.180243 -40.16 0.0006958342    1.484    0.326
       129  -8.1164    166.5489     78.5337   5.4721419170e+01   3.2654581627e+01    0.2253836    0.1750266 -50.20 0.0006861057    1.264    0.209
       130  -8.2447    184.0809     77.9850   5.1505864470e+01   2.8831089072e+01    0.2089679    0.1984672 -49.24 0.0005515466    1.054    0.052
       131  -7.2217    174.4679     78.5196   5.3276653627e+01   3.0872949156e+01    0.1414128    0.1325027 -62.47 0.0002211897    1.015    0.015
       132  -8.4199    156.9406     76.0424   5.5902043603e+01   3.5273322172e+01    0.2203838    0.2116918 -61.51  0.000507189    1.018    0.018
       133  -8.2546     63.4980     81.9813   8.5094127545e+01   5.3573751271e+01    0.2186966    0.1404081 -51.13 0.0005331764    1.536    0.349
       134  -9.4670    127.4392     74.8733   6.2197569819e+01   4.2282635283e+01    0.4359546     0.285741 -53.55   0.00127716    1.722    0.419
       135  -8.4324    130.0025     68.5019   5.9611088052e+01   4.2819744246e+01    0.3536644    0.1951314  35.39  0.001404392    2.258    0.557
       136  -8.7387    130.8343     64.3296   5.8119608465e+01   4.3332850501e+01    0.5140885    0.2190695 -42.74  0.001453248    2.411    0.585
       137  -9.3846     55.1841     63.1765   8.2523429569e+01   5.8921420156e+01    0.4639347    0.2947728   5.14  0.001552855    2.048    0.512
       138  -9.3647    115.0727     72.2474   6.4646320112e+01   4.5558191542e+01    0.5141818    0.3414105 -33.48   0.00176842    1.592    0.372
       139  -9.8679     81.6733     72.2201   7.5184885651e+01   5.2524216539e+01    0.4323536    0.3246825 -69.46   0.00108483    1.841    0.457
       140  -8.7228     83.5148     64.5218   7.1926241336e+01   5.3681141524e+01    0.5398537    0.3829046   1.92  0.002291646    1.860    0.462
       141  -9.1136    153.6681    249.3185   9.2295806850e+01   2.5971080080e+00    0.2636756    0.1318626  12.60  0.001189236    2.588    0.614
       142  -9.7066     16.0303     70.4167   1.0272648681e+02   6.1695607749e+01    0.5018589    0.2612731 -62.56  0.001179073    1.741    0.426
       143  -9.5527     17.0229     60.6028   9.9763994449e+01   6.3874856060e+01    0.6727196    0.2760744 -57.68  0.002994237    2.099    0.524
       144  -8.2868    232.9453    248.0566   7.7087693822e+01  -6.7173739839e+00    0.1399351    0.1262299   6.47 0.0003853641    1.636    0.389
       145  -9.0181    159.5209    245.4904   9.0574494799e+01   2.4317139663e+00    0.1251104   0.09991343  13.23 9.065183e-05    1.023    0.022
       146 -10.7857     21.8782     53.2520   9.5110735225e+01   6.5082016365e+01    0.8234711    0.5199354  86.16  0.003144489    3.461    0.711
       147  -9.9623    192.8207    235.3897   8.2435778460e+01  -3.3843013752e-01    0.3613144    0.3048117  56.79   0.00144639    2.014    0.503
       148  -9.7164    188.4814    233.4882   8.2986601122e+01   5.0176654728e-01    0.2478362     0.198039   2.17  0.001399891    1.023    0.022
       149 -10.1394     11.9156     45.5550   9.8090084049e+01   6.7530303037e+01      0.95125    0.4040863   3.01  0.002273094    2.953    0.661
       150 -10.4265    213.0206    229.5638   7.7717111410e+01  -2.0043312003e+00    0.2172559    0.1681546 -12.91  0.001484222    1.118    0.105
       151  -9.4012    181.0363    229.5989   8.3860177451e+01   2.0804942391e+00    0.3083846    0.2061128  32.50  0.001013433    1.429    0.300
       152  -9.2272    182.2214    224.9920   8.2897365586e+01   2.6520818611e+00    0.2451968    0.1895019 -10.31            0    1.176    0.149
       153  -8.4823    182.9969    220.4215   8.2006550063e+01   3.2825625697e+00    0.2027267    0.1691267 -27.65 0.0001045839    1.258    0.205
       154  -7.3025    175.6597     72.3100   5.1445058943e+01   3.1617289568e+01    0.1475782    0.1039884 -71.65 0.0007044788    1.691    0.409
       155  -8.4359    169.4400     70.9394   5.2156067468e+01   3.3248372420e+01    0.2113417    0.1347353 -37.23 0.0005605131    1.541    0.351
       156  -8.2546    156.5241     69.9109   5.4268338866e+01   3.6394560934e+01    0.2111881    0.1400133 -37.02 0.0004248707    1.512    0.339
       157  -9.3728    146.8973     68.9138   5.5929517465e+01   3.8805930800e+01    0.3989384    0.2653291 -57.11 0.0009215306    1.710    0.415
       158  -9.7573     94.8518     68.0535   6.9316799859e+01   5.0716055555e+01     0.462924    0.2732893 -48.23 0.0008638103    1.845    0.458
       159  -8.2028     95.4598     61.0003   6.6711136885e+01   5.1881765094e+01    0.3714529    0.2434182  -8.46  0.001252897    2.271    0.560
       160  -8.7800     98.6444     56.6604   6.4201995732e+01   5.1949397706e+01    0.4164186    0.3077377  15.07  0.002023309    1.646    0.393
       161  -9.2162    138.1086     65.9439   5.6948257028e+01   4.1359698962e+01    0.3829269    0.2651404 -51.79  0.001031794    1.551    0.355
       162  -7.6455    138.9568     61.5345   5.5423253966e+01   4.1878435918e+01    0.2181279    0.1370466  53.57 0.0006383426    1.535    0.349
       163  -8.9746    121.2493     65.7883   6.0940466797e+01   4.5309399512e+01    0.3332668    0.2548547 -56.70 0.0005824863    1.477    0.323
       164  -7.9173    122.0573     61.0551   5.9213737896e+01   4.5922498035e+01    0.3113244     0.221508  28.97 0.0009347945    1.653    0.395
       165  -7.8807    170.8457     64.8290   5.0271046670e+01   3.3888883240e+01    0.1942766    0.1560651 -70.23 0.0003449352    1.297    0.229
       166  -8.0148    157.8161     63.2150   5.2131317692e+01   3.7165085931e+01    0.2496102     0.180152 -50.30 0.0007589016    1.397    0.284
       167  -9.9422     73.2044     59.0554   7.3755657989e+01   5.6684815471e+01    0.5516042    0.2824798 -51.73 0.0009131478    2.380    0.580
       168  -9.1719     75.3179     50.5158   6.9783881931e+01   5.7824382599e+01    0.6379398    0.3401666  23.29  0.002468282    2.719    0.632
       169  -8.4711     53.5972     38.8000   7.3900450122e+01   6.3746444136e+01    0.2878986    0.1831109 -49.98  0.001140643    1.943    0.485
       170 -10.1378     50.0767     54.0620   8.1541828331e+01   6.1523730861e+01    0.7211296    0.3350147 -50.54  0.002862877    2.296    0.564
       171  -9.6745     55.7604     43.6040   7.4940684392e+01   6.2564179028e+01    0.8284166    0.4537023   2.57  0.002863107    3.996    0.750
       172  -8.1345     10.2396     60.7056   1.0323146506e+02   6.4324721691e+01    0.2665059    0.1839638  60.19  0.001425094    2.078    0.519
       173  -8.1845    164.5724     59.9802   5.0016329025e+01   3.6081510718e+01     0.208354      0.13267 -37.92 0.0005147662    1.554    0.357
       174  -7.9157    152.5152     60.0620   5.2226375692e+01   3.8902011825e+01    0.2141186    0.1369173 -39.05 0.0006813411    1.566    0.361
       175  -8.7569    146.7040     58.2850   5.2836498617e+01   4.0551947359e+01    0.3598857    0.1742107 -41.21  0.001212678    2.064    0.516
       176  -7.7283    147.6353     52.6918   5.0987749710e+01   4.1169085001e+01     0.313541    0.1320247 -33.19   0.00122289    2.480    0.597
       177 -10.2295     85.2407     47.9388   6.5295168357e+01   5.6256689659e+01    0.5068837    0.3735511 -69.30  0.001090786    2.084    0.520
       178  -8.4615     87.6561     58.1450   6.8250696391e+01   5.4021643796e+01    0.2880263    0.2369892 -62.51  0.000773909    1.516    0.340
       179  -8.2844     88.2058     54.1823   6.6632245378e+01   5.4598747712e+01    0.5681868    0.3082181  18.14  0.001875963    3.836    0.739
       180  -8.0777    141.9921     48.2691   5.0734872758e+01   4.3157754463e+01    0.2314111    0.1932721 -40.55 0.0004366081    1.239    0.193
       181  -8.7396    138.9070     56.6685   5.3944751869e+01   4.2653562286e+01    0.3429561    0.2083969 -48.24 0.0008852332    1.754    0.430
       182  -8.1644    139.0350     51.8022   5.2416178501e+01   4.3355431725e+01    0.3627102    0.2128283  33.47  0.001532168    2.285    0.562
       183  -8.7960    130.1322     56.6355   5.5861565564e+01   4.4740534528e+01    0.5232264    0.2328362 -29.97  0.001489009    2.604    0.616
       184  -8.7406    121.0418     46.7946   5.4751540183e+01   4.8376233330e+01    0.2465054    0.2021357 -34.50 0.0004634001    1.292    0.226
       185  -9.1781    118.0870     55.0999   5.8258505222e+01   4.7809756946e+01    0.3385414    0.2664794 -67.53 0.0006464546    1.543    0.352
       186  -8.2537    119.4773     50.5228   5.6380603828e+01   4.8193124687e+01    0.2964943    0.1321221  53.48 0.0009671687    2.087    0.521
       187  -7.8597    169.2369     55.2571   4.7942838401e+01   3.5692995655e+01    0.2305037   0.09235851 -44.14 0.0008991364    2.429    0.588
       188  -8.7064    105.7152     52.1252   6.0537081317e+01   5.1122169487e+01    0.5790871    0.2827274 -34.70  0.001921937    2.168    0.539
       189  -8.6723    111.9229     46.7191   5.6972171229e+01   5.0527061394e+01    0.2723776    0.2421359  45.19 0.0003948202    1.058    0.055
       190  -8.7649    113.4877     41.8763   5.4881200662e+01   5.0857806799e+01    0.5905531    0.3126558  -1.85  0.001757634    5.325    0.812
       191  -8.5741    162.7429     53.8334   4.8615236268e+01   3.7418423426e+01    0.2386593    0.1698593 -32.82 0.0008001523    1.466    0.318
       192  -9.4050     43.2445     54.8442   8.4984067626e+01   6.2336757101e+01    0.6158451    0.2777421 -27.27   0.00142993    3.427    0.708
       193  -8.0916    157.4725     48.4928   4.7988123678e+01   3.9423546270e+01    0.2570626    0.1098957 -44.57  0.001030908    2.363    0.577
       194  -9.5828    130.5154     46.2433   5.2440456516e+01   4.6198448041e+01    0.7747259    0.3452632 -21.51  0.001529429    3.393    0.705
       195  -8.6161    132.8419     35.7982   4.8577437889e+01   4.7038287843e+01    0.3375483    0.1979072 -46.52 0.0004397696    1.846    0.458
       196  -7.3497     72.4303    225.4254   1.0741447900e+02   1.7746639220e+01    0.1263147    0.1112534  42.82 7.544637e-05    1.033    0.032
       197  -8.1672    149.7767     47.5418   4.9055342847e+01   4.1393096342e+01    0.2450851    0.1838694 -38.79 0.0002454734    1.365    0.268
       198  -7.3139    152.5296     53.5485   5.0326205802e+01   3.9877238528e+01    0.1412708     0.129887 -83.96 2.662972e-05    1.058    0.055
       199  -8.0045    102.8542    222.8001   1.0002606172e+02   1.4257009355e+01    0.1814479    0.1440641  56.07 0.0004628772    1.325    0.245
       200  -7.1885    192.6938    221.2731   8.0218096430e+01   1.8303741269e+00    0.1085687   0.09664925  41.23 0.0002031395    1.543    0.352
       201  -7.4266    210.0123    217.9121   7.6360625980e+01   7.3805396827e-02     0.144132    0.1125897 -12.59 0.0002780893    1.084    0.077
       202 -10.2874    149.7707    214.1483   8.8044310280e+01   9.1378481075e+00    0.2455235    0.2165684 -11.53 0.0003831575    1.117    0.105
       203  -8.4514    101.8918    209.6051   9.8551280245e+01   1.7103208263e+01    0.1997972    0.1819655 -28.73 0.0005274279    1.209    0.173
       204  -7.1766     39.5240    208.4700   1.1365909585e+02   2.5252330651e+01    0.1246647    0.1129901  62.85 0.0001199881    1.060    0.057
       205  -9.9383     10.3897    207.4054   1.2043079777e+02   2.8285439542e+01    0.4752583    0.2806746  12.68   0.00260146    2.177    0.541
       206  -8.6196    172.6822    199.8999   8.0675026614e+01   8.2950588441e+00    0.2223912    0.1725584  25.69 0.0003780618    1.208    0.173
       207  -9.0877     84.9472     21.3156   5.4660523838e+01   6.0005762087e+01    0.3103039    0.2453263  54.07 0.0006810313    1.179    0.152
       208  -8.3866    143.0086     43.8010   4.9167091741e+01   4.3533871538e+01    0.2371953    0.1416014  39.32  0.001070732    1.977    0.494
       209  -8.7992     39.8861     34.0284   7.8369621954e+01   6.6691893256e+01    0.3250835    0.2718642 -23.63  0.001719611    1.148    0.129
       210  -9.8480     37.8153     41.9687   8.2763842822e+01   6.5564021258e+01    0.3801035    0.3228434  64.52   0.00194311    1.783    0.439
       211 -10.1504     35.9231     37.7898   8.2021581116e+01   6.6581709218e+01    0.4270608     0.262782 -21.31 0.0003882101    1.734    0.423
       212  -9.8063    153.1449     40.5757   4.6410598227e+01   4.1525477839e+01    0.4498367    0.3389403   9.37  0.001610413    1.857    0.462
       213  -8.7287    122.1529     40.1431   5.2248252216e+01   4.9042340080e+01     0.412258    0.2553243 -20.31   0.00193029    1.965    0.491
       214  -9.0008    110.3501     32.9440   5.2456286794e+01   5.2784419484e+01    0.3489414     0.245706 -46.00 0.0009358267    1.592    0.372
       215  -9.0256    104.9225     40.4476   5.6566778371e+01   5.3050181040e+01    0.3865791    0.2417863 -49.20  0.001096486    1.900    0.474
       216  -8.3137    106.3955     35.8415   5.4493933034e+01   5.3336439654e+01    0.2786699    0.1972576  31.03  0.001123837    1.536    0.349
       217 -10.2941     90.3226     37.6694   5.9693381664e+01   5.6727611843e+01     1.050472    0.3833655  38.18  0.003523927    3.414    0.707
       218  -8.8297    139.5391     39.7179   4.8549347142e+01   4.4915273647e+01    0.4159004      0.23387 -34.45  0.001952499    1.852    0.460
       219  -9.0595    144.2690     36.4610   4.6683266618e+01   4.4190803832e+01    0.3039164    0.1919493 -54.74 0.0007064425    1.748    0.428
       220  -8.6784    118.8926     34.7440   5.1121923779e+01   5.0528279963e+01    0.2691784    0.1875868 -38.51  0.000621065    1.536    0.349
       221  -9.5725      6.9179     32.2917   9.6559955860e+01   7.0587344522e+01    0.2821596    0.1912052 -10.56 0.0005659249    1.363    0.266
       222  -8.5135    226.8292     34.9311   3.6178796755e+01   2.5860815721e+01    0.1811846    0.1517325 -80.96 0.0003782041    1.133    0.118
       223  -9.0822    101.1619     32.1752   5.4484245950e+01   5.5024891063e+01     0.425477    0.2199569 -35.75  0.001456662    2.069    0.517
       224  -7.8218     50.3339     35.2803   7.3864682528e+01   6.4869014006e+01    0.1370591    0.0942934   5.04 0.0002376379    1.611    0.379
       225  -8.0533    153.1023     34.4891   4.4625095195e+01   4.2306529412e+01    0.2100272    0.1248372  66.42   0.00102724    1.573    0.364
       226  -8.1757    162.7293     72.8989   5.3910753529e+01   3.4467813083e+01    0.2465676     0.207281 -60.83 0.0006040873    1.204    0.169
       227  -8.8103    192.6076    195.1057   7.5723071511e+01   6.1416736118e+00    0.5629343    0.2923422 -59.03   0.00202195    4.469    0.776
       228  -7.6754    158.1526    196.9007   8.3311941353e+01   1.1099702764e+01     0.200714    0.1627359 -83.65 0.0009808304    1.948    0.487
       229  -9.3942     33.9501    196.7782   1.1406484542e+02   2.8504961072e+01    0.2234831     0.209772 -52.70 0.0003074014    1.243    0.195
       230  -8.4608     42.4679     28.0022   7.4335831118e+01   6.7290111473e+01    0.2126853    0.1557004   5.78 -5.794714e-05    1.329    0.247
       231  -8.0336    239.0353     29.9695   3.4180020406e+01   2.4090385577e+01    0.1730055    0.1321005 -58.58            0    1.034    0.033
       232  -8.7796    156.8260     27.0041   4.1883586348e+01   4.2298394275e+01    0.2677688    0.1560073 -76.66 0.0007749227    2.112    0.527
       233  -9.6092    153.3279     26.3700   4.2201356952e+01   4.3209599514e+01    0.5177228    0.2114038 -15.60  0.001735473    4.636    0.784
       234  -8.2655    144.4497     24.8986   4.3100422681e+01   4.5516908511e+01    0.3062438    0.1334655 -27.80  0.001124043    2.524    0.604
       235  -8.9827     91.6227     26.3074   5.4793391514e+01   5.7928215809e+01    0.3310086    0.2274849 -49.92 0.0009918729    1.805    0.446
       236  -8.3050     91.9888     21.2735   5.2653157985e+01   5.8430356942e+01    0.3713074    0.2104679  27.96  0.001465901    2.169    0.539
       237  -8.6618    128.3621     25.5077   4.6043491500e+01   4.9350864881e+01    0.2873085    0.2115059 -46.11 0.0008573537    1.462    0.316
       238  -8.6563      5.7626    190.5425   1.2058336651e+02   3.2493734244e+01    0.2883111    0.1039302  27.10  0.001302793    2.646    0.622
       239  -8.3954     22.0046    190.0000   1.1652812256e+02   3.1248085375e+01     0.202219    0.0697058  24.10 0.0008087986    2.987    0.665
       240  -7.4371    249.6453    186.2673   6.4056041979e+01  -2.5715463320e-01   0.09938989   0.09196241 -47.58 0.0004277862    1.630    0.387
       241  -7.4504     99.8479    186.1987   9.5686667736e+01   2.2558427470e+01    0.1832594    0.1601354  -3.95 0.0003520905    1.258    0.205
       242  -7.5792    119.2985     27.3566   4.8460818630e+01   5.1328464759e+01    0.1420699   0.09747295  30.41 0.0007035568    1.703    0.413
       243  -7.9474    110.1777     25.9349   4.9939204721e+01   5.3670875508e+01    0.2050946    0.1806284 -79.92  0.001211332    1.265    0.210
       244  -8.0502    149.9607     25.2745   4.2372633970e+01   4.4143301487e+01    0.1924293    0.1589457  73.61 0.0004918667    1.099    0.090
       245  -7.5469    140.3850     22.7701   4.3083256066e+01   4.6735087703e+01    0.1644165    0.1311304 -10.76 0.0006781194    1.530    0.346
       246  -9.4713    118.4397     21.3545   4.6529898349e+01   5.2202845206e+01    0.3607282    0.2660819  48.78 0.0009531028    1.265    0.210
       247  -8.3949    111.5719     20.8623   4.7772221263e+01   5.3901506000e+01    0.3804898    0.1692846 -33.53  0.001677098    2.384    0.581
       248  -7.1980     81.3935    186.5125   1.0059438837e+02   2.5182608990e+01    0.1354696    0.1334127  50.29 -0.0001400265    1.051    0.048
       249  -7.0678    105.2876    182.3798   9.3658711938e+01   2.2594344624e+01    0.1507134    0.1088767 -22.17 0.0007015764    1.734    0.423
       250  -9.0340     36.2700    181.1215   1.1206257945e+02   3.1998786305e+01     0.215202    0.1983456  31.98 0.0002924409    1.174    0.148
       251  -9.0503    102.8759     20.9647   4.9771360232e+01   5.5948345737e+01    0.2903163    0.2481772 -64.64 0.0008128231    1.367    0.268
       252  -7.1102    188.7489     19.2967   3.6056818161e+01   3.5721806304e+01    0.1254284   0.07933016 -62.10 0.0001727206    1.490    0.329
       253  -8.9926    155.2367     17.8756   3.9459831683e+01   4.3667857972e+01    0.2733338    0.1468416 -34.33  0.001159901    1.915    0.478
       254  -8.5524    138.8025     18.3731   4.1949813085e+01   4.7581523277e+01     0.312906    0.1757576  40.83  0.001080129    2.068    0.516
       255 -10.4861    100.9974    175.9963   9.3740324228e+01   2.4743456076e+01    0.2043094    0.1961526  34.46            0    1.005    0.005
       256  -8.6479    120.6331     15.7100   4.4132114998e+01   5.2252212652e+01    0.2161648    0.1380599  36.36  0.000914605    1.744    0.427
       257  -8.0915    230.6475    167.9510   6.3680779931e+01   5.0613997090e+00    0.3888163   0.09926873 -42.91  0.001348342    3.784    0.736
       258  -6.7364    132.0085    168.7810   8.4339426974e+01   2.1239001501e+01    0.1763741    0.1172948  34.73            0    1.461    0.316
       259  -8.1556    134.0000    147.5849   7.9481145113e+01   2.5600626412e+01    0.3306298   0.08581903 -48.65 0.0009048025    3.854    0.741
       260  -9.1205    179.4399    146.8996   6.8803574251e+01   1.7200502586e+01    0.2382934    0.2138549  21.01   0.00029406    1.135    0.119
       261  -9.9782     67.0214    142.6567   9.7861988055e+01   3.8065147546e+01    0.8194656    0.4503249 -70.96  0.003377808    2.028    0.507
       262  -7.3709    184.9192    144.0215   6.7061685551e+01   1.6745821974e+01    0.1650271    0.1540039   9.88 0.0009539376    1.089    0.082
       263  -8.5173    122.9357    144.0365   8.1617346163e+01   2.8473297466e+01    0.2161596    0.2083464   7.83            0    1.019    0.018
       264  -7.2786    183.7009    137.2782   6.5816264850e+01   1.8254804892e+01    0.1336848    0.1138228 -78.43 0.0002773639    1.538    0.350
       265  -8.8942    112.4014    133.7469   8.2237196755e+01   3.2835954720e+01    0.3959624    0.2682082  67.52  0.001259259    2.154    0.536
       266  -9.6199     79.2986     23.7783   5.7451353131e+01   6.0947557721e+01    0.5312445    0.2630559  36.45  0.001569323    2.084    0.520
       267  -8.0606     55.7787    134.0793   9.9974137158e+01   4.1760682395e+01    0.3052172    0.1735712  88.94  0.001160831    2.637    0.621
       268  -8.7149     86.5659    134.3418   9.0094906422e+01   3.7225716040e+01    0.4125278    0.2316968  32.33  0.001108136    1.814    0.449
       269  -8.7633     82.3957    130.6136   9.0617735871e+01   3.8831486690e+01    0.4660504    0.2625514 -71.16  0.001786955    2.329    0.571
       270  -8.2773    135.7701    131.9603   7.5481717173e+01   2.8737215875e+01    0.6728418    0.1252115 -45.37  0.001602005    5.276    0.810
       271  -8.8285    132.0141    131.0060   7.6229560349e+01   2.9691752599e+01    0.3867047    0.2689472 -81.54  0.001330698    2.381    0.580
       272 -10.1451     58.2769    124.1456   9.7283045645e+01   4.4002996111e+01    0.9186464    0.5051103  72.34  0.002073175    3.522    0.716
       273 -10.2431     71.4033    125.7248   9.3162444244e+01   4.1762050251e+01    0.6189991    0.4335036 -86.44  0.001484155    1.864    0.464
       274  -9.9430     66.5198    128.5121   9.5359922489e+01   4.1760216714e+01    0.4762497    0.3690684  33.60  0.002399822    1.322    0.244
       275  -9.9127     98.6012    128.3224   8.5057998011e+01   3.6650426269e+01    0.7129741    0.4409705  67.39  0.002582102    2.695    0.629
       276 -10.5585    131.1069    119.1968   7.3584746505e+01   3.2486430094e+01    0.8551497      0.56587  76.54  0.002068944    2.721    0.632
       277 -10.2024    116.8982    124.9287   7.8882534205e+01   3.4037146382e+01    0.8664234    0.6192626 -51.05  0.002086354    1.413    0.292
       278  -9.9782    128.3850    100.7327   6.9449593590e+01   3.7011969304e+01     0.973102    0.4590393 -33.62  0.001995022    2.574    0.611
       279 -10.1212    108.6766    114.3991   7.8639928350e+01   3.8063687056e+01    0.7646509    0.4786138 -76.49  0.001511982    2.902    0.655
