#   1 NUMBER                 Running object number                                     
#   2 MAG_AUTO               Kron-like elliptical aperture magnitude                    [mag]
#   3 X_IMAGE                Object position along x                                    [pixel]
#   4 Y_IMAGE                Object position along y                                    [pixel]
#   5 X_WORLD                Barycenter position along world x axis                     [deg]
#   6 Y_WORLD                Barycenter position along world y axis                     [deg]
#   7 A_WORLD                Profile RMS along major axis (world units)                 [deg]
#   8 B_WORLD                Profile RMS along minor axis (world units)                 [deg]
#   9 THETA_WORLD            Position angle (CCW/world-x)                               [deg]
#  10 FWHM_WORLD             FWHM assuming a gaussian core                              [deg]
#  11 ELONGATION             A_IMAGE/B_IMAGE                                           
#  12 ELLIPTICITY            1 - B_IMAGE/A_IMAGE                                       
         1 -14.7972    185.5035     42.7889   5.1562277079e+01   3.3397587615e+01     1.269428    0.9639645  21.99  0.004277455    1.681    0.405
         2 -14.0814    207.5188     15.7999   4.1296154196e+01   3.1216896117e+01    0.8299339    0.4723516  89.55  0.003978143    1.857    0.461
         3 -14.2522    209.3200      8.4727   3.9243565297e+01   3.1561709737e+01    0.8707817    0.5823596 -83.04  0.004763649    1.441    0.306
         4 -11.0959     83.7233    239.2622   1.1603147570e+02   1.4777759635e+01    0.1611637    0.1201676  58.20 0.0004210585    1.057    0.054
         5 -14.0762     53.8582    227.6763   1.2057030299e+02   2.0866152964e+01     9.130989     7.885291  61.05   0.06841559    1.236    0.191
         6 -11.9963    191.9731    192.9266   8.7758274011e+01   5.0774314333e+00     0.607661    0.3178217 -61.91  0.001929337    5.320    0.812
         7 -11.1261     82.3094    195.1003   1.1165240272e+02   2.3637638297e+01    0.2485163    0.2260573  88.24  0.001109761    1.124    0.110
         8 -12.9197    151.3239    193.2584   9.6290206373e+01   1.2478458848e+01    0.3088792    0.2966388  81.71  0.001531303    1.132    0.116
         9 -13.2392    148.6608    187.3708   9.5842439730e+01   1.4111815707e+01    0.3576186    0.2998491 -60.01  0.001999971    1.323    0.244
        10 -12.3646     65.2759    192.4124   1.1502488719e+02   2.6589611602e+01     0.354942    0.2301824 -46.12  0.001451167    2.042    0.510
        11 -12.0674     89.9752    212.7509   1.1211484532e+02   1.8870619390e+01    0.3196349    0.2038382  58.97  0.000689491    1.432    0.302
        12 -12.4628     67.4721    206.1839   1.1601448145e+02   2.3380467968e+01    0.3449393    0.2741793 -15.64  0.001778838    2.226    0.551
        13 -14.3623     51.3069    209.1844   1.1954406678e+02   2.4833431762e+01    0.9423329    0.2908138  58.78  0.003409404    4.211    0.763
        14 -11.0490     15.4606    187.5494   1.2498609078e+02   3.3249613922e+01    0.1144879   0.08918975  86.70 0.0003072193    1.072    0.067
        15 -11.9693    187.0152    175.6519   8.5397558653e+01   9.0466234891e+00    0.3449535     0.310525 -40.48  0.001071173    1.203    0.169
        16 -12.1162    149.1119    176.9887   9.3852044445e+01   1.6107695407e+01    0.2171806    0.2057564  50.03 0.0004590023    1.032    0.031
        17 -11.0427      2.9972    162.4328   1.2580626521e+02   3.9790442107e+01    0.1457042     0.123742  70.16 0.0005312907    1.219    0.180
        18 -12.5737     93.8131    155.9648   1.0320982298e+02   3.0699404254e+01    0.2893563    0.2524586 -58.63 0.0003419297    1.150    0.131
        19 -13.9963     99.2066    149.8130   1.0072190830e+02   3.1257912508e+01    0.6193673    0.4795915 -23.35  0.002178902    1.741    0.426
        20 -13.3124    133.7768    145.3318   9.1054661715e+01   2.5911591995e+01     1.217184    0.2963061 -54.63   0.00268509    6.628    0.849
        21  99.0000     12.6797    205.7428   1.2667861453e+02   2.9725694652e+01    0.4103708    0.1861772  41.31  0.002439332    2.031    0.508
        22 -18.7097     25.4037     97.2083   1.1225150588e+02   5.3301941904e+01     14.27363      1.19751 -65.77   0.02938199    9.861    0.899
        23 -12.3284     92.6345    147.3876   1.0196983243e+02   3.2919298636e+01    0.3440671    0.2318914  67.52  0.001606317    1.773    0.436
        24 -13.0081     98.1933    136.2169   9.8309699551e+01   3.4658051207e+01    0.4319888    0.2993653 -55.88 0.0006520275    1.375    0.273
        25 -13.0587    109.6976    136.3299   9.5260569562e+01   3.2597712672e+01    0.5549959     0.278652 -39.41  0.002097803    2.387    0.581
        26 -12.7285    106.0162    130.8626   9.5050059776e+01   3.4555681584e+01    0.4164357    0.3480043 -69.71  0.001200984    1.216    0.177
        27 -11.9134    116.1213    128.2769   9.1745012307e+01   3.3279298205e+01    0.2689798    0.2074842 -38.52 0.0008745935    1.351    0.260
        28 -11.6320    104.1441    123.6848   9.3935914766e+01   3.6589826573e+01       0.2814    0.2505639  -0.71 0.0006454218    1.316    0.240
        29 -10.9378    111.0177    117.7096   9.0601154123e+01   3.6712599329e+01     0.205885    0.1986694  40.79 0.0003534407    1.081    0.075
        30 -10.7398    231.1395    113.8525   6.2990690941e+01   1.1155942803e+01    0.2167099    0.1893254 -50.04 0.0007962841    1.181    0.154
        31 -10.9918    167.5869    112.4454   7.4926790195e+01   2.5693081655e+01    0.3125885    0.2254467  89.86   0.00114142    2.141    0.533
        32 -12.5839    120.0779    110.5219   8.6273047958e+01   3.6575314327e+01    0.4081385    0.3265953 -54.93  0.001746298    1.254    0.202
        33 -10.6681    205.5271    110.4573   6.6624136791e+01   1.7335483238e+01    0.1510571    0.1429035 -30.07 0.0002010929    1.007    0.007
        34 -12.2832     59.3723    203.2979   1.1738606920e+02   2.5041248117e+01    0.2791014    0.2218034 -38.78  0.001294976    1.874    0.466
        35 -13.6284    170.4149     56.8770   5.8352670718e+01   3.5170038790e+01    0.4701429      0.44478  86.87 0.0008415263    1.064    0.060
        36 -12.0804     67.5437    249.4509   1.1978434329e+02   1.5172278322e+01    0.1728637    0.1455031  80.03 0.0006130313    1.215    0.177
        37 -13.2607    190.2573     36.8572   4.9148374598e+01   3.2987875435e+01    0.4862611    0.4156735  25.19    0.0013861    1.386    0.279
        38 -12.8123     71.5549    240.8755   1.1839547222e+02   1.6149007645e+01     0.216339    0.1764987 -74.64 0.0009411573    1.396    0.284
