#   1 NUMBER                 Running object number                                     
#   2 MAG_AUTO               Kron-like elliptical aperture magnitude                    [mag]
#   3 X_IMAGE                Object position along x                                    [pixel]
#   4 Y_IMAGE                Object position along y                                    [pixel]
#   5 X_WORLD                Barycenter position along world x axis                     [deg]
#   6 Y_WORLD                Barycenter position along world y axis                     [deg]
#   7 A_WORLD                Profile RMS along major axis (world units)                 [deg]
#   8 B_WORLD                Profile RMS along minor axis (world units)                 [deg]
#   9 THETA_WORLD            Position angle (CCW/world-x)                               [deg]
#  10 FWHM_WORLD             FWHM assuming a gaussian core                              [deg]
#  11 ELONGATION             A_IMAGE/B_IMAGE                                           
#  12 ELLIPTICITY            1 - B_IMAGE/A_IMAGE                                       
         1 -12.7694    191.8071     42.4022   4.5958674149e+01   3.2460063918e+01     1.219544    0.8951916  36.75  0.004549172    1.628    0.386
         2 -12.0385    219.9608     10.9912   3.4972564188e+01   2.9624244559e+01    0.8434175     0.591332 -49.98  0.005195216    1.302    0.232
         3 -11.2963    214.2821     12.1382   3.5738315061e+01   3.0773244217e+01    0.6626022    0.2156406 -40.64  0.002862372    2.641    0.621
         4 -10.4064     48.8096    243.3660   1.1937364570e+02   1.7811752761e+01    0.3211744     0.133901  56.37  0.001139327    2.151    0.535
         5 -19.4722     15.3035    145.0158   1.1832903027e+02   4.2675708166e+01     19.66764     3.456397 -73.96   0.05688846    5.274    0.810
         6  -8.1902     77.2828    235.4307   1.1325292747e+02   1.5783330401e+01    0.1131665   0.09003964 -30.93            0    1.861    0.463
         7 -10.3388    156.4460    228.5285   9.6106440654e+01   5.3132051137e+00    0.2772672    0.1751297 -57.68  0.001455695    2.077    0.518
         8  99.0000     49.9514    217.4916   1.1715012862e+02   2.2769409232e+01    0.4208662    0.1884243  61.63  0.002000996    2.380    0.580
         9  -9.3307     89.2944    211.1160   1.0813629351e+02   1.8995661331e+01    0.2208726     0.174334  73.31 0.0005173716    1.263    0.208
        10  -8.5143     42.6767    209.1641   1.1794510470e+02   2.5346625788e+01    0.1148814   0.06882341  53.25 0.0001410711    1.485    0.327
        11 -12.5207     32.3313    206.7011   1.1988590431e+02   2.6982062045e+01    0.3045126    0.1664378  53.99 0.0009033831    1.631    0.387
        12  -9.2146     66.0728    207.1124   1.1276721321e+02   2.2991041287e+01    0.1863346    0.1514954  72.55 0.0004415142    1.100    0.091
        13  -9.3751     95.1868    203.8841   1.0591165722e+02   1.9666881185e+01     0.374342     0.224536 -26.37  0.001547078    3.240    0.691
        14 -10.6173     64.1634    202.5618   1.1270448464e+02   2.4219521176e+01    0.2189919    0.1852539 -80.36  0.000420544    1.145    0.127
        15  -9.7682     52.8934    200.0761   1.1493270954e+02   2.6144010746e+01    0.2555054    0.1964577 -50.06 0.0009977975    1.548    0.354
        16 -10.9004     57.3714    193.4829   1.1325218496e+02   2.7074868662e+01    0.3986981    0.2390845 -44.64  0.001384695    2.133    0.531
        17  -8.8926     60.6378    187.8130   1.1186707238e+02   2.7960217650e+01    0.1825357    0.1485186 -82.79 0.0002680866    1.132    0.116
        18  -9.4811     75.4000    247.9311   1.1474505503e+02   1.3710191261e+01    0.2962903   0.08895867 -59.23  0.001312751    3.564    0.719
        19  -9.4313    192.4988    193.9966   8.2674936854e+01   5.3716187526e+00     0.181389    0.1244313 -64.90  0.000810557    2.560    0.609
        20 -10.7130    147.2480    188.0195   9.1426396668e+01   1.4482932630e+01    0.5833952    0.3056758 -69.38  0.001870577    4.413    0.773
        21 -10.8521     73.9132    188.6450   1.0885140820e+02   2.6051482117e+01    0.4348776    0.2479551  69.00  0.001777722    2.192    0.544
        22 -11.2886     68.4651    180.7082   1.0913435088e+02   2.8604680397e+01    0.7339004    0.5843388 -46.99  0.004116387    1.409    0.290
        23  -8.9476     92.5382    184.9492   1.0389266546e+02   2.4238902809e+01    0.2130674    0.1761137  45.17 0.0005683533    1.172    0.146
        24 -10.6897     99.0236    181.0638   1.0172405877e+02   2.4132829690e+01    0.3529721    0.2626047   9.65  0.001676876    1.790    0.441
        25 -10.5873    117.2611    180.1647   9.7123469616e+01   2.1376037291e+01    0.2886499     0.176489  59.88   0.00124751    2.066    0.516
        26  -8.4330     71.5619    243.1346   1.1506577608e+02   1.5079543704e+01    0.1737175    0.1084433 -77.62 0.0007601169    1.721    0.419
        27  -9.4717     56.6714    175.2144   1.1131165460e+02   3.1374651051e+01    0.4136364    0.1770761  48.82  0.001773625    2.419    0.587
        28  -9.6246    186.3558    174.4060   8.0062034726e+01   1.0057389997e+01    0.3134398    0.2761817  30.56   0.00142467    1.145    0.127
        29  -9.4684    146.5026    172.0005   8.8556899080e+01   1.7977608962e+01    0.3370547    0.1982147 -64.29  0.001161744    2.418    0.586
        30 -10.0383     43.4241    172.5723   1.1423113619e+02   3.3507710387e+01    0.5392078    0.2159491  53.02  0.001995359    2.815    0.645
        31 -11.6579    103.8617    171.5903   9.8964193768e+01   2.5547330935e+01    0.6009032    0.3241816  48.73  0.002582758    1.949    0.487
        32 -10.7539    115.0000    185.5371   9.8574366472e+01   2.0560303269e+01    0.3754916    0.1373568 -53.08  0.001383932    2.766    0.638
        33  -9.8478     89.5496    156.6666   1.0006727186e+02   3.1352335553e+01    0.2822812    0.2410086 -43.67 0.0007019673    1.214    0.177
        34 -10.5484     95.3888    150.6361   9.7380052956e+01   3.1896168005e+01    0.6049376    0.4233215 -20.43  0.002023391    2.005    0.501
        35  -9.8733    134.3225    147.4896   8.6413166689e+01   2.5711631273e+01     0.657113    0.2048101 -55.84  0.001678593    4.872    0.795
        36  -8.2117    109.7781    148.0168   9.2966742540e+01   3.0112985626e+01    0.1992758    0.1210205 -53.63 0.0003763688    1.614    0.381
        37  -9.1492     57.5254    242.4637   1.1768139729e+02   1.6949220569e+01    0.1540832   0.09655293  85.40 0.0009513102    1.607    0.378
        38  -9.5850    107.1573    136.9350   9.1314551076e+01   3.3218290059e+01    0.4396942    0.2773094 -17.34  0.001662662    2.656    0.624
        39 -10.9242     95.2449    136.4213   9.4554054165e+01   3.5370395473e+01    0.3211839    0.2708767 -40.53 0.0004860404    1.183    0.154
        40  -9.9353    105.9272    130.9703   9.0318020501e+01   3.4861138888e+01    0.3632432    0.3282921 -44.75  0.001289282    1.065    0.061
        41  -9.8934    114.4101    128.6533   8.7393733378e+01   3.3867264280e+01    0.3304832    0.2387255 -49.96 0.0008259534    1.346    0.257
        42  -9.3313    102.2295    124.0799   8.9771308535e+01   3.7157352887e+01    0.2988415    0.2078167 -33.09 0.0006821838    1.566    0.362
        43  -8.2025    109.6564    117.8141   8.6085961473e+01   3.7289613315e+01    0.2111859    0.1410937 -56.61 0.0003849474    1.565    0.361
        44  -8.9563    231.2278    113.9245   5.7885664796e+01   1.2466095940e+01    0.2225747    0.2083736  40.89 0.0008484205    1.201    0.168
        45 -10.3060    118.9355    110.3926   8.1503725558e+01   3.7201082901e+01    0.3798069    0.3011155 -84.53   0.00174021    1.730    0.422
        46  -8.0588    205.6485    110.3124   6.1390941599e+01   1.8367343866e+01    0.1505833    0.1151336 -71.86 0.0007045562    1.725    0.420
        47 -11.6013    176.7646     55.5895   5.1989062912e+01   3.4249604362e+01    0.4440391    0.4360257  34.89  0.001073714    1.068    0.064
        48 -11.4753    247.7374    245.0330   8.1312964738e+01  -1.0253945879e+01    0.4561287    0.3246113  -9.13  0.003201617    1.168    0.144
        49 -11.5650    196.9131     36.5447   4.3709525987e+01   3.1998541368e+01    0.5754075    0.4153005  60.01  0.001516872    1.368    0.269
        50  -9.2684     62.0597    245.5496   1.1706839344e+02   1.5825073006e+01    0.1534424    0.1222815  88.89 0.0006315662    1.235    0.191
