#   1 NUMBER                 Running object number                                     
#   2 MAG_AUTO               Kron-like elliptical aperture magnitude                    [mag]
#   3 X_IMAGE                Object position along x                                    [pixel]
#   4 Y_IMAGE                Object position along y                                    [pixel]
#   5 X_WORLD                Barycenter position along world x axis                     [deg]
#   6 Y_WORLD                Barycenter position along world y axis                     [deg]
#   7 A_WORLD                Profile RMS along major axis (world units)                 [deg]
#   8 B_WORLD                Profile RMS along minor axis (world units)                 [deg]
#   9 THETA_WORLD            Position angle (CCW/world-x)                               [deg]
#  10 FWHM_WORLD             FWHM assuming a gaussian core                              [deg]
#  11 ELONGATION             A_IMAGE/B_IMAGE                                           
#  12 ELLIPTICITY            1 - B_IMAGE/A_IMAGE                                       
         1 -13.0815    190.1186     32.3820   5.6642504499e+01   3.3826763112e+01     1.841481     1.121336  18.48  0.007359149    2.393    0.582
         2  -9.6091     50.0036      8.7505   8.3307230288e+01   6.6900884396e+01    0.1444083   0.09638058  30.46 0.0008965341    1.617    0.381
         3 -11.5010    213.9088      2.8653   4.4748829295e+01   3.0913955068e+01    0.8986229    0.3786497  72.91   0.00361566    2.287    0.563
         4  -7.9041     74.6226    225.7106   1.2105759229e+02   2.0868996090e+01   0.08977229    0.0833777  36.05 0.0007019042    1.733    0.423
         5 -10.6986    138.9558    248.3091   1.1283685265e+02   8.0912542603e+00    0.3468667    0.1914594 -45.05   0.00215995    2.663    0.625
         6  -8.8769    155.9157    200.0498   1.0399679333e+02   1.2386499075e+01    0.3088758    0.1626968 -64.43  0.001430605    2.865    0.651
         7 -10.1703    193.3680    195.1492   9.6387133315e+01   6.2587276009e+00    0.4648679    0.2314728 -57.52  0.001889241    3.760    0.734
         8  -7.9979    141.0000    197.9837   1.0645299108e+02   1.5363340085e+01    0.1837211   0.07170095 -52.35 0.0008032448    2.948    0.661
         9  -8.6312    208.5531    197.5167   9.4083777834e+01   3.1127945953e+00    0.1275064    0.1073995  33.45  6.32139e-05    1.012    0.012
        10  -8.4444    198.7855    222.6014   9.9766415257e+01   1.5798500714e+00    0.1676989   0.09437797  50.78 0.0004536401    1.614    0.380
        11  -8.9816     81.8443    195.3802   1.1705379765e+02   2.5204450850e+01    0.2300482    0.1989654  59.25  0.001676093    1.276    0.216
        12 -12.2529     70.0367    189.8136   1.1864278877e+02   2.7854785796e+01    0.7477846    0.5798063 -79.18   0.00380652    1.242    0.195
        13  -8.6239     95.0068    199.8590   1.1514410778e+02   2.2487157748e+01    0.1900351     0.126651  69.80 0.0006384348    1.336    0.252
        14  -9.0526     96.3395    188.7018   1.1362294959e+02   2.4344646369e+01    0.2884285    0.1663956  77.93  0.001304876    2.019    0.505
        15  -8.7184     94.7719    250.5958   1.1989211828e+02   1.4269929738e+01    0.1489551   0.06901453  54.54 0.0004666078    1.595    0.373
        16  -9.0640     70.9238    179.5018   1.1740918694e+02   2.9729212525e+01    0.1801359    0.1347832 -87.55 0.0005962833    1.146    0.128
        17  -8.7294     99.4532    180.7836   1.1204487732e+02   2.5377339105e+01    0.2131865    0.1541772  52.63 0.0007831522    1.262    0.208
        18  -8.5856     53.2690    181.1723   1.2090143087e+02   3.1625079497e+01     0.180477    0.1319192  65.65 0.0007351151    1.165    0.142
        19  -8.2309    168.1878    176.6437   9.7913300794e+01   1.3988238451e+01    0.1751836    0.1598422  77.03 0.0005145041    1.161    0.138
        20  -9.9054    104.4853    171.9942   1.0986335202e+02   2.6301881254e+01    0.2617305    0.1546114  59.94  0.001378574    1.648    0.393
        21  -8.3389    124.1953    171.1736   1.0574946275e+02   2.3161208232e+01    0.1842294    0.1386653  74.43 0.0003676496    1.342    0.255
        22  -9.6653    194.7682    168.0317   9.1213164134e+01   1.0147284315e+01    0.2900172     0.251955  42.12 0.0008650924    1.054    0.052
        23  -8.2007    111.4462    168.4906   1.0793855544e+02   2.5859887504e+01    0.1306669    0.1118106  76.52 3.782137e-05    1.025    0.024
        24  -8.8269    190.1025    161.0958   9.0735904399e+01   1.2237386920e+01    0.2145211    0.1832761  16.01  0.000638817    1.245    0.196
        25  -8.3433    149.3188    220.3318   1.0793741456e+02   1.0382325858e+01    0.1121551   0.08814792  21.64 0.0007048251    1.692    0.409
        26 -10.7500     96.9609    154.7409   1.0889498652e+02   3.1000427424e+01    0.5422183    0.3960467 -36.16  0.002261628    1.967    0.492
        27  -9.0260    189.6895    154.8902   8.9553146481e+01   1.3372708819e+01    0.3405899    0.2190538 -70.09  0.001403016    2.776    0.640
        28  -9.8475    134.4522    146.9745   9.9400938091e+01   2.6082282696e+01    0.5819517      0.15805 -53.19  0.001792136    4.151    0.759
        29  -7.7300    175.3278    149.2961   9.1249726488e+01   1.7375882626e+01    0.1440659    0.1110621  15.14   0.00024014    1.631    0.387
        30 -10.1753    108.1421    139.9393   1.0394141281e+02   3.2297607309e+01    0.4424476    0.2929628 -34.88  0.002139216    2.117    0.528
        31 -10.7859     96.3623    140.0311   1.0663875885e+02   3.4210205330e+01    0.2620176     0.245474 -67.43 0.0004777567    1.176    0.150
        32 -10.2572    183.4496    216.3249   1.0146873507e+02   5.0671417649e+00      0.26107    0.1304892  46.88  0.001373561    1.637    0.389
        33  -9.4624    105.9179    130.6750   1.0272041250e+02   3.4660833513e+01    0.5136775    0.3054753 -72.65  0.001444694    2.008    0.502
        34  -9.5973    103.0942    126.3750   1.0255130200e+02   3.6067754429e+01     0.279434    0.2353839 -14.44  0.001547439    1.661    0.398
        35  -9.5787    115.2239    130.3108   1.0046726031e+02   3.3116736463e+01     0.297126    0.2251187 -29.60 0.0008220902    1.745    0.427
        36  -8.7228    160.6723    127.5120   8.9555552480e+01   2.4632375615e+01    0.3191201     0.212657 -86.23  0.001263117    2.581    0.613
        37  -8.8381    119.6320    125.1356   9.8362672617e+01   3.3419735520e+01    0.2047389    0.1265478 -43.09 0.0009467846    1.722    0.419
        38  -9.0525    110.5830    119.1706   9.9259893014e+01   3.6340428199e+01    0.2284795    0.1816683  60.53 0.0004610411    1.303    0.232
        39  -9.2573     65.0627    114.3192   1.0966615748e+02   4.4310329841e+01    0.1718385    0.1546354  81.85 0.0005199863    1.133    0.117
        40  -8.4301    167.9418    112.8990   8.4455329704e+01   2.5864442677e+01    0.2482679    0.1892261 -78.53  0.001131249    1.737    0.424
        41  -8.3250    105.3122    223.3275   1.1579710562e+02   1.6933653956e+01   0.09668222   0.08829921  24.68  0.000704204    1.666    0.400
        42  -8.5005    134.6219    112.2020   9.1865785384e+01   3.3237000529e+01    0.2116337    0.1359876 -37.42 0.0009464417    1.682    0.406
        43  -8.1679    205.9733    110.2872   7.6077271930e+01   1.7470278292e+01    0.2115539    0.1931268  41.88 0.0004117048    1.089    0.082
        44 -10.2795    119.6261    109.3586   9.4820663397e+01   3.6792001432e+01     0.377796     0.222765 -63.82  0.001616595    2.015    0.504
        45  -8.8945    106.8246    209.6230   1.1410394220e+02   1.8985589505e+01    0.1739299   0.08597557  54.04 0.0006692607    1.706    0.414
        46  -9.4904    115.4137    109.3355   9.5860259837e+01   3.7586535115e+01    0.2842448    0.1304193 -45.52  0.001134356    2.140    0.533
        47  -8.6338    107.8014    203.5886   1.1325163373e+02   1.9880312322e+01    0.1683612    0.0916124  54.63 0.0004801135    1.562    0.360
        48  -9.6883    166.5138     66.6938   7.1806244484e+01   3.4764559138e+01    0.2947839     0.255354 -76.25  0.000420244    1.330    0.248
        49 -11.4341    175.1866     47.4496   6.4005512267e+01   3.5646150218e+01    0.5846084      0.48521   3.30  0.000916229    1.342    0.255
        50 -19.4582     18.2530    141.4313   1.2408854673e+02   4.3277700059e+01     16.87178     2.373795 -73.54   0.05080712    6.453    0.845
        51  -8.3132     76.2953    233.7178   1.2142095774e+02   1.9347318791e+01    0.1616864    0.1084398 -86.40  0.001027281    1.417    0.295
