#   1 NUMBER                 Running object number                                     
#   2 MAG_AUTO               Kron-like elliptical aperture magnitude                    [mag]
#   3 X_IMAGE                Object position along x                                    [pixel]
#   4 Y_IMAGE                Object position along y                                    [pixel]
#   5 X_WORLD                Barycenter position along world x axis                     [deg]
#   6 Y_WORLD                Barycenter position along world y axis                     [deg]
#   7 A_WORLD                Profile RMS along major axis (world units)                 [deg]
#   8 B_WORLD                Profile RMS along minor axis (world units)                 [deg]
#   9 THETA_WORLD            Position angle (CCW/world-x)                               [deg]
#  10 FWHM_WORLD             FWHM assuming a gaussian core                              [deg]
#  11 ELONGATION             A_IMAGE/B_IMAGE                                           
#  12 ELLIPTICITY            1 - B_IMAGE/A_IMAGE                                       
         1 -15.4017    175.7472     41.6654   3.8982937080e+01   3.5795737182e+01    0.9416658    0.8245288 -84.06  0.003890126    1.042    0.041
         2 -12.9342    189.7756     14.5672   3.0494070079e+01   3.5741175052e+01    0.2226985     0.168004 -40.30  0.001004489    1.347    0.257
         3 -14.9457    201.4229      6.3997   2.7615215220e+01   3.4000795557e+01    0.6479965    0.4220861  22.62  0.003397692    2.942    0.660
         4 -10.6611    143.6699      9.3065   3.4119907235e+01   4.7071848166e+01     0.134638   0.08739638 -69.46 0.0005025733    1.659    0.397
         5 -12.1025    224.3873    237.2141   7.3120402615e+01  -5.5626486774e+00    0.2872219    0.1562938 -20.85  0.001388856    1.721    0.419
         6 -15.6036    186.7256    243.9867   8.1218227571e+01  -1.8804187445e+00     2.256721     1.112476  32.19   0.01203667    1.794    0.443
         7 -15.0471    180.5615    215.4171   7.7887119094e+01   3.5233068893e+00    0.6414371    0.4606122 -18.71  0.003515905    1.367    0.268
         8 -20.6182     79.2519    168.2874   9.4497788925e+01   2.9647818775e+01      14.3533     7.131169 -62.40   0.05873058    2.032    0.508
         9 -11.5783    236.5155    181.0031   6.1170987419e+01   1.2073268885e+00    0.1899386    0.1041807 -35.33 0.0003942821    1.540    0.351
        10 -13.0395    167.7588    212.4902   8.0074087135e+01   5.9358664782e+00    0.3008604      0.24018 -13.23 0.0006232613    1.213    0.176
        11 -15.0849    173.7904    222.0442   8.0386721753e+01   3.3753837514e+00    0.6522196    0.4746674 -27.18  0.003513037    1.365    0.268
        12 -11.5366     24.6086    164.1685   1.0950549328e+02   3.7290721498e+01    0.2182187    0.1314064 -67.46 0.0004904065    1.495    0.331
        13 -14.0508    237.1628    158.6816   5.6757328645e+01   4.6897665503e+00    0.3676969    0.2400596  34.22   0.00211048    1.759    0.431
        14 -10.8885      3.8356    223.7917   1.1872611837e+02   2.5158359009e+01    0.1555904    0.1014703  59.61 0.0005321778    1.239    0.193
        15 -11.1550    163.4967    153.0841   6.9548181353e+01   1.8362950436e+01    0.2243533    0.1424497 -44.48 0.0005446453    1.532    0.347
        16 -11.8010     27.9126    145.2629   1.0639587907e+02   4.1858794971e+01    0.3423142     0.231997 -86.84  0.001688074    1.442    0.307
        17 -11.4126      6.2555    139.3086   1.1241383986e+02   4.5111999270e+01    0.1322702   0.08445527 -51.72 0.0004445384    1.518    0.341
        18 -10.3019     11.2736    135.2728   1.1043020841e+02   4.5809516487e+01    0.1310124   0.08851592 -47.24 0.0006884045    1.485    0.327
        19 -11.7418     32.2169    222.1568   1.1250305911e+02   2.2766703788e+01    0.3211278    0.1980079  45.24  0.001864137    1.386    0.278
        20 -12.6303    160.6122    128.2074   6.4478280850e+01   2.4134000051e+01    0.3725775    0.3025847 -59.74  0.001641944    1.350    0.259
        21 -10.1557    218.2983    124.6302   5.2678477838e+01   1.3532310965e+01    0.1389099   0.09822804 -61.90 0.0007030437    1.736    0.424
        22 -12.2588    177.4497    121.7175   5.9327902339e+01   2.1973887214e+01    0.3055836    0.2360159 -60.88  0.001070705    1.458    0.314
        23 -13.1926    151.6485    120.7028   6.4691071920e+01   2.7576682922e+01    0.5722412    0.3600527 -14.77  0.002139075    2.627    0.619
        24 -11.8810     30.1980    218.4848   1.1269578221e+02   2.3778763481e+01     0.264752    0.2056675   9.09  0.001348595    1.686    0.407
        25 -12.0455     39.4226    115.5137   9.7920605677e+01   4.8484558391e+01    0.3161392    0.2326308 -18.94  0.001005846    1.582    0.368
        26 -12.2705    167.2846    112.2920   5.9105565147e+01   2.5956733919e+01    0.3851984    0.2916548 -76.93 0.0009897695    1.755    0.430
        27 -11.2983     34.3665    227.8410   1.1242685712e+02   2.1320760783e+01    0.2802514      0.11538  58.07  0.001230347    2.409    0.585
        28 -12.3160      7.8849    220.3784   1.1770663037e+02   2.5527957076e+01    0.3012205    0.1468252  79.21  0.001348723    1.935    0.483
        29 -12.1995     24.2323    105.0212   1.0160626664e+02   5.2632458485e+01    0.2888297    0.2522853 -55.65  0.001390423    1.008    0.008
        30 -12.3493    206.9231    212.8934   7.2250230978e+01   2.1452708455e-01     0.220765    0.1601054 -25.24  0.000676822    1.242    0.195
        31 -13.7677    156.5456    222.4307   8.4104491740e+01   5.8277946464e+00    0.6268662    0.4154397 -18.37  0.002202376    1.756    0.431
        32 -12.2037    152.2043    210.4101   8.3121245664e+01   8.7016235413e+00    0.3942405    0.2004655 -56.63  0.001689782    2.595    0.615
        33 -11.9603      8.4123     94.1511   1.0590452766e+02   5.6503211061e+01    0.4299214     0.141809 -55.99  0.001308474    2.256    0.557
        34 -11.8275    147.2043    210.3702   8.4235254242e+01   9.4848162938e+00    0.3423926    0.2224524 -63.34  0.001240943    2.146    0.534
        35 -13.6264     52.3580     91.5934   8.7637571524e+01   5.2927432758e+01    0.4063995    0.3191379  17.76 0.0007577356    1.348    0.258
        36 -11.1178    177.0125     91.7889   5.1973552471e+01   2.7690906902e+01    0.2142236    0.1850921 -73.22 0.0004354153    1.221    0.181
        37 -13.1808    185.3652    206.7293   7.5401407174e+01   4.3116684249e+00    0.3319623    0.2435015 -48.12  0.001383199    1.610    0.379
        38 -10.1230     20.2809    204.0085   1.1396001743e+02   2.8021499228e+01    0.1602685    0.1365537  75.63 0.0003599092    1.036    0.035
        39 -12.8636     11.4243    206.0058   1.1613432127e+02   2.8383888028e+01    0.3714711    0.2511051  24.79   0.00149694    1.652    0.395
        40 -14.6335      2.6739     86.7311   1.0702135839e+02   5.8646222159e+01     1.065399    0.5585648 -35.84  0.004987104    1.852    0.460
        41 -14.6351      6.7035     75.6105   1.0323360115e+02   6.1119164779e+01    0.6058269    0.4579072 -50.88  0.002254363    1.092    0.084
        42 -12.2556    185.3103     85.5432   4.8925275261e+01   2.6951829103e+01    0.3468279    0.2492953 -33.62  0.001439141    1.386    0.279
        43 -12.4937     27.2494     88.6457   9.7108422916e+01   5.6465546257e+01    0.2632574    0.2139816 -18.84 0.0004703037    1.257    0.204
        44 -11.2651     16.5737    205.7724   1.1493947306e+02   2.7967802174e+01    0.3307696    0.1230332 -74.95  0.001301534    2.471    0.595
        45 -14.8988    150.2726     75.8063   5.2892046997e+01   3.6629520059e+01     1.500044    0.7206668  40.57  0.004467152    2.544    0.607
        46 -15.4052    162.5806     62.5886   4.6763410848e+01   3.5907622105e+01     1.058136     1.011506  14.94  0.004019404    1.200    0.166
        47 -14.4837    167.3911     56.2803   4.4193324767e+01   3.5728313815e+01    0.6495287     0.581628 -31.13 0.0006962984    1.210    0.174
        48 -12.6685     41.0217     76.8607   8.8245666843e+01   5.7821325082e+01    0.2336423    0.1880331 -48.13 0.0003075217    1.160    0.138
        49 -13.2491    192.4204    194.2540   7.1713611268e+01   5.4290725210e+00    0.9005324    0.4701484 -60.35   0.00304992    4.838    0.793
        50 -12.5421    211.0115    198.6191   6.8932792405e+01   1.9426879158e+00    0.2482369    0.2038356   6.55  0.000568759    1.113    0.102
        51 -11.4764    112.2292     62.8503   5.7976055227e+01   4.7738532272e+01    0.2917871    0.1994329  62.96  0.001140582    1.631    0.387
        52 -11.9362    125.0771     60.4024   5.3876626670e+01   4.5171115479e+01    0.4329128    0.2474632  69.41  0.001036094    2.265    0.558
        53 -13.6238     13.4079     60.0087   9.6337963545e+01   6.4284644061e+01    0.2834499    0.2484786 -59.98 0.0006597108    1.222    0.182
        54 -11.1986    111.0754     55.9954   5.5972158730e+01   4.9142663729e+01    0.2685053    0.2026164 -60.25  0.001022114    1.609    0.379
        55 -12.2771    181.3556    193.3301   7.3798753740e+01   7.3184183571e+00    0.4617296    0.2381347 -49.20  0.002059414    2.195    0.545
        56 -11.7013    177.1393    190.4801   7.4150790666e+01   8.5202968978e+00    0.2910618    0.1634318  37.45 0.0003762485    1.780    0.438
        57 -12.3831    161.4893    192.8361   7.7987529426e+01   1.0616278570e+01    0.3382893    0.2417099 -65.13  0.001644843    2.002    0.500
        58 -13.9607      9.4248     51.3960   9.5945504728e+01   6.6441972102e+01    0.5612323    0.2717421 -10.58  0.002447638    2.486    0.598
        59 -11.8611    237.3336    188.2778   6.2394566552e+01  -3.5131860696e-02    0.2391403    0.1723748 -33.52 0.0005803794    1.259    0.206
        60 -14.9319    164.4678    219.5470   8.1943015626e+01   5.1694487672e+00    0.7069498    0.5243831 -67.24  0.003782346    2.117    0.528
        61 -12.6434    182.9422     23.3189   3.3340635896e+01   3.6348606670e+01    0.3357812    0.1632251 -79.69  0.001443263    2.623    0.619
        62 -12.4665     38.6841    243.8358   1.1258665532e+02   1.7574593979e+01    0.3229478    0.1460432  52.04  0.001685453    1.878    0.468
        63 -11.6392     25.4750    181.9241   1.1095130298e+02   3.2770844849e+01    0.2978845    0.1210409 -66.83  0.001298512    2.198    0.545
