#   1 NUMBER                 Running object number                                     
#   2 MAG_AUTO               Kron-like elliptical aperture magnitude                    [mag]
#   3 X_IMAGE                Object position along x                                    [pixel]
#   4 Y_IMAGE                Object position along y                                    [pixel]
#   5 X_WORLD                Barycenter position along world x axis                     [deg]
#   6 Y_WORLD                Barycenter position along world y axis                     [deg]
#   7 A_WORLD                Profile RMS along major axis (world units)                 [deg]
#   8 B_WORLD                Profile RMS along minor axis (world units)                 [deg]
#   9 THETA_WORLD            Position angle (CCW/world-x)                               [deg]
#  10 FWHM_WORLD             FWHM assuming a gaussian core                              [deg]
#  11 ELONGATION             A_IMAGE/B_IMAGE                                           
#  12 ELLIPTICITY            1 - B_IMAGE/A_IMAGE                                       
         1 -13.1819     72.3512      7.5297   5.2720283741e+00   6.5574597008e+01    0.3565642    0.2713259 -19.24  0.001088655    1.449    0.310
         2 -12.8170     82.9817      7.0437   2.2916202889e+00   6.3049518951e+01    0.3514717    0.2396385  72.63 0.0005764985    1.389    0.280
         3 -11.6231     36.9698      4.6747   1.7405732743e+01   7.3693464334e+01    0.3518246    0.1487063  47.14  0.001150485    2.093    0.522
         4 -11.0492    110.7327      1.9862   3.5499799095e+02   5.6567134606e+01     0.174751    0.1617929 -88.05 0.0003131478    1.053    0.051
         5 -11.0534     25.0555      2.0443   2.2713284307e+01   7.6250126777e+01    0.1899889    0.1644262  13.70 0.0005723948    1.022    0.022
         6 -12.1843    178.2506    246.1584   4.2083799652e+01   1.9808132345e+00    0.2650246    0.2372034 -64.14  0.001067468    1.976    0.494
         7 -12.4600    238.5012    250.4953   3.2522701836e+01  -4.2729572029e+00    0.1638462   0.09489228  15.77  0.001220684    1.476    0.323
         8 -12.4106    139.7309    248.8808   4.9909580903e+01   5.7727341456e+00    0.2755722    0.2668892  -2.27  0.001325391    1.347    0.258
         9 -11.1899    125.3776    249.7576   5.2953878811e+01   7.2399789097e+00    0.1705637    0.1106248 -52.26 0.0007031686    1.885    0.469
        10 -11.6901    114.3938    248.1565   5.5085630981e+01   8.7320739864e+00    0.2878295    0.2085944 -65.79  0.001602602    1.867    0.464
        11 -11.6450     51.0838    249.6384   6.8952913995e+01   1.5304642826e+01    0.3653015    0.1475782  30.32   0.00186815    1.888    0.470
        12 -13.7788     30.0567    247.1625   7.3393840396e+01   1.7782018376e+01     1.402938    0.3115032  33.10  0.006062738    2.739    0.635
        13 -13.4296     32.0400    239.9024   7.2608810198e+01   1.8985332174e+01    0.9585107    0.3188324  30.39  0.003323599    2.238    0.553
        14 -13.8458     36.7054    229.4443   7.0980431450e+01   2.0622787252e+01    0.7179975    0.3581893 -46.68   0.00353783    2.755    0.637
        15 -12.5146     13.4682    216.6434   7.5818301087e+01   2.5418152388e+01     0.459098     0.320379  52.96  0.002215307    1.177    0.151
        16 -12.6848     13.9553    210.2426   7.5425532962e+01   2.6778350066e+01    0.3265865    0.2156927  44.97 0.0004129847    1.250    0.200
        17 -13.9952     14.7066    228.8071   7.6020120069e+01   2.2753088895e+01       1.0228    0.5031394  75.15   0.00548737    2.047    0.511
        18 -13.2265     17.8565    237.7814   7.5664200267e+01   2.0678853104e+01    0.4083371    0.2579086  80.22  0.001491174    1.597    0.374
        19 -13.3463     13.9815    243.9378   7.6735235572e+01   1.9815920256e+01    0.5488939    0.2347138  38.12  0.002476152    1.691    0.409
        20 -14.1481     10.3284    239.4951   7.7376048637e+01   2.0981649727e+01     0.564219    0.3710173 -33.90  0.002510559    2.325    0.570
        21 -14.7046      5.4990    235.3887   7.8302054963e+01   2.2185372974e+01    0.6071388    0.4896327 -43.96  0.004245901    1.685    0.406
        22 -12.7905      1.4770    249.9972   7.9543971355e+01   1.9697985341e+01    0.1911093    0.1198735  62.78  0.000518889    1.347    0.258
        23 -14.8640      5.2106    246.6629   7.8682641611e+01   2.0023989364e+01    0.8362835    0.2636428  36.68  0.002115273    2.087    0.521
        24 -11.1217     99.5798    246.8388   5.8128101544e+01   1.0620016433e+01    0.2066139    0.1379146  17.03 0.0005224345    1.355    0.262
        25 -10.5442    246.1500    245.1610   3.0631038378e+01  -4.3221908051e+00    0.1205978   0.09037092 -10.89  0.001011332    1.269    0.212
        26 -10.7207    132.0324    245.0524   5.1039046317e+01   7.2342398029e+00    0.1732226     0.127975  46.31  0.001043532    1.609    0.378
        27 -11.5092    143.1494    243.1533   4.8526238200e+01   6.2688849101e+00    0.1907444     0.163037 -40.33  0.001363536    1.415    0.293
        28 -10.5397    153.2874    243.6844   4.6553737673e+01   5.0458560235e+00    0.1043695    0.0846615  42.99 0.0002118095    1.588    0.370
        29 -11.1189    127.8431    243.0147   5.1676645896e+01   8.0398760221e+00    0.1723907    0.1377177  36.76 0.0004343321    1.290    0.225
        30 -10.6937     54.9765    242.8199   6.7654773669e+01   1.6175466990e+01      0.18307    0.1243252  -2.83 0.0008002879    1.930    0.482
        31 -11.2611    184.7887    241.5114   4.0253620540e+01   1.9291727803e+00    0.1846128    0.1560059 -52.57 0.0008622436    1.901    0.474
        32 -11.5504    117.4581    241.5136   5.3712138457e+01   9.4849227211e+00    0.2258697    0.1724936  42.66 0.0009379105    1.368    0.269
        33 -11.3167    101.9088    238.5955   5.6788993444e+01   1.1789482241e+01    0.1849348    0.1599964 -30.94 0.0005822521    1.311    0.237
        34 -11.0075     64.9574    238.7122   6.5109329618e+01   1.5906522075e+01    0.2255655   0.09121276  58.99 0.0008995719    3.554    0.719
        35 -11.4242    207.3956    236.4684   3.5550754583e+01   2.7444150673e-01    0.2049483   0.09080344  26.43  0.001177666    2.060    0.515
        36 -11.0143    137.7979    236.1505   4.8760345015e+01   7.9994308667e+00    0.1786285    0.1459179  32.82 0.0007545081    1.264    0.209
        37 -11.7750    165.8580    234.3719   4.2847811897e+01   5.0269253910e+00    0.1879603    0.1625863  25.64 0.0003040958    1.346    0.257
        38 -10.9295     47.5004    235.4831   6.8860595330e+01   1.8347234804e+01    0.1241676   0.09772494  44.04 7.156383e-05    1.049    0.047
        39 -11.5487    158.4498    233.4770   4.4187626775e+01   6.0129682785e+00    0.1974623    0.1628104  -0.34 0.0005479452    1.060    0.056
        40 -11.1884    101.4913    234.0264   5.6400480426e+01   1.2657076352e+01    0.2456178    0.1377517  39.00 0.0006113751    1.582    0.368
        41 -12.5318    105.6734    225.9429   5.4555880796e+01   1.3643478522e+01    0.3270044    0.2795674  70.94  0.002108645    1.455    0.313
        42 -11.1121    107.5881    231.5135   5.4757420443e+01   1.2389552594e+01    0.1774945    0.1617301  74.90 5.500817e-05    1.365    0.267
        43 -11.7905     73.0417    229.4609   6.2478389573e+01   1.6804646001e+01    0.2890497    0.2524088 -55.90  0.001529743    1.338    0.253
        44 -10.2498     51.6596    233.7253   6.7787131178e+01   1.8269413754e+01    0.1145846   0.08973987 -10.27 0.0002398247    1.614    0.380
        45 -11.9886     24.1635    232.7710   7.4037710010e+01   2.1119394469e+01    0.3462611    0.2178303  20.30  0.001423577    1.576    0.366
        46 -10.9534     24.9920    228.2723   7.3635724618e+01   2.1959737643e+01    0.2019526    0.1138075 -52.07 0.0005011609    2.260    0.558
        47 -10.5520    136.0008    206.0300   4.5033891295e+01   1.3485361586e+01     0.172236     0.145327  43.57  0.001049237    1.338    0.253
        48 -12.5008    152.8552    229.9285   4.4833973749e+01   7.2259175866e+00    0.3381907    0.2881647 -61.20  0.001958639    1.683    0.406
        49 -11.7856    142.3951    212.2702   4.4544517832e+01   1.1505950340e+01    0.2958782    0.2139422  14.38 0.0005804137    1.269    0.212
        50 -12.2817    140.1728    207.7943   4.4370491446e+01   1.2604463058e+01    0.3016471    0.2599421 -73.93  0.001081623    1.609    0.378
        51 -12.5337    145.4959    215.8826   4.4401352957e+01   1.0472162672e+01    0.3709998    0.3245181 -24.20  0.001331389    1.182    0.154
        52 -12.9283    147.9978    224.3211   4.5065880603e+01   8.7251140926e+00    0.3030907    0.2901516  18.71 0.0004385065    1.298    0.230
        53 -11.6234    146.2745    220.6584   4.4916309907e+01   9.5534967529e+00    0.1833115    0.1663134  17.76 0.0005479975    1.186    0.157
        54 -10.6636    216.6044    231.2080   3.3238806431e+01   3.4090307593e-02    0.1452613   0.08076635 -24.23 0.0003475878    1.526    0.345
        55 -10.6117    123.6794    231.7112   5.1224247428e+01   1.0424082676e+01    0.1237865   0.08537137  -5.22 0.0002646066    1.601    0.375
        56 -10.9283     62.3312    231.1864   6.5123699688e+01   1.7645124439e+01    0.2485044   0.08660731  24.18  0.001023348    2.649    0.623
        57 -11.7195    194.5150    228.7301   3.6675110788e+01   2.6588420976e+00    0.2471808    0.1592209 -27.71  0.001020253    1.401    0.286
        58 -11.8847    138.3582    227.8849   4.7578918684e+01   9.3029924084e+00     0.226342    0.2095728 -31.23 0.0005495184    1.271    0.213
        59 -11.9106     80.5043    226.7032   6.0474034540e+01   1.6494401782e+01    0.2939585     0.237618  80.15  0.001854274    1.459    0.315
        60 -11.4858     85.0455    226.9998   5.9439785699e+01   1.5908271567e+01    0.3215728    0.1719288   6.80  0.001431803    2.627    0.619
        61 -14.6130     25.0084    213.6846   7.2886248436e+01   2.5054611841e+01    0.9972037    0.9083298 -79.70  0.006851988    1.238    0.192
        62 -13.1746    115.5920    224.6539   5.2152837482e+01   1.2665609345e+01    0.5082533     0.310194 -67.39  0.002688923    2.266    0.559
        63 -11.9936     30.1120    226.8603   7.2373648198e+01   2.1779577938e+01    0.2893151    0.1570078  39.26  0.001254995    1.465    0.317
        64 -12.0474     15.6480    183.9871   7.3660300525e+01   3.2763651643e+01    0.4069138    0.1851984 -57.98  0.001832575    2.354    0.575
        65 -12.9605     13.5903    194.7622   7.4789876382e+01   3.0347199092e+01    0.3334614    0.2601543  68.35 0.0003294179    1.130    0.115
        66 -13.2887     10.9273    190.3097   7.5272397249e+01   3.1616981831e+01    0.8020034    0.3146828  11.30  0.002790237    3.315    0.698
        67 -12.1344      4.4057    207.2255   7.7642194564e+01   2.8216305821e+01    0.2889899    0.1641722  76.21 0.0005547336    1.628    0.386
        68 -14.3629      3.9401    200.9580   7.7530260707e+01   2.9668372310e+01     1.112085    0.5657411 -87.34  0.005782421    1.901    0.474
        69 -13.4538      3.8964    220.8881   7.8220304236e+01   2.5285873882e+01    0.5501584    0.2475996 -65.30  0.000690704    2.487    0.598
        70 -13.3510      1.6941    217.2708   7.8619808481e+01   2.6226071803e+01    0.5334568    0.2407196 -55.08  0.001500209    2.854    0.650
        71 -11.3113    110.9958    233.3117   5.4200769397e+01   1.1660954924e+01    0.1820953    0.1422701  35.89 0.0002290025    1.190    0.160
        72 -11.9215     92.0690    224.8978   5.7581959902e+01   1.5484901320e+01    0.2126582    0.1788765 -51.06 0.0004830329    1.360    0.265
        73 -13.1879    160.5893    223.1381   4.2315014313e+01   7.3885699670e+00    0.4057685     0.321058  14.44   0.00249585    1.094    0.086
        74 -12.9366    173.4231    220.5708   3.9399561332e+01   6.2564286421e+00    0.3774537    0.3461576 -59.29  0.002647034    1.653    0.395
        75 -12.3481     33.4135    223.8372   7.1428517811e+01   2.2096338009e+01    0.2541642    0.1886894 -40.94  0.001299275    1.747    0.427
        76 -13.5903    127.5158    214.1658   4.8102515955e+01   1.3089984257e+01    0.4567541     0.361376  61.93  0.001622864    1.711    0.416
        77 -13.7126     21.8040    196.1408   7.2710964416e+01   2.9324114318e+01    0.5863581    0.5171433 -10.19  0.003297458    1.396    0.284
        78 -11.5427    239.4957    220.4889   2.8003716586e+01  -8.3998922829e-01    0.1077719   0.07672573 -11.55 0.0002228251    1.021    0.021
        79 -11.3166    190.4182    220.0311   3.6114746823e+01   4.3589324899e+00     0.177709     0.130874  10.41  0.000398189    1.163    0.140
        80 -10.7617     77.0616    219.7236   6.0610232252e+01   1.8290247599e+01    0.1842484    0.1462952  33.87 0.0005843535    1.085    0.078
        81 -12.9799     49.0340    217.7773   6.7260674587e+01   2.1814055920e+01    0.4154342    0.2818313 -89.33  0.002037822    1.628    0.386
        82 -11.6410     64.8153    218.8428   6.3494463524e+01   1.9876213106e+01    0.2215551    0.1272313  53.49 0.0006910406    1.754    0.430
        83 -10.0809     80.3144    218.2854   5.9680777656e+01   1.8200201458e+01    0.1245892   0.09509032 -11.87 0.0006993783    1.581    0.368
        84 -12.5771    250.5256    215.6322   2.5631468819e+01  -1.2793510066e+00     0.214752   0.09265238 -34.29 0.0005232836    1.881    0.468
        85 -13.9929    193.9983    212.0253   3.4220497833e+01   5.1300609960e+00     0.358707    0.2565072 -25.08 0.0009673781    1.230    0.187
        86 -11.4649    161.1032    216.5149   4.1241968570e+01   8.4018988367e+00    0.1822397    0.1453804 -26.63 0.0003727815    1.226    0.184
        87 -12.5370    121.8269    217.2973   4.9808791258e+01   1.3239770930e+01      0.25554    0.1914097  63.10  0.001443282    1.854    0.461
        88 -11.6271     92.5834    217.1800   5.6612903601e+01   1.6940432486e+01    0.3171708    0.1551159  32.22  0.001014981    1.736    0.424
        89 -12.4949    108.1345    214.3304   5.2584470515e+01   1.5553489049e+01    0.3456964    0.2348906 -66.44   0.00128261    1.827    0.453
        90 -10.4817     53.0010    215.9453   6.6144141694e+01   2.1785074413e+01    0.1848062     0.146207 -20.42  0.000437213    1.600    0.375
        91 -10.8530     61.0489    223.5198   6.4805453533e+01   1.9326691527e+01    0.1915135    0.1099471  26.81 0.0006085908    1.534    0.348
        92 -11.3791     84.3751    214.4853   5.8294696091e+01   1.8491169686e+01    0.4039168    0.2014359  49.19  0.001863033    2.128    0.530
        93 -11.4031    156.8470    214.0676   4.1749080323e+01   9.3426914332e+00     0.171713     0.158397  12.21   0.00039996    1.219    0.180
        94 -12.1883    115.2522    213.9977   5.0881087985e+01   1.4705222064e+01     0.172607    0.1610088   6.03  0.000358099    1.081    0.075
        95 -11.6117     41.8470    211.7581   6.8595174392e+01   2.3857693761e+01    0.3217859    0.2387852 -14.47  0.001827877    1.786    0.440
        96 -13.3173     36.9736    206.7666   6.9471021138e+01   2.5455863028e+01    0.4463139    0.3826673  53.57   0.00143776    1.018    0.018
        97 -11.2778     72.9295    212.1015   6.0859827586e+01   2.0360905301e+01    0.1945029    0.1670689  36.91 0.0003284247    1.022    0.022
        98 -11.3431    172.5338    211.6741   3.8219701152e+01   7.7716650393e+00    0.2116117    0.1065063 -37.58 0.0008547259    1.926    0.481
        99 -13.5578    180.0987    207.9134   3.6158835476e+01   7.4362195657e+00    0.3687249    0.2452614 -23.44  0.001269275    1.391    0.281
       100 -11.0365     96.9979    209.7763   5.4678904059e+01   1.7885713619e+01      0.36486    0.1918624 -71.35  0.001649321    2.602    0.616
       101 -11.3989    187.0086    209.6350   3.5126526137e+01   6.3221417440e+00    0.1655821    0.1312189   6.06 0.0006164236    1.096    0.088
       102 -11.8727     53.2875    209.7640   6.5564966720e+01   2.3094587902e+01    0.3618302    0.2308893  50.40  0.001970417    1.439    0.305
       103 -11.2795    157.4907    208.5454   4.0776941094e+01   1.0200231917e+01    0.2143935    0.1092624  29.67 0.0009304251    1.815    0.449
       104 -12.8264    125.0134    221.8881   4.9694971591e+01   1.1996933070e+01    0.3826088    0.2588202  30.36  0.001232098    1.300    0.231
       105 -11.0078    103.6210    205.4562   5.2523183464e+01   1.7913621927e+01    0.1955097    0.1289665 -57.81 0.0005646698    1.685    0.407
       106 -11.2901    115.3004    204.2563   4.9553927451e+01   1.6606235163e+01    0.2148873    0.1561402 -48.52 0.0005993506    1.479    0.324
       107 -10.9815     21.0108    204.1800   7.3368659301e+01   2.7535357017e+01    0.2220629    0.1684211  87.18 0.0009096958    1.294    0.227
       108 -11.5765    226.4871    204.4708   2.7488300831e+01   2.5559305919e+00    0.1136433   0.08529456 -13.05 0.0001311054    1.022    0.021
       109 -12.6500    145.7394    201.7859   4.2232935352e+01   1.2958308710e+01    0.5251983    0.3318073  58.52  0.002276568    2.792    0.642
       110 -11.3595     86.6301    193.1881   5.5203807819e+01   2.2781494477e+01    0.2544843     0.178239  29.87 0.0006527641    1.315    0.239
       111 -12.8725     91.3327    198.6975   5.4701497855e+01   2.0951588923e+01    0.8774474    0.3050134 -53.78  0.003345359    2.920    0.658
       112 -12.8991     84.0185    199.7623   5.6698116465e+01   2.1664474648e+01    0.5862007    0.3945075 -50.81  0.002054745    1.612    0.380
       113 -13.0119     21.4541    188.1424   7.2320271388e+01   3.1260233445e+01    0.7466881    0.1179868  32.53  0.002516492    3.639    0.725
       114 -11.8651    121.3231    200.3495   4.7568944437e+01   1.6569675117e+01    0.2104995    0.1547136 -25.98  0.000897784    1.482    0.325
       115 -12.8223    122.6505    196.3188   4.6655191881e+01   1.7193853983e+01    0.3371442    0.3161382  39.99  0.001452196    1.161    0.139
       116 -11.4780    182.5580    198.7445   3.4193626685e+01   8.6009819404e+00    0.2658807    0.1350432  26.65  0.001335241    1.954    0.488
       117 -11.4273    176.9680    198.5048   3.5233206137e+01   9.3636102050e+00    0.2337229    0.1116147  35.86 0.0008269944    2.129    0.530
       118 -11.9701    172.9040    197.1552   3.5809259570e+01   1.0124051145e+01     0.179366    0.1702694  -4.13 0.0009447542    1.271    0.213
       119 -12.2958    149.9886    197.9962   4.0707479873e+01   1.3073362740e+01    0.1882128    0.1660596   0.31 0.0005138905    1.022    0.021
       120 -11.1934    135.4064    198.2091   4.3979728295e+01   1.5046905647e+01     0.170939    0.1297091 -62.64 0.0009440347    1.663    0.399
       121 -12.3067    161.1843    207.8203   3.9901023674e+01   9.8465894591e+00    0.2582344    0.2386623  81.10   0.00104454    1.643    0.391
       122 -12.7355     35.6010    195.8276   6.9040006131e+01   2.8107039551e+01     0.518066    0.2409879  41.47  0.002422621    1.828    0.453
       123 -12.6032    193.1104    193.8959   3.1403860494e+01   8.0306410427e+00    0.2510266    0.1906351 -27.22 0.0006599713    1.173    0.147
       124 -11.2501    188.7973    192.0063   3.1875945954e+01   8.8889952686e+00     0.195141    0.1584301  13.35 0.0005006677    1.180    0.152
       125 -11.5083    164.1538    191.8539   3.6691024447e+01   1.2228711160e+01    0.1831954    0.1752938  30.73 0.0007097966    1.307    0.235
       126 -12.3132    133.4392    190.8697   4.3269345770e+01   1.6757866369e+01    0.3501711    0.2180913 -27.50  0.001706649    1.853    0.460
       127 -10.5213     52.5520    192.5210   6.4207645702e+01   2.7102776534e+01    0.1341962    0.1224018  50.73 0.0001122412    1.017    0.017
       128 -10.6036     50.2702    190.3452   6.4619618314e+01   2.7871248298e+01    0.1882773    0.1397859  59.18 0.0004164868    1.295    0.228
       129 -10.5681    141.2477    191.5958   4.1600456192e+01   1.5499805959e+01    0.1244742    0.1062348  84.53 0.0006937946    1.700    0.412
       130 -13.1612    119.0511    189.0107   4.6398910469e+01   1.9202532214e+01    0.3971431    0.3547015  47.63  0.002084206    1.212    0.175
       131 -11.8605    111.5137    191.5052   4.8633558664e+01   1.9749447006e+01    0.2094352    0.1684057  69.72 0.0007767966    1.576    0.366
       132 -12.7243    110.4930    188.0508   4.8367490367e+01   2.0630561412e+01    0.2895383    0.2515548 -44.24  0.001339178    1.206    0.171
       133 -10.8894    175.1474    188.6214   3.3911294418e+01   1.1279867281e+01    0.1817064    0.1101777  17.93 0.0008324423    1.747    0.428
       134 -10.3465    104.2859    188.2968   4.9972692692e+01   2.1456528619e+01     0.136878    0.1035466 -16.31 0.0002162959    1.548    0.354
       135 -11.5917    226.4121    186.6373   2.4513228026e+01   5.0569840591e+00    0.1956602    0.1605342  -6.00 0.0006486659    1.143    0.125
       136 -10.7175    186.8576    186.8204   3.1337342984e+01   9.9957046185e+00    0.1552007    0.1448792 -25.19  0.000476138    1.297    0.229
       137 -11.1159    161.0253    179.6825   3.5218314504e+01   1.4890587073e+01    0.1796243    0.1577211   7.18 0.0003970861    1.070    0.066
       138 -10.8003    163.3067    182.6458   3.5268540218e+01   1.4010501142e+01    0.2317412    0.1699391 -73.50 0.0004878245    2.401    0.583
       139 -12.5861    128.0013    186.0867   4.3770906503e+01   1.8510359850e+01    0.3021055    0.2445392  34.95  0.001479357    1.215    0.177
       140 -11.4230    209.1503    185.8940   2.7192634302e+01   7.2520696610e+00    0.1682732      0.11698 -12.02 0.0003695127    1.304    0.233
       141 -11.7392     33.0083    183.9778   6.8836186679e+01   3.1207460210e+01    0.3145527    0.1466536  68.50  0.001292194    2.486    0.598
       142 -12.7069     26.0804    183.1912   7.0714267189e+01   3.2053782520e+01    0.4462409    0.2262377  29.50  0.002122127    1.806    0.446
       143 -13.0495      4.2484    168.6430   7.6062305636e+01   3.7456355020e+01    0.5693989    0.4438711 -46.52  0.003325971    1.497    0.332
       144 -12.4683      2.2761    184.5291   7.7327006730e+01   3.3656208149e+01    0.2966746    0.2176524 -77.50 0.0007516755    1.356    0.262
       145 -12.9476      1.8453    179.5594   7.7239732067e+01   3.4897063645e+01    0.7543212     0.177848 -82.56  0.002537372    3.985    0.749
       146 -12.2654    105.1298    183.0315   4.8962887802e+01   2.2494299327e+01    0.2891887    0.1994016 -54.71 0.0006101173    1.524    0.344
       147 -10.5043    205.5114    183.5091   2.7393909288e+01   8.0807614891e+00    0.1226746    0.0995286 -15.82 0.0001336664    1.030    0.029
       148 -12.1374     94.7438    180.6656   5.1327898126e+01   2.4511309493e+01    0.4284238    0.2386814 -60.21  0.001940128    1.911    0.477
       149 -11.2451    120.5106    180.9455   4.4743363403e+01   2.0691946866e+01    0.2003738    0.1375468 -52.43  0.000615314    1.527    0.345
       150 -12.7778      7.9353    175.8638   7.5369900643e+01   3.5374738401e+01    0.3739656    0.2234774 -46.68  0.001155096    2.016    0.504
       151 -11.7617     63.5929    176.5813   5.9398864430e+01   2.9646814474e+01    0.3547251    0.2427335 -15.45 0.0009604545    2.009    0.502
       152 -11.2988     59.1434    180.2142   6.1094989421e+01   2.9297461626e+01    0.2093308    0.1681845  49.75  0.000291639    1.168    0.144
       153 -11.7250     55.9898    177.7843   6.1717966805e+01   3.0268302960e+01    0.2200591    0.1911657  35.58            0    1.106    0.096
       154 -11.2582    165.6478    186.5916   3.5477021592e+01   1.2960129344e+01    0.2408013    0.1959009  62.75  0.001169851    1.877    0.467
       155 -13.1470    116.0668    178.1751   4.5394104601e+01   2.1953439355e+01    0.4394582    0.2797442  13.64  0.001498779    1.859    0.462
       156 -11.2090     25.8601    179.1422   7.0483817483e+01   3.3076253766e+01    0.2196652    0.1591553  54.79 0.0006313258    1.249    0.199
       157 -13.9491    128.4112    175.5254   4.1883093679e+01   2.0647811353e+01    0.5716659     0.484143 -50.26  0.002035745    1.243    0.196
       158 -11.0951     86.3290    178.7103   5.3314027666e+01   2.6142667235e+01    0.1477354     0.102435  58.09 0.0002564124    1.620    0.383
       159 -11.8412     23.8710    168.1218   7.0228222497e+01   3.6046675661e+01    0.3403176    0.1903237  68.09  0.001454605    1.816    0.449
       160 -12.0947      7.4304    163.1569   7.4828278865e+01   3.8638588394e+01     0.281198      0.16673  35.69 0.0005299911    1.581    0.367
       161 -13.5404     20.4008    173.7474   7.1667425635e+01   3.4912822499e+01    0.5336925    0.4955759 -72.08  0.002848694    1.165    0.142
       162 -12.4583     14.1581    171.0231   7.3305878019e+01   3.6117648446e+01    0.2666371    0.2309053  54.16 0.0002377695    1.067    0.063
       163 -13.5535     15.6213    166.7756   7.2597980373e+01   3.7087758263e+01    0.6513543    0.4375397  56.91   0.00183661    1.365    0.267
       164 -11.6551     12.1795    161.1957   7.3267383511e+01   3.8800004216e+01    0.2247127    0.1900568  32.11 0.0006477392    1.221    0.181
       165 -12.8321    137.5858    176.4527   3.9858776326e+01   1.9048874759e+01    0.4035748    0.2985604  61.39  0.001897556    1.885    0.470
       166 -12.4249     30.7598    175.8335   6.8818801548e+01   3.3448894301e+01    0.4203852    0.2529011 -61.89  0.001145991    1.691    0.409
       167 -10.5646    229.0030    177.0000   2.2428176877e+01   6.1388313744e+00     0.161523   0.06404188  36.15 0.0007943985    2.887    0.654
       168 -10.8314    216.3716    175.8432   2.4206691460e+01   7.8745517767e+00    0.1710541   0.09181576 -28.55 0.0003515214    1.626    0.385
       169 -12.7660    106.7486    175.3762   4.7328234362e+01   2.3969071671e+01    0.3066491    0.2489215  41.71 0.0008306982    1.220    0.180
       170 -11.3865     36.1224    175.0939   6.7196033604e+01   3.3110354000e+01     0.289814    0.1888285 -84.69  0.001463316    1.542    0.351
       171 -10.6726    169.2925    175.2934   3.2700146136e+01   1.4479023299e+01    0.1338639   0.09394313  -9.83 0.0002214598    1.554    0.357
       172 -10.7544    153.6840    175.6727   3.6071155477e+01   1.6748452371e+01    0.1425184   0.09873021 -11.08 0.0007044821    1.674    0.403
       173 -11.5071    149.0469    173.4464   3.6690088854e+01   1.7892267662e+01    0.2082053    0.1761944 -33.11 0.0003770974    1.140    0.123
       174 -11.9864    143.9107    173.0549   3.7781324833e+01   1.8764081099e+01    0.4288867    0.2015658  49.04  0.001658188    2.912    0.657
       175 -13.3333     91.0709    171.4764   5.0925844253e+01   2.7180815971e+01    0.4905472    0.3388595 -51.59  0.001375886    1.487    0.327
       176 -12.7109     78.9907    173.0559   5.4544494857e+01   2.8501473485e+01    0.4880296    0.2480783  39.80  0.001865133    1.843    0.457
       177 -11.1316     50.4795    174.0215   6.2894709673e+01   3.1843218849e+01    0.2042241    0.1363079 -76.78 0.0003583627    1.533    0.348
       178 -12.6866    197.1544    170.5672   2.6500352747e+01   1.1280414019e+01    0.4236439    0.2043383  34.28   0.00209052    2.242    0.554
       179 -12.7813    153.8123    170.4706   3.5080371877e+01   1.7739678655e+01    0.5879773    0.2896225  47.49  0.002456836    2.571    0.611
       180 -12.3253    153.1642    165.5173   3.4282014186e+01   1.8815690764e+01    0.4036875    0.2648968  63.56  0.001758374    2.684    0.627
       181 -11.9943     39.0225    169.2388   6.5786370861e+01   3.4303841236e+01    0.4528362    0.1837581  60.61  0.001424034    3.172    0.685
       182 -10.7280     58.9602    170.5422   5.9999739126e+01   3.1719421316e+01    0.2139776    0.1373579  25.32  0.001014673    1.560    0.359
       183 -12.1076     30.9666    168.2403   6.8109874887e+01   3.5363139131e+01    0.3608996    0.2281032  40.33  0.001616179    1.462    0.316
       184 -10.3813    160.6651    168.2813   3.3183711428e+01   1.7098003150e+01    0.1258733    0.1099479  73.79 0.0002416723    1.616    0.381
       185 -12.7496    122.9902    164.7377   4.1284466762e+01   2.3827370364e+01    0.3469919    0.1977776 -47.88  0.001556887    1.747    0.428
       186 -12.0231    127.4124    166.6131   4.0524961013e+01   2.2709808844e+01     0.256662    0.2195344 -10.68  0.001147108    1.207    0.171
       187 -12.8856     82.4151    165.4977   5.2438728833e+01   2.9868885032e+01     0.525415    0.2821874  67.20  0.001859401    3.182    0.686
       188 -11.3319     67.4535    167.4679   5.7094475677e+01   3.1421492907e+01    0.1411988    0.1376879  53.94 0.0003032155    1.034    0.033
       189 -12.2458    103.0726    165.7959   4.6699733300e+01   2.6726437848e+01    0.2290358    0.1968143  55.72  0.001228119    1.242    0.195
       190 -11.4770    218.0225    164.7844   2.1912227297e+01   9.3563711023e+00    0.1977456    0.1428157 -29.79 0.0004174052    1.133    0.117
       191 -12.8161    109.7518    164.9671   4.4760068684e+01   2.5879736801e+01    0.3905624    0.2459621  25.60 0.0008199187    1.649    0.394
       192 -12.6302    112.7495    160.9888   4.3243088081e+01   2.6316421533e+01     0.323138     0.276159  73.13 0.0009880075    1.395    0.283
       193 -13.2326     93.4334    163.2625   4.8934328491e+01   2.8796518533e+01    0.4800588     0.274484  45.69  0.001138841    1.801    0.445
       194 -11.6399      1.8030    163.1946   7.6513839950e+01   3.9011477564e+01    0.2651704    0.1409092 -52.74 0.0004395151    2.081    0.519
       195 -11.9976      6.5107    158.9646   7.4865725550e+01   3.9790341253e+01    0.2164717    0.1907806 -12.60   0.00091955    1.369    0.269
       196 -12.9300     37.5983    160.6712   6.5347967949e+01   3.6673152895e+01    0.5424106    0.2098749  35.65  0.001585456    2.289    0.563
       197 -12.9951    170.2227    159.9044   2.9564251069e+01   1.7183030381e+01    0.3822095    0.2199973 -42.38   0.00186915    1.624    0.384
       198 -13.2237    133.6007    156.0754   3.6978934836e+01   2.3974857648e+01     0.527535    0.4114888 -65.53  0.001835991    1.524    0.344
       199 -12.3509    104.5161    157.9773   4.4913776029e+01   2.8337299218e+01    0.4202218    0.2700395  74.18  0.001669821    2.597    0.615
       200 -11.2002     69.3231    163.2900   5.5951648534e+01   3.2227856824e+01    0.1462536    0.1111719 -24.28 0.0007011764    1.608    0.378
       201 -10.9681    151.3416    158.5943   3.3331289662e+01   2.0493570351e+01    0.2743481    0.1299737  42.35   0.00114169    2.248    0.555
       202 -12.7241    118.7267    156.8624   4.0891446445e+01   2.6282937206e+01    0.3555696    0.2637412 -13.11  0.001701233    1.663    0.399
       203 -13.2417     60.8802    156.1613   5.7504322434e+01   3.5162278840e+01    0.3249662    0.2982986 -19.41  0.001114046    1.216    0.178
       204 -12.6244     42.8918    155.4832   6.3098383040e+01   3.7479383329e+01    0.3091666    0.2475254  54.17 0.0004225898    1.203    0.169
       205 -10.8817    212.4748    156.4743   2.1220765527e+01   1.1420306850e+01    0.1258366    0.1023197 -24.16 0.0001689389    1.018    0.018
       206 -11.5083    141.2886    155.9477   3.5109124357e+01   2.2710598160e+01    0.1975871    0.1752555 -34.97 0.0003029318    1.087    0.080
       207 -12.0599     25.4634    159.7542   6.9048200159e+01   3.8082228890e+01    0.2797487    0.2269625  31.21 0.0005603055    1.248    0.199
       208 -13.4535     11.7783    143.9209   7.2161699664e+01   4.3412552687e+01    0.7000154    0.3263578 -67.76  0.002544357    1.937    0.484
       209 -12.4106      1.4966    152.0100   7.6034483182e+01   4.1939149032e+01    0.4321614     0.120918 -82.04  0.001490615    3.248    0.692
       210 -13.3094      4.9927    149.9635   7.4805037642e+01   4.2258723650e+01    0.4738602     0.424712 -66.73   0.00163053    1.169    0.145
       211 -11.6702    192.8197    160.0633   2.5268620627e+01   1.3676101855e+01      0.18805    0.1661964 -42.53 0.0005688196    1.270    0.213
       212 -13.6393     74.6731    150.7052   5.2365323114e+01   3.4698153425e+01    0.5151354    0.3570605  48.53  0.001657003    1.469    0.319
       213 -12.5459     84.3719    150.0560   4.9287756378e+01   3.3427406604e+01     0.350437    0.2847418   2.17  0.001034339    1.435    0.303
       214 -12.8335     80.9834    152.7911   5.0788719523e+01   3.3245769413e+01    0.3906105    0.2694505 -76.05  0.001261933    1.640    0.390
       215 -11.0303    249.8045    157.3376   1.5949462485e+01   6.4374649101e+00    0.1878646    0.1061163  48.57  0.001113299    2.679    0.627
       216 -11.8251    136.1276    150.1790   3.5166937479e+01   2.4816374673e+01    0.1925861    0.1754711  88.17 0.0003734931    1.323    0.244
       217 -10.9157    123.4628    151.5054   3.8606219204e+01   2.6697787182e+01    0.1456381    0.1407064 -14.29 7.707503e-05    1.005    0.005
       218 -11.9932     27.8241    150.3476   6.7412179805e+01   4.0367884352e+01    0.3738679    0.2555301 -19.95  0.001703422    1.903    0.474
       219 -10.7761    225.5329    150.5128   1.8057103753e+01   1.0537507293e+01    0.1227774   0.09723289 -27.69 4.848773e-05    1.038    0.037
       220 -12.2668    109.3537    149.4029   4.1944654254e+01   2.9570714598e+01    0.3504961     0.270925  46.89  0.001040648    1.343    0.256
       221 -12.1970     96.0017    148.9507   4.5637028783e+01   3.1878165459e+01    0.2274987    0.2231934  62.53 0.0005048726    1.030    0.029
       222 -10.9782     44.2985    149.6414   6.1924651477e+01   3.8878853377e+01    0.1589783    0.1008539  63.58 0.0007035154    1.708    0.414
       223 -10.8789     20.6653    148.5119   6.9591979036e+01   4.1488109283e+01    0.1936812    0.1194319  39.33 0.0008669982    1.556    0.357
       224 -11.6327    182.0580    145.2617   2.4259092216e+01   1.7972716134e+01    0.2242482     0.172651 -36.88 0.0003544492    1.163    0.140
       225 -11.5197    171.0685    145.3071   2.6403135854e+01   1.9795708875e+01     0.188078    0.1751641  15.69 0.0006982919    1.134    0.118
       226 -10.3396    121.5371    145.4992   3.7873542439e+01   2.8388869552e+01    0.1460673    0.1439157 -29.27  -1.8317e-06    1.035    0.034
       227 -12.6605    103.0379    143.0365   4.2439519258e+01   3.2156221030e+01    0.5125236    0.3535112  83.74   0.00136046    2.214    0.548
       228 -11.6796     61.9565    145.0268   5.5476254106e+01   3.7943879793e+01    0.2513618    0.1756445 -30.04  0.001138973    1.766    0.434
       229 -12.0115     53.7982    143.8038   5.7974690764e+01   3.9321163921e+01     0.293557    0.2310875  79.60 0.0006195913    1.331    0.249
       230 -12.9688     50.3079    141.6078   5.8817748634e+01   4.0338843833e+01    0.4764824    0.3003553  24.59  0.002145186    1.656    0.396
       231 -10.7994    196.3007    143.0568   2.1235004502e+01   1.6063045873e+01    0.1827268     0.145484 -32.67 0.0002914472    1.080    0.074
       232 -11.6269     37.8190    143.0583   6.3252801922e+01   4.1354509363e+01    0.2198292    0.1830663  70.10 0.0003805429    1.172    0.147
       233 -11.0193    164.9404    140.9966   2.6729298902e+01   2.1674978166e+01    0.2094498    0.1943951 -24.07 0.0005948014    1.033    0.032
       234 -10.2646    150.5575    141.5306   2.9951081167e+01   2.4105083203e+01    0.1452457    0.1318562 -20.80 0.0005285647    1.051    0.049
       235 -12.7957     72.8493    139.1724   5.0925040277e+01   3.7953965371e+01     0.315658    0.2656197 -81.37 0.0003262139    1.235    0.191
       236 -13.3905     68.5542    137.0651   5.1949017782e+01   3.9133916513e+01    0.4043615    0.3308643  39.88 0.0007174874    1.218    0.179
       237 -12.3216      1.6660    138.2626   7.5178386981e+01   4.5591323990e+01    0.3993658     0.154014 -78.38  0.001188124    2.280    0.561
       238 -12.0170     41.2692    137.4958   6.1329842732e+01   4.2497428111e+01    0.4015623    0.2556091  56.22  0.001832252    1.658    0.397
       239 -12.4339     19.5161    138.5497   6.9050424977e+01   4.4282098585e+01    0.3409801    0.2475532 -18.70 0.0005740654    1.699    0.412
       240 -12.0399    133.1725    136.6596   3.2988178405e+01   2.8283406308e+01    0.4961818    0.2793232 -34.51  0.002048348    1.990    0.497
       241 -11.7274     84.2107    145.0716   4.8429410296e+01   3.4712481339e+01    0.3071715    0.1955101  -3.67  0.001185066    2.542    0.607
       242 -10.5778    239.7149    135.9995   1.3284750778e+01   1.0772156333e+01    0.1495616   0.08360164 -35.10 0.0005131739    1.380    0.276
       243 -10.8769     32.0423    136.3226   6.4412215398e+01   4.3776082034e+01    0.1956253     0.186915  40.13 0.0005575816    1.105    0.095
       244 -13.2714    126.2705    134.2061   3.4186470803e+01   3.0096289244e+01    0.5094241    0.3614578  39.48   0.00135327    1.446    0.308
       245 -12.9480    122.0594    128.1497   3.3900106104e+01   3.2250596946e+01    0.4302018    0.3693353 -50.47  0.002230183    1.142    0.125
       246 -13.2090     12.9887    133.9327   7.0912490217e+01   4.6040031993e+01    0.3853715    0.3112189 -64.02  0.001576799    1.200    0.166
       247 -10.5417    196.5314    134.4795   1.9398742136e+01   1.7500547309e+01    0.1330878    0.1136986 -32.97 0.0008091187    1.043    0.041
       248 -10.9967    178.0017    133.9941   2.2611581924e+01   2.0723231476e+01    0.1674262    0.1507518 -26.49 0.0004759347    1.020    0.020
       249 -11.6084     45.1877    133.9439   5.9439546766e+01   4.3023675993e+01    0.2571508    0.2189192  31.06 0.0008882793    1.212    0.175
       250 -12.6876     19.5800    131.9284   6.8358266810e+01   4.6091473659e+01    0.3827655     0.269371  44.26 0.0005108005    1.414    0.293
       251 -11.6407    102.7443    133.5821   4.0530266463e+01   3.4499254776e+01    0.2266075    0.1393832  47.21  0.000957479    1.721    0.419
       252 -13.3788     81.7708    130.5771   4.6352191397e+01   3.8805057432e+01    0.7326609    0.4827211  -7.24  0.002435427    2.413    0.586
       253 -11.7936    107.9522    132.4611   3.8777120255e+01   3.3843213322e+01    0.2313025    0.1502674  37.31 0.0006581443    1.561    0.359
       254 -11.9621     60.1464    139.8255   5.5227924537e+01   3.9567218484e+01    0.2295492    0.2007042  70.26  0.000568647    1.158    0.136
       255 -12.2640     50.1950    130.3383   5.7091706408e+01   4.3406097912e+01    0.3608074    0.2360804  10.48  0.001116497    1.860    0.462
       256 -13.3001     56.8252    127.6236   5.4260291221e+01   4.3288373587e+01    0.6230162    0.3847881 -23.07  0.002486019    2.352    0.575
       257 -11.9783    101.0647    128.7862   3.9962260047e+01   3.5964052320e+01    0.2319434    0.2072994  66.82 0.0004068032    1.208    0.172
       258 -10.4206    218.7228    128.3300   1.4636268324e+01   1.4982188806e+01    0.1221734    0.0873948 -54.50 0.0002411833    1.597    0.374
       259 -11.3909    109.8047    127.2315   3.7059950752e+01   3.4750717825e+01    0.2162133    0.1800136 -22.87 0.0008538142    1.339    0.253
       260 -10.4670     41.4900    127.5130   5.9784998003e+01   4.5206062617e+01    0.1481923    0.1401078 -78.77 -4.61182e-05    1.019    0.018
       261 -10.7444     35.4492    126.7486   6.1896990239e+01   4.6067391551e+01    0.2088715    0.1256065 -57.88 0.0009332521    1.568    0.362
       262 -12.8605     76.2052    124.4925   4.6911472852e+01   4.1272720188e+01      0.43155     0.339024 -85.25   0.00205752    1.440    0.305
       263 -12.8841     75.7500    119.4424   4.5966741921e+01   4.2658380065e+01    0.4712608    0.3802888   1.93  0.001541014    1.495    0.331
       264 -13.1720     82.3285    118.0395   4.3416925361e+01   4.1926537344e+01    0.4979108    0.4623269 -88.45  0.001506268    1.112    0.101
       265 -12.5601     74.0859    114.0232   4.5313768749e+01   4.4334513259e+01    0.3629341    0.2961034 -65.91 0.0003962871    1.228    0.186
       266 -12.1890     77.5442    113.4525   4.3971498661e+01   4.3908916892e+01    0.3812803    0.2312245 -61.15 0.0007657899    1.676    0.403
       267 -13.4293      4.3070    121.9950   7.3061970423e+01   4.9868497089e+01    0.4720508    0.3036044 -71.55   0.00239298    1.385    0.278
       268 -11.6294    194.6683    121.9677   1.6996809487e+01   1.9969461082e+01    0.1954768    0.1588362 -36.39 0.0007208186    1.058    0.054
       269 -14.0643     13.7190    119.2699   6.9203978740e+01   5.0025609698e+01    0.7333781    0.3939911  33.69  0.002437008    1.875    0.467
       270 -11.3426     28.3546    120.7637   6.3726291728e+01   4.8418909074e+01    0.3347009    0.1960445  44.01  0.000786669    1.742    0.426
       271 -12.4669     95.9045    119.3484   3.9341890408e+01   3.9205511049e+01    0.4983267    0.2530679 -43.48  0.001567694    2.054    0.513
       272 -12.3671     93.5003    116.4673   3.9401852331e+01   4.0352035170e+01    0.4804749      0.30483  19.41  0.001939369    2.092    0.522
       273 -11.0399    211.3939    118.7922   1.3697281726e+01   1.7672511670e+01    0.1821294    0.1053602 -30.25  0.000404127    1.576    0.365
       274 -11.8824    121.9941    117.9971   3.1470382499e+01   3.4562587375e+01    0.2241913    0.2167037 -46.52  0.001213561    1.007    0.007
       275 -12.0025     21.9571    117.9596   6.5835347476e+01   4.9759011686e+01    0.3838214    0.1536461  49.40  0.001180991    2.799    0.643
       276 -12.4972    201.7179    114.2973   1.4168744666e+01   2.0044669318e+01    0.2370208    0.1997571 -42.88 0.0003397465    1.085    0.079
       277 -10.8388     68.4442    115.4657   4.7647660105e+01   4.4856802069e+01    0.1529942     0.147817 -74.55 0.0001887199    1.009    0.009
       278 -13.2418     62.4187    111.1489   4.8892893331e+01   4.6913891257e+01    0.6142205    0.3483185 -59.15     0.001274    1.691    0.409
       279 -11.5571     51.0164    120.2332   5.5019041706e+01   4.6053381153e+01    0.2054115     0.127451  26.83 0.0008936501    1.683    0.406
       280 -12.2748     11.3497    112.5261   6.9404314486e+01   5.2051063702e+01    0.2492552    0.1225716 -76.60 0.0006004992    1.836    0.455
       281 -11.9292     68.4479    109.8121   4.6354693337e+01   4.6337139732e+01    0.3571494    0.2595369 -24.55 0.0007675466    1.713    0.416
       282 -11.4642    169.6810    115.0462   1.9862852501e+01   2.5781890281e+01    0.2044664    0.1639666 -38.44 0.0003813996    1.128    0.114
       283 -11.2072    105.0823    121.4624   3.7068591519e+01   3.7001563015e+01     0.232015    0.1521966  39.71 0.0006835475    1.552    0.356
       284 -11.8404      1.6179    109.0931   7.3011837184e+01   5.3553556569e+01    0.2288861    0.1565284  78.33 0.0007077127    1.412    0.292
       285 -10.0344    123.6890    108.7056   2.8645480212e+01   3.6290712139e+01    0.1515684    0.1216625  -4.98 0.0002633306    1.592    0.372
       286 -10.0735     87.3120    108.3412   3.9385403992e+01   4.3487544132e+01    0.1618844    0.1218414 -19.74 0.0005822615    1.698    0.411
       287 -10.8837    139.2714    107.2192   2.4377116044e+01   3.3405067608e+01    0.2102692    0.1772127 -79.17  0.001063755    1.384    0.277
       288 -10.8428    104.9178    102.2701   3.2188243025e+01   4.1554852901e+01    0.2172106    0.1980542  45.22 0.0004854248    1.123    0.110
       289 -10.6928     78.9997    102.2259   4.0653330349e+01   4.6503589712e+01      0.21077    0.1290183  36.40 0.0008805634    1.673    0.402
       290 -11.8960     55.9129    101.1982   4.9114788749e+01   5.0502437297e+01    0.2743792     0.220692 -67.01 0.0004608163    1.228    0.186
       291 -11.7004     57.9033     97.4981   4.7413411524e+01   5.1179482271e+01    0.2616166    0.2418498 -46.44 0.0007201173    1.062    0.058
       292 -12.7662      5.7754    100.1214   7.0351543782e+01   5.5803532259e+01    0.5741933    0.2649208  22.47  0.002480488    2.275    0.560
       293 -12.2573      5.2473     95.4427   7.0040980120e+01   5.7113196480e+01    0.3972176    0.3002001 -25.58  0.002149001    1.444    0.308
       294 -10.3219    155.2254     99.9806   1.8976684058e+01   3.1533036279e+01    0.1914107    0.1132021 -41.69 0.0003257265    1.563    0.360
       295 -10.2593     85.3150    100.3379   3.7946553739e+01   4.5822508328e+01    0.1612571    0.1224012 -17.72 0.0007047508    1.697    0.411
       296 -11.9822     94.2360     98.5710   3.4487715150e+01   4.4541349445e+01    0.3331386    0.2705216  77.22 0.0008162222    1.479    0.324
       297 -11.8584    178.1282     96.4033   1.3781027236e+01   2.7505723186e+01    0.2895342    0.1588677 -51.70 0.0007803082    1.864    0.463
       298 -10.8755    104.0016     96.7428   3.0917183911e+01   4.3004597251e+01     0.207239    0.1990342  39.30 0.0002012451    1.074    0.069
       299 -11.5487     98.2714     96.8207   3.2705669268e+01   4.4149470927e+01    0.2287216     0.209169 -79.70 0.0007897877    1.153    0.133
       300 -12.3256     82.6337     93.8060   3.7052650224e+01   4.7906691999e+01    0.3769065    0.2899075 -13.51 0.0008473239    1.693    0.409
       301 -11.6864    120.9006     90.5277   2.4343588842e+01   4.0780283829e+01    0.5043116    0.2551765 -37.50  0.001942114    2.089    0.521
       302 -11.4473     64.5147     98.4890   4.5052835550e+01   4.9898454269e+01    0.1529714    0.1480883 -76.99 5.768644e-05    1.032    0.031
       303 -11.2729     25.5672     92.0489   6.0209226286e+01   5.6579320562e+01    0.3639136    0.1767904  27.83  0.001522532    2.100    0.524
       304 -12.8008     73.5435     90.1789   3.9317994787e+01   5.0453793655e+01    0.3627201    0.3145298 -59.08  0.001128934    1.145    0.127
       305 -10.6073     58.1523     91.5891   4.5781542502e+01   5.2667879358e+01    0.1980262    0.1483393  12.08 0.0004018303    1.569    0.363
       306 -12.5564      2.6771     86.7886   7.0174484832e+01   5.9593839503e+01    0.5407683    0.2299864 -89.07  0.002103238    2.516    0.603
       307 -11.8925      6.9816     86.8703   6.8115192163e+01   5.9352722806e+01    0.2135863    0.2039402 -13.07 0.0005404643    1.144    0.126
       308 -11.2843    125.2036     88.0370   2.2505128468e+01   4.0352163282e+01    0.3305879    0.2098121 -32.21  0.001139383    1.748    0.428
       309 -12.0340     54.5948     85.4220   4.5584636165e+01   5.4781108461e+01    0.5090808    0.4314799  -8.56  0.002610114    1.325    0.245
       310 -11.8538    164.6760     85.0384   1.3208393832e+01   3.2275095474e+01    0.2097541    0.1749626 -42.27 0.0005466533    1.100    0.091
       311 -10.3227    134.9958     85.5079   1.9399664016e+01   3.8688195229e+01    0.1968777    0.1320373  83.97 0.0005577229    2.238    0.553
       312 -10.9488    187.4942     84.5764   9.3497051574e+00   2.7623464156e+01    0.1355237    0.1189878 -46.74 5.681779e-05    1.014    0.014
       313 -12.2883     94.8245     83.5585   2.9842670677e+01   4.7857558150e+01    0.2728364    0.2504253 -56.16 0.0002848897    1.079    0.073
       314 -11.3322     65.1457     81.7770   4.0099192562e+01   5.3971645011e+01    0.3689494    0.2123758  23.90  0.001470389    2.139    0.532
       315 -11.1767     10.4691     81.9734   6.5648502331e+01   6.0468101369e+01     0.217787    0.1247677 -69.19 0.0003960708    1.552    0.356
       316 -11.7722     89.8612     79.1566   3.0075736868e+01   4.9857183829e+01    0.3816757    0.2771691  28.11  0.001252488    1.596    0.373
       317 -11.9097      4.7446     79.7203   6.8181801993e+01   6.1394778853e+01    0.2475333    0.1529683  62.15  0.001177596    1.865    0.464
       318 -12.2149    108.5362     78.6196   2.4101698077e+01   4.5959455043e+01     0.392353    0.2514059  47.84 0.0009112815    1.586    0.369
       319 -11.2807      9.5386     77.1364   6.5296124752e+01   6.1817137889e+01    0.2344972    0.1866221 -79.53  0.001293641    1.210    0.174
       320 -11.0697    105.0781     73.0199   2.3278476601e+01   4.7862934174e+01    0.2447342    0.1857938 -80.58 0.0006215621    1.691    0.408
       321 -10.6311     45.7312     73.6332   4.6125890147e+01   5.9032180647e+01    0.2019157    0.1319078  41.42 0.0008243654    1.614    0.380
       322 -11.6277     71.9674     69.1612   3.3206611564e+01   5.5643803124e+01    0.3124073    0.2446966  10.66  0.001416476    1.568    0.362
       323 -11.6123     52.6072     71.7472   4.2329841973e+01   5.8457920010e+01    0.3213121    0.2311424 -19.03  0.001038134    1.721    0.419
       324 -11.3193      2.4814     72.5017   6.8259682870e+01   6.3420172910e+01    0.1386712     0.120404 -57.67 0.0001630987    1.023    0.023
       325 -10.4600    185.4800     71.4209   6.3286664788e+00   3.0121795559e+01    0.1343161    0.1184543 -50.56 0.0001142092    1.024    0.024
       326 -11.0220    154.3037     67.9965   1.0337605514e+01   3.7475246074e+01    0.2015182    0.1675606 -42.44 0.0003530949    1.137    0.120
       327 -12.1260     61.7818     67.5087   3.6817627116e+01   5.7903458770e+01    0.3730136    0.2519452  58.31  0.001491024    1.848    0.459
       328 -12.9578     48.0633     65.2103   4.2274121183e+01   6.0712987598e+01    0.5168169    0.4026594  89.76  0.001729868    1.709    0.415
       329 -10.6368    124.5606     66.5754   1.6032080804e+01   4.4614884449e+01    0.1467149    0.1402908 -73.72 7.156028e-05    1.004    0.004
       330 -13.9188     17.8128     61.5438   5.7316845063e+01   6.5257866174e+01    0.4189366    0.3612447 -25.03  0.001022831    1.133    0.117
       331 -11.3479     27.6656     60.4252   5.1350301824e+01   6.4568517873e+01    0.2188299    0.1982478  44.76 0.0003779591    1.223    0.182
       332 -12.7498     37.4425     53.8276   4.3626515735e+01   6.4896389028e+01    0.5800528    0.2622971 -47.75  0.002243215    2.084    0.520
       333 -12.0827     32.2842     56.6629   4.7512858149e+01   6.4925053918e+01    0.2302487    0.2011777 -74.44 0.0004832459    1.283    0.220
       334 -10.4566    153.1695     57.6054   7.4839191431e+00   3.9401095744e+01    0.1845172    0.1284389  51.69 0.0002970519    1.557    0.358
       335 -11.1373     96.9094     56.6081   1.9928212749e+01   5.2852467375e+01    0.2099851    0.1875406  59.48  0.000635023    1.111    0.100
       336 -12.1007     12.5874     59.8008   5.9942091973e+01   6.6108956338e+01    0.2699464    0.2393261 -60.69 0.0005558066    1.079    0.073
       337 -10.6621    179.8064     56.1698   3.1136030656e+00   3.3610763452e+01     0.163935    0.1549389 -12.70 0.0002929981    1.267    0.211
       338 -11.3538    111.1944     55.7785   1.5655160178e+01   4.9660848887e+01    0.3484722    0.1715766 -57.18   0.00123335    2.861    0.650
       339 -12.9367    109.2131     50.9196   1.4408302454e+01   5.0949199172e+01    0.5251982    0.2576349  55.33  0.001609811    1.987    0.497
       340 -11.5720    126.1083     54.8468   1.1805202865e+01   4.6253399798e+01     0.218337    0.1858746 -70.32 0.0003351065    1.191    0.160
       341 -11.0729    195.1938     52.5067   3.1283000177e-01   3.0857519095e+01    0.1878041     0.148639 -46.98 0.0006600483    1.074    0.069
       342 -10.8781    146.9635     52.9923   7.1484065132e+00   4.1563184570e+01    0.1713549    0.1531595 -54.80 0.0003552783    1.051    0.049
       343 -11.4477     34.4736     59.4501   4.7263639901e+01   6.3989917568e+01    0.2557378    0.1930123 -46.86 0.0005594645    1.247    0.198
       344 -11.0695    151.5799     51.1985   5.8221312525e+00   4.0742658785e+01    0.1903378    0.1349256 -22.35  0.000535608    1.640    0.390
       345 -12.9919     30.1483     49.9372   4.6299283755e+01   6.6747272591e+01    0.3541596    0.2529368 -22.12  0.001627524    1.513    0.339
       346 -11.8430     16.2413     50.0405   5.4908297327e+01   6.8211724945e+01    0.2253488    0.1903104  25.39  0.000292364    1.265    0.210
       347 -12.4989     97.9167     47.5592   1.6183930389e+01   5.4186981982e+01    0.5151688    0.3100895 -68.91  0.001745362    2.674    0.626
       348 -11.0656    116.3105     48.3120   1.1736535605e+01   4.9660472769e+01    0.1448818     0.113335  24.07 0.0002752889    1.628    0.386
       349 -10.5462     44.1110     48.1996   3.7792285700e+01   6.5125175149e+01     0.181035      0.16707  69.29 0.0004646959    1.287    0.223
       350 -10.7407    128.7726     47.2818   8.6898536511e+00   4.6793783507e+01    0.2209326    0.1220979 -21.63  0.000891696    2.378    0.579
       351 -11.4606      2.8573     45.1844   6.2427056287e+01   7.0328070490e+01    0.4729258    0.1372827 -57.27  0.001850134    2.549    0.608
       352 -11.5037    142.2320     45.9720   5.7594827653e+00   4.3730729127e+01    0.1943249    0.1761133 -52.92 0.0003387585    1.070    0.066
       353 -11.2874     49.6516     43.9742   3.3108748959e+01   6.5052229370e+01     0.219465    0.1863724  20.60 0.0004607516    1.175    0.149
       354 -11.6151     90.5041     43.4482   1.6722925593e+01   5.6597766288e+01    0.3399967    0.2008772  49.94  0.001534119    1.633    0.388
       355 -12.2704     93.9224     40.2177   1.4388863203e+01   5.6304348253e+01    0.3045193    0.2397943  27.79 0.0004414469    1.469    0.319
       356 -13.3842     32.5680     40.3967   4.0918784048e+01   6.8506306185e+01     0.698329    0.3307406  42.87  0.002862562    2.372    0.578
       357 -11.7840    120.9519     39.5643   7.5770970364e+00   4.9832640689e+01       0.2418    0.2041965 -35.90 0.0001875588    1.224    0.183
       358 -11.2619     72.1839     30.9337   1.7240377808e+01   6.2743211937e+01    0.2247785    0.1881254  66.56 0.0004535229    1.260    0.206
       359 -12.1252     80.3234     38.0599   1.7684488114e+01   5.9808299245e+01    0.4117084    0.2477172 -39.13  0.001603137    1.713    0.416
       360 -12.6564     77.5318     30.5217   1.5195384518e+01   6.1588500730e+01    0.3500438    0.2998873 -72.43  0.000711854    1.352    0.260
       361 -10.6935    182.2228     45.6237   2.9372679317e-03   3.4550499729e+01    0.1635718    0.1187147  60.86  0.000280157    1.520    0.342
       362 -11.9078     10.0557     36.9381   5.4642013550e+01   7.1782323616e+01    0.2072087    0.1780955  -3.83 0.0003372092    1.139    0.122
       363 -11.8531      4.8869     36.3851   5.8310295853e+01   7.2285144270e+01    0.2975392    0.1744662 -77.97   0.00145481    2.040    0.510
       364 -12.0856     17.3897     34.5185   4.8322984711e+01   7.1634161119e+01    0.3111318    0.1922524  40.24 0.0009472993    1.850    0.460
       365 -11.5341     86.2586     34.2566   1.4115890311e+01   5.9013086162e+01    0.2688649    0.1679954  52.75  0.001274776    1.511    0.338
       366 -11.8148     42.4538     34.0452   3.2167282044e+01   6.8203621009e+01    0.2668344    0.1969664  33.05 0.0007138627    1.319    0.242
       367 -11.7520     63.2600     32.4667   2.1423448801e+01   6.4453437447e+01    0.4149152    0.1604925  43.69  0.001026057    2.539    0.606
       368 -12.2120     29.8515     31.4456   3.8352237620e+01   7.0699532675e+01    0.4636304    0.1434245  39.06   0.00166675    3.260    0.693
       369 -11.1661      1.9875     30.6606   5.8592184609e+01   7.3769655185e+01    0.1773001    0.1481577 -15.11 0.0004042568    1.126    0.112
       370 -10.8100    137.6942     29.7058   1.1685410674e+00   4.7008825438e+01    0.1333346    0.1031929  36.79 0.0002442734    1.581    0.368
       371 -11.2983     67.6138     28.3592   1.7670817718e+01   6.4140897850e+01    0.2685722    0.1275146 -38.82  0.001137268    2.193    0.544
       372 -11.2673     61.4511     29.4794   2.0682177036e+01   6.5305339736e+01    0.1373122    0.1297845  28.60 0.0001020444    1.013    0.012
       373 -10.7149     52.4520     29.5238   2.4715090341e+01   6.7139452830e+01     0.136039    0.1281998  19.23 0.0001174098    1.026    0.025
       374 -11.4440     45.5757     25.8098   2.6140931017e+01   6.9069546632e+01    0.1877927    0.1268326 -48.72 0.0009511795    1.716    0.417
       375 -12.8076     86.5188     23.9622   9.4264267645e+00   6.0353548360e+01     0.541344    0.2364489  55.79   0.00171958    2.056    0.514
       376 -10.4393      1.4656     25.4843   5.7061341964e+01   7.4950025176e+01    0.1263165    0.1103102 -30.96  0.000110549    1.033    0.032
       377 -10.8788     98.5052     24.5414   6.6320457085e+00   5.7358386010e+01    0.1386252    0.1290391  72.95 7.274473e-05    1.005    0.005
       378 -10.7544     19.4422     23.9068   4.1623011735e+01   7.3566427224e+01    0.1823743    0.1234425 -50.48 0.0009917004    1.531    0.347
       379 -11.1264    113.3127     23.1364   2.9401331856e+00   5.3846200682e+01    0.1869437    0.1700152 -53.80  0.000435531    1.117    0.104
       380 -11.6752     70.6959     21.0010   1.2847427243e+01   6.4456535332e+01    0.2302039     0.189792  53.31 0.0006465124    1.131    0.116
       381 -11.2544     61.8211     21.5815   1.6409448527e+01   6.6372294831e+01    0.1975705     0.128234  65.95 0.0009530394    1.774    0.436
       382 -10.8777     99.2945     20.6325   4.7902456256e+00   5.7625779020e+01     0.146082   0.09837537 -63.21 0.0004813644    1.720    0.419
       383 -10.6205    141.4959     18.9493   3.5705877651e+02   4.7314556371e+01    0.1834543     0.128462 -31.29 0.0003353136    1.472    0.321
       384 -11.1578    132.7342     16.9576   3.5753622594e+02   4.9683609943e+01    0.1807017    0.1658684 -73.80 0.0003708195    1.048    0.046
       385 -12.1026    162.4793    247.5047   4.5240318777e+01   3.4751594187e+00     0.199854    0.1640796  19.39 0.0002090572    1.228    0.185
       386 -11.5235     68.0774    246.9884   6.5043240786e+01   1.4040062006e+01    0.2149648    0.1661931  78.50  0.001404051    1.517    0.341
       387 -11.1112     58.3617    247.9771   6.7252894198e+01   1.4872105867e+01    0.2078647    0.1228805  35.79 0.0007569266    1.322    0.243
       388 -10.5763    231.4879    247.3949   3.3172099745e+01  -3.3210087987e+00    0.1032877    0.0708479  -4.14 0.0001253012    1.023    0.022
