#   1 NUMBER                 Running object number                                     
#   2 MAG_AUTO               Kron-like elliptical aperture magnitude                    [mag]
#   3 X_IMAGE                Object position along x                                    [pixel]
#   4 Y_IMAGE                Object position along y                                    [pixel]
#   5 X_WORLD                Barycenter position along world x axis                     [deg]
#   6 Y_WORLD                Barycenter position along world y axis                     [deg]
#   7 A_WORLD                Profile RMS along major axis (world units)                 [deg]
#   8 B_WORLD                Profile RMS along minor axis (world units)                 [deg]
#   9 THETA_WORLD            Position angle (CCW/world-x)                               [deg]
#  10 FWHM_WORLD             FWHM assuming a gaussian core                              [deg]
#  11 ELONGATION             A_IMAGE/B_IMAGE                                           
#  12 ELLIPTICITY            1 - B_IMAGE/A_IMAGE                                       
         1 -11.8462     57.8882    129.6156   1.0414366288e+02   4.2378920425e+01     1.319657    0.4938027 -72.54  0.004066357    4.050    0.753
         2 -12.5294    199.3584     39.7362   4.4222885234e+01   3.1014630644e+01     1.028194    0.9509076  37.24  0.004094394    1.242    0.195
         3 -12.5333    210.1650     28.9630   4.0193315035e+01   2.9832525455e+01    0.8261411    0.7410156  17.27  0.002041047    1.419    0.295
         4  -9.4129     20.7465     19.9967   8.7847286219e+01   6.9854315561e+01    0.1566444   0.08443208 -39.73 0.0008938349    1.591    0.371
         5  -9.4753     32.3753     11.1876   7.7640404668e+01   6.9876510917e+01    0.1603306    0.0994157 -37.63  0.000951446    1.730    0.422
         6 -10.9939    233.0640      4.9983   3.2611822352e+01   2.7398548461e+01    0.6710908    0.3400211 -70.85  0.003517982    2.000    0.500
         7 -10.6004    238.4241      2.8314   3.1776441873e+01   2.6491142551e+01    0.5057025    0.2806005 -87.76  0.002902609    1.720    0.419
         8  -9.9356    109.3371    201.7121   1.0239651141e+02   1.7974217395e+01    0.3519034     0.262874 -33.79  0.001316493    1.660    0.398
         9 -12.1779     27.9447    215.4265   1.2140161631e+02   2.5598691488e+01     1.719234      0.63004 -76.85  0.008307194    2.539    0.606
        10 -12.8218     44.1266    200.0702   1.1684286253e+02   2.7151403140e+01     3.168852     1.184122  66.66  0.003263153    4.613    0.783
        11 -15.1995      2.6912    201.1868   1.2546752351e+02   3.0897506983e+01     20.93978          nan -75.76   0.04025273   16.205    0.938
        12  -8.4091     66.0813    180.4590   1.0967949537e+02   2.8972032328e+01    0.1969036    0.1280077  35.04  0.001029525    1.591    0.371
        13 -15.2257      6.3943    245.9307   1.2697364321e+02   2.1764196114e+01     1.843147     1.538716 -75.62   0.01118881    1.474    0.322
        14  -7.9916    133.6877    196.2996   9.5978222665e+01   1.5129890803e+01     0.139533    0.1065596  67.60 0.0004815974    1.605    0.377
        15 -10.3213     68.5479    174.8011   1.0833030952e+02   2.9980867890e+01    0.4194953    0.2815197 -32.88  0.001761269    2.058    0.514
        16 -10.4533     73.0947    169.8147   1.0648735095e+02   3.0560040294e+01    0.3532059    0.2691328 -45.06  0.000870173    1.438    0.305
        17 -10.5746    100.1185    170.6685   9.9752506702e+01   2.6363912075e+01    0.5406156     0.274964  45.99  0.002287136    1.999    0.500
        18  -8.3053    137.4849    168.5319   9.0036073078e+01   2.0395278901e+01    0.1466218    0.1431238  26.88 0.0001672913    1.019    0.018
        19  -8.7987     62.4869    200.8619   1.1289457166e+02   2.4803024590e+01      0.21144    0.1695612  69.96 0.0006077647    1.121    0.108
        20 -12.0013     68.6489    144.2706   1.0362092685e+02   3.7384080489e+01    0.9265761    0.6095297  76.88  0.002667771    1.987    0.497
        21  -8.1577    156.4126    158.6086   8.3428311644e+01   1.8960380680e+01    0.2887205    0.1390225 -59.18 0.0008726064    3.214    0.689
        22 -11.5854     13.9146    189.9543   1.2248960536e+02   3.2377208773e+01    0.4594922    0.3354107 -70.86 0.0003895588    1.301    0.231
        23 -10.6085     88.4058    154.0601   9.9907418631e+01   3.2158898434e+01    0.5989592     0.392042 -28.29  0.001873079    2.101    0.524
        24  -9.5237     54.1920    149.6530   1.0849425408e+02   3.7850169565e+01    0.3003157    0.1945999  80.37  0.001357156    1.823    0.451
        25  -9.4041    134.0000    144.9820   8.5935722938e+01   2.6344426602e+01    0.8855395     0.218429 -54.93  0.001721759    8.281    0.879
        26  -9.4842     38.7375    146.1742   1.1221498325e+02   4.0367135695e+01     0.278649    0.2254231  41.00 0.0008975524    1.363    0.266
        27  -8.7533     83.4863    143.0135   9.9213315135e+01   3.5601928849e+01     0.247365     0.206076   7.14 0.0004673951    1.436    0.304
        28  -9.4289    102.6062    139.4907   9.3136338460e+01   3.3394736915e+01    0.5077717    0.2999246 -24.70   0.00188658    2.730    0.634
        29 -10.6443     89.9071    139.1975   9.6646542766e+01   3.5551841033e+01    0.2954769    0.2572095 -37.51 0.0003928947    1.178    0.151
        30  -8.1911     99.3437    180.9593   1.0162926214e+02   2.4106768883e+01    0.1935102    0.1744261 -69.18 0.0004659236    1.111    0.100
        31 -10.6175     33.0599    128.9728   1.1140904956e+02   4.5136353372e+01    0.7461196   0.07821629 -63.53  0.002064246    4.981    0.799
        32  -9.1536    111.5547    130.0083   8.8511047428e+01   3.4075643446e+01    0.2892399    0.2195179  11.13  0.001333592    1.632    0.387
        33  -9.3980     99.0033    125.8986   9.1136127964e+01   3.7282660133e+01    0.3167616    0.2556559  -4.21 0.0008846417    1.496    0.331
        34  -9.6117    117.8463    123.6335   8.5218635134e+01   3.4389023948e+01     0.317197    0.2057097 -26.98  0.001306373    1.912    0.477
        35  -9.0252    106.0354    130.6854   9.0222069386e+01   3.4909948449e+01    0.3381608    0.2914305 -44.03  0.001675841    1.120    0.107
        36  -9.1541    135.0000    118.5041   7.9263227530e+01   3.2120055691e+01    0.3578243   0.08789457 -45.20 0.0009396881    3.975    0.748
        37  -8.1425    107.8673    118.9541   8.6888714324e+01   3.7354519185e+01     0.223865     0.196084 -15.59 0.0002883794    1.216    0.177
        38 -11.3473     81.7812    161.0203   1.0287489668e+02   3.1457091838e+01    0.8335871    0.4484535  61.45 0.0005631956    2.590    0.614
        39  -8.3910    205.1035    110.2904   6.1485102966e+01   1.8488154931e+01    0.2027179    0.1952682  54.17  0.001143458    1.134    0.118
        40  -9.5700    115.6797    109.4531   8.2177333468e+01   3.8054908350e+01    0.4517224    0.2745156  -7.25  0.001468422    3.502    0.714
        41  -9.6092    119.4742    108.0277   8.0713993463e+01   3.7622274756e+01    0.3393591    0.1978204 -29.28  0.001313191    2.092    0.522
        42 -10.0654     32.0592    106.5715   1.0805718243e+02   5.0711156141e+01    0.3807459    0.2009016 -89.20  0.001559661    2.875    0.652
        43  -8.0905    134.5159    107.0204   7.6323308081e+01   3.4728965760e+01    0.2284294    0.1367528 -64.52 0.0008104655    2.619    0.618
        44  -9.5901     45.5060    106.0028   1.0349137726e+02   4.9574406779e+01     0.247931    0.1831936  49.84 0.0009118158    1.619    0.383
        45 -13.3861     10.3523    206.4774   1.2427524350e+02   2.9133976911e+01    0.9192547    0.7200039 -86.43  0.005501337    1.157    0.135
        46  -9.4210     33.4264     99.8029   1.0631894171e+02   5.2225311398e+01    0.2933863    0.2008829 -74.14  0.001589062    1.464    0.317
        47  -9.7181     32.5225     95.0114   1.0566869615e+02   5.3447044461e+01    0.3568056    0.1657491 -49.33  0.001667262    1.769    0.435
        48  -8.5065    128.4409     95.5603   7.4717917185e+01   3.8451970044e+01     0.154647    0.1479948 -12.33 8.606243e-05    1.004    0.004
        49 -11.9686     70.1706    156.0489   1.0515582466e+02   3.4283178930e+01    0.5834952    0.4343415 -27.20  0.001531104    1.727    0.421
        50  -8.1189     32.9880     86.6712   1.0370927573e+02   5.5367001460e+01    0.2017725   0.07663639  45.49  0.000704602    4.274    0.766
        51  -8.3184    117.0008     86.0000   7.5072348160e+01   4.2835156054e+01    0.2484751   0.08710632  44.35 0.0007973138    2.907    0.656
        52 -12.7639     57.1262    239.4989   1.1752745852e+02   1.7554845540e+01    0.8466904    0.5560892  58.76  0.003793957    1.271    0.213
        53 -12.0795    189.1989     47.3468   4.7677041658e+01   3.2420277833e+01    0.8837833    0.6828682   1.93  0.002843966    1.701    0.412
        54  -9.6855     59.1471    230.2809   1.1638764684e+02   1.9088066392e+01    0.2762741    0.1853157 -75.32 0.0009539111    1.500    0.333
        55 -13.5395     54.4706    188.6252   1.1338938420e+02   2.8523440049e+01     8.427616     3.210827  64.14    0.0258999    5.276    0.810
        56  -9.3139    142.7784     47.7231   5.6187268140e+01   4.3640021039e+01    0.3389614    0.2218237 -78.39  0.001064532    2.522    0.604
        57 -14.4546     30.4417    249.7161   1.2306853604e+02   1.8681182820e+01     9.033234     2.783094  24.92   0.01247728   15.085    0.934
        58  -9.2012    144.0545     41.2561   5.3813195677e+01   4.4224898319e+01    0.3991863    0.2692959 -79.48  0.001431343    2.204    0.546
        59  -9.5545     33.0000     28.4796   8.5378264941e+01   6.7207560931e+01    0.3862476   0.06092355 -44.93  0.001135806    5.732    0.826
        60  -8.4277     67.7353     52.1114   7.9937710353e+01   5.8460920798e+01    0.2249455    0.1830066  39.99 0.0009997773    1.421    0.297
        61  -7.8298     53.5667    220.5438   1.1667531252e+02   2.1715424046e+01    0.1763156    0.1143867  69.45 8.312945e-05    1.429    0.300
        62  -9.0208     33.0000     15.9861   7.9701629815e+01   6.9133513367e+01    0.1914908   0.05949074 -38.39 0.0008041316    2.954    0.661
        63 -10.2033     48.9483    216.4738   1.1726865143e+02   2.3097031453e+01    0.4983183    0.2898546  82.43  0.002221436    1.749    0.428
        64  -9.3680     92.3783    216.6109   1.0812269552e+02   1.7421168733e+01     0.459638     0.258336  75.36  0.001647654    2.633    0.620
