#   1 NUMBER                 Running object number                                     
#   2 MAG_AUTO               Kron-like elliptical aperture magnitude                    [mag]
#   3 X_IMAGE                Object position along x                                    [pixel]
#   4 Y_IMAGE                Object position along y                                    [pixel]
#   5 X_WORLD                Barycenter position along world x axis                     [deg]
#   6 Y_WORLD                Barycenter position along world y axis                     [deg]
#   7 A_WORLD                Profile RMS along major axis (world units)                 [deg]
#   8 B_WORLD                Profile RMS along minor axis (world units)                 [deg]
#   9 THETA_WORLD            Position angle (CCW/world-x)                               [deg]
#  10 FWHM_WORLD             FWHM assuming a gaussian core                              [deg]
#  11 ELONGATION             A_IMAGE/B_IMAGE                                           
#  12 ELLIPTICITY            1 - B_IMAGE/A_IMAGE                                       
         1 -12.6372    203.3324     21.3363   4.4256854246e+01   3.1632466575e+01    0.7802399    0.3659312 -78.16   0.00281384    3.283    0.695
         2 -12.4658    215.8914     14.7927   4.1213436261e+01   2.9291055101e+01    0.8933756    0.6272619  39.13  0.003687858    1.839    0.456
         3 -11.7219     42.7805     20.6427   8.3387494660e+01   6.7253354872e+01    0.5477147    0.3035087  32.07  0.002142913    1.883    0.469
         4 -13.1914    187.6477      7.9216   4.2365213277e+01   3.7025593590e+01     1.013567      0.47644 -81.00  0.003880681    2.953    0.661
         5 -12.0734     57.3753      7.5418   7.0835781723e+01   6.6862492349e+01    0.5506322    0.4497358 -37.51  0.003039977    1.573    0.364
         6 -10.0618     25.5810      8.0100   8.5479437418e+01   7.1163525656e+01    0.2066274    0.1154732 -29.98  0.001243246    1.473    0.321
         7 -10.2634    109.5061      8.5356   5.5384466948e+01   5.6370760944e+01    0.1320098    0.1206832  38.96 0.0008087219    1.065    0.061
         8 -11.8866     43.7928      8.4570   7.6980283595e+01   6.8826296075e+01    0.2554895    0.2135361   0.35 0.0005728364    1.135    0.119
         9 -11.8071    166.3095      1.9949   4.3189641800e+01   4.2994352599e+01    0.5453172    0.1972254  74.89  0.002034917    2.778    0.640
        10  -9.5577    105.4791      2.5355   5.3842750589e+01   5.7820336108e+01    0.1318415    0.1146111  37.02  0.000344126    1.015    0.015
        11 -11.4017    227.0581    221.7063   8.7495899090e+01  -5.2535212910e+00    0.2388869     0.185723  71.37  0.001309607    2.704    0.630
        12 -11.3396    237.2415    219.4078   8.5297662029e+01  -6.5135796460e+00     0.210021    0.1506697  36.21  0.001323818    1.395    0.283
        13 -11.4251    239.6504    215.6623   8.4216869236e+01  -6.3992028328e+00    0.3050628     0.137206 -32.44  0.001532142    2.253    0.556
        14 -11.1018    223.9304    212.9044   8.6523249576e+01  -3.5814599897e+00    0.3944216    0.2395994   6.97  0.002040436    1.959    0.489
        15 -10.8180    232.9783    211.2789   8.4607881813e+01  -4.7960024885e+00    0.2237965     0.160987  40.29  0.001134848    1.474    0.322
        16 -10.5385    115.9027    209.3798   1.0735863348e+02   1.5471897380e+01    0.2917499    0.1739976 -71.88  0.001468379    2.050    0.512
        17 -10.1789     56.4862    205.5049   1.1907976469e+02   2.4960849669e+01    0.1236498   0.09626724  73.10 -2.089971e-07    1.025    0.024
        18 -10.5928     48.8574    202.0390   1.2029323150e+02   2.6624104076e+01    0.3368258    0.1518579 -89.08   0.00158584    2.486    0.598
        19 -10.5959     41.7935    200.9520   1.2160578203e+02   2.7686162506e+01    0.2698146    0.1464188 -62.08  0.001075514    1.908    0.476
        20 -10.4343    149.7673    199.1855   9.8750986410e+01   1.1574584720e+01    0.2312926    0.1452119  75.16 0.0007660427    2.835    0.647
        21  -9.8410     98.8209    205.6560   1.1043088826e+02   1.8937890974e+01    0.2804994    0.1435666 -88.99  0.001093838    3.469    0.712
        22 -12.3954    160.4616    192.0740   9.5288833076e+01   1.0949635708e+01     0.731658    0.5077741  70.06  0.003143159    2.038    0.509
        23 -10.2184     34.3965    187.2243   1.2195824691e+02   3.1436643193e+01    0.1768233   0.09315168 -89.81 0.0007509363    1.740    0.425
        24 -10.0160     94.3326    185.9982   1.0882691183e+02   2.3755916067e+01    0.2201084    0.1052317 -85.48 0.0007052225    4.391    0.772
        25 -10.5795    183.1630    183.4694   8.8955907432e+01   8.2550436924e+00    0.3992565    0.2079592 -41.58  0.001772443    2.037    0.509
        26  -9.7600    224.0000    182.9886   8.0872964571e+01   8.0247659252e-01    0.2180454   0.07270354 -36.94 0.0008085179    2.985    0.665
        27  -9.7606    215.3755    194.1682   8.4662142173e+01   5.8111037838e-01    0.1793738    0.1208867 -44.99 0.0009440968    1.768    0.434
        28 -10.6205    191.7387    178.3584   8.6199645642e+01   7.5307111581e+00    0.2535192    0.1798687 -52.50 0.0009761019    1.699    0.411
        29  -9.7482     66.3283    194.6647   1.1598800294e+02   2.5956652428e+01    0.1374725    0.0802592  69.27 0.0005143533    1.724    0.420
        30 -10.0291    159.5046    175.5038   9.2448551135e+01   1.4322937907e+01    0.1440575    0.1354785  48.41 0.0007747115    1.048    0.046
        31 -10.0261    105.7870    175.1812   1.0460623788e+02   2.4271301926e+01    0.2480331    0.1388431  73.08 0.0009528217    2.849    0.649
        32 -11.1215     38.0682    174.5220   1.2002407319e+02   3.3844793260e+01     0.241885    0.1508459  38.42  0.001412828    1.714    0.416
        33 -10.6845     45.8064    172.7718   1.1812483961e+02   3.3371801929e+01    0.3466143    0.1371051  54.35  0.001511216    2.631    0.620
        34 -11.4829     55.4808    167.8512   1.1535273035e+02   3.3340266395e+01    0.5103253    0.2569484  86.99  0.002228714    2.478    0.596
        35 -10.3865    167.7840    168.3874   8.9230977710e+01   1.4099768706e+01    0.2983576     0.178163 -75.23 0.0009561795    4.227    0.763
        36 -10.6587    176.4376    171.2605   8.7950441967e+01   1.1821336558e+01    0.3576489    0.1420117 -45.63   0.00131761    2.675    0.626
        37 -11.8679     14.7986    164.7581   1.2426378814e+02   3.8318249610e+01    0.3358523    0.1833296 -82.04  0.001038291    1.470    0.320
        38  -9.8580    138.7982    165.1927   9.5130431180e+01   2.0478255721e+01    0.2537983    0.1602346  79.69 0.0009536067    2.853    0.649
        39 -11.6899    121.3791    169.1008   9.9932600270e+01   2.2891414476e+01    0.4070239    0.2480725 -75.71  0.001725507    2.251    0.556
        40 -10.7229     22.4858    159.3616   1.2207636345e+02   3.8855224716e+01    0.3138952    0.1643999  67.18  0.001665563    1.920    0.479
        41 -11.4791    106.6059    157.9722   1.0149144347e+02   2.8029556233e+01    0.6705607    0.4215781  69.11  0.002928763    2.058    0.514
        42 -11.7213    167.8681    157.6299   8.6966322244e+01   1.6233943827e+01    0.4925447    0.3001158  61.77  0.001863683    2.219    0.549
        43 -11.6643    119.7529    157.1690   9.8117814639e+01   2.5857302156e+01    0.5513579    0.2894404  46.63  0.002321071    1.881    0.468
        44 -10.7413    218.1428    156.4828   7.6413631742e+01   6.2419266394e+00    0.2962509    0.1799287 -50.09  0.001331535    1.998    0.499
        45  -9.6348     68.3461    154.6721   1.1047859414e+02   3.4757248528e+01    0.1466141   0.09380789  72.38 0.0007050177    1.751    0.429
        46 -10.0999    133.0117    153.4889   9.4168531240e+01   2.4163947144e+01    0.2197392    0.1234305  62.79 0.0008099221    2.544    0.607
        47  -9.8843     23.4836    153.5229   1.2128486503e+02   4.0107556884e+01    0.1246003   0.09732057 -89.41 2.336343e-05    1.019    0.018
        48 -10.6693    190.0475    150.8992   8.0720571584e+01   1.2945900200e+01    0.2936665    0.2520115 -83.94  0.001500146    1.523    0.344
        49 -11.0375    107.3457    145.6538   9.8975833024e+01   3.0768439942e+01    0.5386549     0.293489  67.64  0.001887008    3.170    0.684
        50 -10.4145     55.8424    146.0941   1.1239047306e+02   3.8425813701e+01    0.3521074    0.1652639  65.77  0.001336607    3.237    0.691
        51 -11.2138    148.6349    144.9981   8.8604967847e+01   2.2879237695e+01    0.4316174    0.2812167 -83.39  0.001592829    2.826    0.646
        52 -10.4825    182.2425    142.1167   8.0353223945e+01   1.6312385255e+01     0.291325    0.2084566  76.73  0.001235201    2.133    0.531
        53 -10.0908     23.3222    138.6423   1.1975114421e+02   4.3600311774e+01    0.1334108   0.07853787  72.91 0.0007044796    1.767    0.434
        54 -11.9507    100.1787    129.0937   9.7436637891e+01   3.5957704722e+01     1.009057    0.5969685  77.19  0.003552403    3.261    0.693
        55 -11.4164     83.1053    130.8299   1.0248446440e+02   3.8354557649e+01    0.6823573    0.2623757 -66.64  0.002210091    3.402    0.706
        56 -10.4422    132.1512    131.8717   8.9642331638e+01   2.9207211373e+01    0.2475204    0.2132857 -88.27 0.0008409763    1.302    0.232
        57 -11.2281     14.3153    122.3788   1.2022906393e+02   4.8155895081e+01    0.6933483    0.3109362 -55.37  0.003545486    1.933    0.483
        58 -10.0167    117.7728    125.7963   9.1946435016e+01   3.3478780519e+01    0.2591535    0.1786134  83.25  0.001055313    2.190    0.543
        59 -10.5884     59.1605    124.6780   1.0803599818e+02   4.3200988906e+01    0.4051818    0.2229879  88.75  0.001623942    2.758    0.637
        60 -11.1909     43.4973    122.8928   1.1218485173e+02   4.5440743892e+01    0.6072917    0.2753105 -85.04  0.002244352    3.313    0.698
        61 -11.3232     27.5642    121.5403   1.1647342671e+02   4.7297964785e+01    0.6967976    0.2936215  81.08  0.002193882    5.277    0.810
        62 -11.9606    193.4594    118.5346   7.2271071082e+01   1.8434800943e+01    0.6226276    0.4890051 -77.70  0.001880745    1.696    0.410
        63 -11.9033    141.5055    112.9910   8.2568869560e+01   3.1430801551e+01    0.5508286    0.3097256 -36.49  0.002161436    1.898    0.473
        64 -10.0830      2.3173    116.9818   1.2287011978e+02   5.0210313288e+01    0.2016718   0.07299989  84.01 0.0007048297    4.286    0.767
        65 -10.5432    108.5046    112.6853   9.1287024466e+01   3.8310898676e+01    0.6243975    0.2657241 -62.57  0.001826285    3.893    0.743
        66 -10.8366     78.6365    112.1868   9.9823507612e+01   4.3537798340e+01    0.5178522    0.2788034 -80.81  0.001738284    3.644    0.726
        67 -12.8756    159.9266    110.3099   7.7389941561e+01   2.7831315045e+01    0.8922428    0.5900027 -63.73  0.003610015    1.990    0.498
        68 -12.9134    151.8281    109.7753   7.9166872307e+01   2.9804740512e+01    0.7776293    0.4201318  56.80  0.002923539    2.158    0.537
        69 -13.1568    141.6218    103.7031   8.0028854137e+01   3.3411029402e+01    0.8534443    0.6689571 -66.63  0.003943615    1.489    0.328
        70 -10.9430    121.9135    111.5276   8.7297150096e+01   3.5931194287e+01    0.5878999     0.247809 -54.28  0.001969477    2.675    0.626
        71 -10.4991     91.9977    111.2301   9.5657612764e+01   4.1620107521e+01     0.523914    0.2382634 -63.48  0.001824402    2.812    0.644
        72 -11.1344    174.4069    110.6546   7.4218216370e+01   2.4387497862e+01    0.4299524    0.2980881 -42.55  0.001085771    1.413    0.292
        73 -11.5213     15.3189    109.8264   1.1835089976e+02   5.1042282885e+01    0.6517488    0.3716865  87.53  0.003478696    1.843    0.458
        74 -12.2697    127.8178    101.1661   8.2911122103e+01   3.6998990558e+01    0.6186421    0.3584971 -60.24  0.002355221    2.216    0.549
        75 -10.0906     66.3369    111.0027   1.0325157733e+02   4.5584085137e+01    0.2352434    0.1137598 -79.98 0.0007051969    4.421    0.774
        76 -13.5297    113.2206    100.5238   8.6752243571e+01   4.0169923965e+01      1.73174    0.6290892  47.73  0.005650759    3.046    0.672
        77 -11.4540    170.5126     94.5384   7.0666360634e+01   2.8494428339e+01    0.3242367     0.250503  53.25 0.0005421518    1.325    0.245
        78 -12.5365    170.1740     91.0075   6.9741531353e+01   2.9256256889e+01     0.446002    0.3855236  72.63 0.0009797011    1.263    0.208
        79 -11.0735     82.4708    100.7431   9.5925865647e+01   4.5655543350e+01    0.2680435    0.2567893 -34.34 0.0006693711    1.075    0.069
        80 -10.6959      4.6409     91.1920   1.1897229241e+02   5.6044028490e+01     0.309076    0.1283096 -83.80   0.00136778    2.662    0.624
        81 -10.7755     34.3787     87.7102   1.0852691139e+02   5.4722096004e+01    0.6061329    0.1881465 -66.17  0.002173293    3.237    0.691
        82 -11.9142     44.6114    101.1724   1.0794426070e+02   5.0551207982e+01    0.6562198    0.3724188 -89.19  0.002833694    2.616    0.618
        83 -11.7075     42.1158     88.1991   1.0600701408e+02   5.3863543759e+01     0.382734    0.2431108 -12.76  0.001436263    2.229    0.551
        84 -11.0053     46.6157     83.1604   1.0327811909e+02   5.4551483270e+01    0.5992389    0.3648732  79.94  0.002487777    3.232    0.691
        85 -11.4643     87.0439     87.1134   9.0820368482e+01   4.8020004678e+01    0.4585103    0.3393539  74.11  0.002146747    1.974    0.494
        86 -10.9151    105.0459     83.7871   8.4285620899e+01   4.5449391764e+01    0.4298626    0.3127567 -77.54  0.001888055    2.042    0.510
        87 -11.2340     62.8672     95.3827   1.0079737636e+02   4.9763935635e+01    0.4586174    0.2051553 -69.54  0.001586596    3.345    0.701
        88 -10.9154     24.3693     80.3217   1.1043236820e+02   5.7261021992e+01    0.4731479    0.2305572 -82.46  0.001968876    3.067    0.674
        89  -9.8760    153.2496     78.0536   6.9708712095e+01   3.5838329460e+01    0.2367921    0.2046212  14.23  0.001111556    1.299    0.230
        90  -9.9785      1.8348     77.8942   1.1784520265e+02   5.9207897910e+01    0.1908284    0.1191603 -53.25 0.0007788659    1.271    0.213
        91 -10.9711     82.6585     73.6793   8.8206224959e+01   5.1670693090e+01    0.4370034    0.2829667 -81.47  0.001609733    3.512    0.715
        92  -9.8802    115.8120     73.2062   7.7807834781e+01   4.5407340085e+01    0.2552983    0.1732584 -82.89 0.0009547045    2.862    0.651
        93 -11.9883    223.4396     70.6336   5.4638081687e+01   1.9868359161e+01    0.2968699    0.2656291 -64.42 0.0006023802    1.087    0.080
        94 -10.1196     94.8635     71.4460   8.3529372917e+01   4.9966448256e+01    0.3395621    0.1649884 -55.99  0.001224697    2.786    0.641
        95 -10.5908     62.8342     70.1325   9.3945996012e+01   5.5450505355e+01     0.208882    0.1892299 -64.53  0.001250738    1.244    0.196
        96 -11.8637     41.9842     62.7777   9.9492300648e+01   5.9551119759e+01    0.6515465     0.330995 -52.96   0.00222811    1.675    0.403
        97 -11.1045      8.8524     56.8294   1.1106363324e+02   6.3475328468e+01    0.5519497    0.3658182  65.56  0.003191413    2.346    0.574
        98 -11.7126     20.8286     51.8860   1.0484145848e+02   6.3738992636e+01    0.6301079    0.3494743 -60.48  0.003489054    1.628    0.386
        99 -13.3461     29.8649     59.8489   1.0340237627e+02   6.1339348499e+01     1.151524    0.8586065   9.07  0.005341398    1.548    0.354
       100 -10.3290    196.0913     67.7972   5.8149298928e+01   2.6946733438e+01    0.3681536    0.1930704  51.39  0.001502269    1.947    0.486
       101 -11.9157    237.5408     63.9008   5.1043498828e+01   1.7664126879e+01    0.5628303    0.2916643  89.14  0.002067336    3.421    0.708
       102 -11.6633    231.1474     58.7378   5.0576366819e+01   1.9892355655e+01     0.382761    0.2582987 -51.38 0.0006858241    1.392    0.281
       103 -10.6446     51.9614     70.8376   9.8091760478e+01   5.6695652110e+01    0.2396039    0.1920259 -59.92  0.001001101    1.258    0.205
       104 -11.4888     19.4583     59.4609   1.0745000820e+02   6.2242370219e+01    0.3461334     0.248263 -27.12 0.0009243164    1.380    0.276
       105 -10.0632    119.4982     56.9961   7.1309537212e+01   4.7592201497e+01    0.2141284    0.1225317 -56.30 0.0008103129    2.522    0.603
       106 -10.1525     54.4399     54.9504   9.2170981062e+01   5.9700542029e+01    0.3304722    0.2210234 -77.94  0.001451665    3.048    0.672
       107 -10.5320    161.4980     53.4903   6.0261391135e+01   3.7992851327e+01    0.2819519    0.1503183  72.36  0.001037748    2.464    0.594
       108 -11.4656    149.0057     52.2346   6.2465236658e+01   4.1336196045e+01    0.3618183    0.2445389  48.50  0.001062684    1.444    0.308
       109 -10.6766    157.0652     45.0093   5.8426625786e+01   4.0392775838e+01     0.274178    0.2025605  58.56 0.0004749862    1.310    0.237
       110 -11.3799     74.5021     43.4862   8.0407237051e+01   5.8837029654e+01    0.2433947    0.2373966  -5.65  0.001112639    1.231    0.188
       111 -11.3073     70.1669     42.3430   8.1536140498e+01   5.9750610194e+01     0.436864    0.3414114  82.94  0.002197568    2.450    0.592
       112 -11.4590      7.6926     43.2170   1.0805570019e+02   6.6370350516e+01    0.5004281    0.2479139  34.97  0.002762843    2.691    0.628
       113 -11.7020     41.0412     37.7010   9.1384562619e+01   6.4612523160e+01    0.5769436    0.3424976   9.64  0.002099421    2.026    0.506
       114 -11.7080    120.5094     34.6401   6.2935771829e+01   5.0819322471e+01    0.3328663    0.2618047  50.27 0.0005160565    1.225    0.184
       115 -10.5805     50.0690     34.4993   8.6270386488e+01   6.4059874790e+01    0.2813883      0.20594  21.97  0.001232882    1.409    0.290
       116 -10.2239     73.2846     32.3049   7.6295311646e+01   6.0858094824e+01    0.2482029    0.1706359  65.21  0.001183487    2.559    0.609
       117 -10.7128    102.4796     29.5168   6.5746538240e+01   5.5556440784e+01    0.4184501    0.3560673 -74.58   0.00231774    1.624    0.384
       118 -11.2208    219.8607    248.2390   9.3051817519e+01  -7.4503817221e+00    0.2700935    0.1960611  57.81  0.001645282    2.291    0.564
       119  -9.6422     32.6722    242.2948   1.2607503223e+02   2.0726101099e+01    0.1152222   0.05588516  63.86 0.0003046831    1.628    0.386
       120 -10.7460    222.0330     15.9969   4.0920554468e+01   2.7679180263e+01    0.3294209    0.1748336  66.35  0.001159323    1.806    0.446
       121 -10.6253     37.0656     23.5024   8.7276119797e+01   6.7508820001e+01    0.3427808    0.1326224  41.52  0.001480704    3.574    0.720
       122 -11.9092     22.3084    238.9720   1.2760656109e+02   2.2454259401e+01    0.4660216    0.1877995  71.70  0.002597674    2.260    0.558
       123  -9.8321     46.6900     16.6506   7.9779073187e+01   6.7314603863e+01    0.2168191    0.1406931 -10.56  0.001033982    1.474    0.322
       124 -11.2833    239.6441     20.6219   4.0417947244e+01   2.3036634111e+01    0.2722949    0.2271305 -75.31  0.000659977    1.065    0.061
       125  -9.9456     89.1339     18.3877   6.4997392031e+01   5.9750372789e+01     0.246045    0.1719039  66.92  0.001270112    1.928    0.481
       126  -9.4223      2.6486    240.3057   1.3081278008e+02   2.4198727494e+01    0.1121577   0.04799131  63.53  0.000704191    1.708    0.415
       127 -10.2179     12.9698    227.5556   1.2858197189e+02   2.5511399836e+01    0.2001639    0.1036384  77.11 0.0005270013    1.528    0.346
       128  -9.9849    104.0000    224.9202   1.1165774994e+02   1.4425691310e+01    0.1803937   0.06949131 -60.91 0.0007999346    2.925    0.658
       129 -10.7148     95.8751    225.1927   1.1327078347e+02   1.5604858431e+01    0.2824777    0.1335587  50.65  0.001432439    1.804    0.446
       130  -9.8528    174.6568    223.3186   9.7554322607e+01   3.0799960325e+00    0.1257034   0.09498014  64.44  0.000704933    1.720    0.419
       131 -10.1261    149.3206    223.6497   1.0256034969e+02   7.3085617039e+00    0.1298744   0.09243733  68.11 0.0007048292    1.743    0.426
