#   1 NUMBER                 Running object number                                     
#   2 MAG_AUTO               Kron-like elliptical aperture magnitude                    [mag]
#   3 X_IMAGE                Object position along x                                    [pixel]
#   4 Y_IMAGE                Object position along y                                    [pixel]
#   5 X_WORLD                Barycenter position along world x axis                     [deg]
#   6 Y_WORLD                Barycenter position along world y axis                     [deg]
#   7 A_WORLD                Profile RMS along major axis (world units)                 [deg]
#   8 B_WORLD                Profile RMS along minor axis (world units)                 [deg]
#   9 THETA_WORLD            Position angle (CCW/world-x)                               [deg]
#  10 FWHM_WORLD             FWHM assuming a gaussian core                              [deg]
#  11 ELONGATION             A_IMAGE/B_IMAGE                                           
#  12 ELLIPTICITY            1 - B_IMAGE/A_IMAGE                                       
         1 -13.7208      3.4180      9.9858   1.2415116556e+02   7.2410439665e+01     3.276547    0.3890918 -59.28   0.01090903    4.728    0.788
         2 -13.4550    189.6472     28.1115   7.1879054469e+01   3.4130226624e+01     1.372595     1.180306  24.09  0.006308937    1.162    0.139
         3 -14.0413    201.6480     11.0925   6.4735996697e+01   3.2717987879e+01     2.145249     1.195301  38.31  0.009214476    1.949    0.487
         4  -8.5948     73.6281     38.4597   1.0405994077e+02   5.9276235964e+01    0.1375979     0.115386 -32.36 0.0001796503    1.031    0.030
         5 -11.6960    248.1423    248.5202   1.1161683695e+02  -3.5911632350e+00    0.3860203    0.2241596  33.98   0.00294126    1.218    0.179
         6 -11.5525    138.9796    249.9830   1.2812864622e+02   1.1322182077e+01    0.3032899     0.164866  39.71  0.002162607    1.394    0.283
         7 -11.5914    123.7656    249.9015   1.3044734834e+02   1.3349943568e+01      0.43165    0.1123659  43.42  0.002208437    2.667    0.625
         8 -10.8515    110.7320    250.2833   1.3246173084e+02   1.4983284716e+01    0.3377308    0.1036579  39.57  0.001811704    2.613    0.617
         9 -11.5896     98.9683    250.0209   1.3422178312e+02   1.6485835612e+01    0.3530239    0.1647262  53.13  0.002323016    1.635    0.388
        10 -11.4406    101.9818    246.8547   1.3353307401e+02   1.6510028099e+01    0.2770434    0.1600193  70.04  0.001436595    1.907    0.476
        11 -11.9255     46.2993    248.2503   1.4190546850e+02   2.2683284707e+01     0.781979    0.2672102  63.07  0.004794573    2.689    0.628
        12 -10.1928     37.8044    249.6249   1.4317948448e+02   2.3356210480e+01    0.2302554    0.1027438  46.37  0.001267175    1.577    0.366
        13 -11.4104     30.1523    249.8821   1.4426796171e+02   2.4068267945e+01     0.385494    0.1707205  50.61  0.002158298    1.496    0.331
        14 -10.0443     34.2060    247.5819   1.4360696104e+02   2.3986631421e+01    0.2041201   0.09802818  41.05  0.001253493    1.748    0.428
        15 -11.8751     35.8697    243.4453   1.4319900521e+02   2.4389845261e+01    0.3578165    0.3137638  23.61  0.003425438    1.939    0.484
        16 -15.2995     21.6520    174.3874   1.4211896071e+02   3.6758820732e+01     6.113899     1.863524  86.18   0.02526344    4.617    0.783
        17 -11.7192     81.4772    242.4373   1.3635506628e+02   1.9577934810e+01     0.330626    0.1825866  69.19  0.002298834    1.777    0.437
        18 -10.7189     19.1210    241.6859   1.4552805007e+02   2.6226882671e+01    0.1988409   0.09587708  62.92  0.001615945    1.444    0.308
        19 -10.4905     21.4890    238.5544   1.4508047265e+02   2.6448955066e+01     0.129742   0.09374488  81.63 0.0006810466    1.280    0.219
        20 -11.1684    234.3416    238.6926   1.1230759846e+02  -9.6620631600e-01    0.2661254    0.1706057 -51.27  0.001572005    4.066    0.754
        21 -10.1626     27.6131    240.1805   1.4425921971e+02   2.5645063811e+01    0.2270801   0.05326993  61.17  0.001137314    3.902    0.744
        22 -10.3262     67.2035    250.2085   1.3896414999e+02   2.0185762800e+01    0.1682041   0.09135275  54.52   0.00101763    1.285    0.222
        23 -13.9406     10.1896    206.8540   1.4561463211e+02   3.2233982823e+01     1.099374    0.7358845  69.57  0.009428171    1.033    0.032
        24 -10.6000    228.7217    228.1518   1.1169792543e+02   7.1880586615e-01      0.25842    0.2047599 -47.27  0.001696243    2.247    0.555
        25 -10.9004    149.3981    229.7610   1.2447223617e+02   1.2242780813e+01    0.2370219    0.1176261  36.26  0.001444079    1.724    0.420
        26 -14.7163     57.9218    213.0387   1.3816818637e+02   2.6548234576e+01     6.904239          nan  45.00   0.01872856   10.157    0.902
        27 -10.5979    174.2838    221.9981   1.1949462538e+02   9.4802710931e+00    0.2504105    0.1693436  51.82  0.001130604    1.436    0.303
        28  -8.7492    152.5509    212.9297   1.2200861931e+02   1.3892371478e+01    0.1271595    0.1118426 -49.22 0.0003276559    1.455    0.313
        29  -9.9438    193.1030    194.8288   1.1251415469e+02   9.7129810254e+00    0.5424061     0.283892 -60.25  0.001724117    8.588    0.884
        30 -11.4450     68.2691    197.6734   1.3526633118e+02   2.7827963717e+01    0.2760377    0.2039956 -48.85  0.001642554    1.951    0.487
        31 -11.5989     73.3877    190.2201   1.3370507396e+02   2.8460029993e+01     0.206312    0.1918521 -84.42 0.0005318932    1.323    0.244
        32 -12.0791     50.7383    232.9725   1.4049207708e+02   2.4344408061e+01    0.3010704    0.2119435  69.25  0.001300318    1.116    0.104
        33  -9.1760    104.5142    180.2346   1.2676587222e+02   2.6014095493e+01    0.1427094    0.1101862 -72.22 0.0005445498    1.398    0.285
        34 -13.2451     69.7881    175.3739   1.3300250691e+02   3.1503836242e+01    0.3845912     0.245172 -46.73  0.001818715    2.199    0.545
        35 -10.8624     82.3903    177.6044   1.3076959270e+02   2.9512257551e+01     0.197649     0.171761  69.14 0.0003811508    1.082    0.075
        36 -11.9820     88.9474    168.1800   1.2840393187e+02   3.0332580130e+01    0.9082785    0.4603769  58.46  0.004794168    2.052    0.513
        37 -12.7086     67.0846    143.7713   1.3008169938e+02   3.7882816078e+01    0.9105525    0.4984448  77.66  0.004609666    2.312    0.568
        38 -13.9204     50.1179    222.7311   1.4002673486e+02   2.5914391930e+01    0.9087992    0.6383787  54.23  0.003865697    1.140    0.123
        39  -9.8899    101.0120    151.9892   1.2371971072e+02   3.1624350025e+01    0.2333087     0.207339  48.86 0.0006966582    1.133    0.117
        40  -9.1488    103.7544    147.6613   1.2246815085e+02   3.2034967475e+01    0.2841707    0.1792304 -30.66  0.001379058    2.633    0.620
        41 -12.0060     89.8662    151.4111   1.2605381495e+02   3.3358283111e+01    0.2289987      0.22011 -52.10 0.0005373917    1.265    0.209
        42 -11.9379     29.4991    139.1218   1.3799219717e+02   4.2830461116e+01    0.2820919    0.2147137  62.56  0.001654962    1.206    0.171
        43  -8.9058    242.2904    138.6970   9.3634717168e+01   7.7358905904e+00     0.114238    0.1037129 -46.32 0.0002239453    1.568    0.362
        44  -9.5750    111.4629    136.9966   1.1898272824e+02   3.2878278957e+01    0.2979346    0.2186129 -21.87  0.001571242    2.033    0.508
        45 -10.5088     99.0080    134.3405   1.2138357170e+02   3.5378575427e+01    0.2403027    0.1962056 -41.63 0.0007128066    1.411    0.291
        46  -8.4638    192.2440    143.9928   1.0347370461e+02   1.6699549153e+01    0.1575302    0.1127104 -29.90 0.0003421735    1.476    0.322
        47  -9.4286    108.0822    123.9503   1.1736363928e+02   3.6024748235e+01    0.1851187    0.1776294  83.05 0.0003058344    1.022    0.021
        48 -14.7372      2.9369    232.4509   1.4753882848e+02   2.8960896590e+01     4.801515    0.6149135 -75.70    0.0227263    6.022    0.834
        49 -12.2112     57.7548    130.9100   1.3059770833e+02   4.1635676001e+01     0.807951     0.315215 -79.39   0.00316341    3.619    0.724
        50 -10.8223    168.2334    113.2362   1.0132010726e+02   2.6513337327e+01    0.3155535    0.2830208 -80.73 0.0008430496    1.387    0.279
        51  -8.7725    203.6525    111.6514   9.3968758791e+01   1.9121759025e+01    0.1580184    0.1030494  15.59 0.0007040791    1.814    0.449
        52 -10.4547     43.1372    108.7137   1.3125694031e+02   4.7963022502e+01    0.2052189    0.1558353  30.67 0.0008322707    1.592    0.372
        53 -12.7398     43.9279    232.2360   1.4149246441e+02   2.5161986887e+01    0.2739326    0.2219758  63.03 0.0008340356    1.248    0.199
        54 -10.6085     88.3400    249.0317   1.3575315106e+02   1.7900137222e+01    0.1569765   0.09308138  47.67 0.0005863693    1.214    0.176
        55 -11.2647     81.2826    248.3965   1.3676986868e+02   1.8816422833e+01    0.3115071    0.1697734  62.99  0.002175436    1.578    0.366
