#   1 NUMBER                 Running object number                                     
#   2 MAG_AUTO               Kron-like elliptical aperture magnitude                    [mag]
#   3 X_IMAGE                Object position along x                                    [pixel]
#   4 Y_IMAGE                Object position along y                                    [pixel]
#   5 X_WORLD                Barycenter position along world x axis                     [deg]
#   6 Y_WORLD                Barycenter position along world y axis                     [deg]
#   7 A_WORLD                Profile RMS along major axis (world units)                 [deg]
#   8 B_WORLD                Profile RMS along minor axis (world units)                 [deg]
#   9 THETA_WORLD            Position angle (CCW/world-x)                               [deg]
#  10 FWHM_WORLD             FWHM assuming a gaussian core                              [deg]
#  11 ELONGATION             A_IMAGE/B_IMAGE                                           
#  12 ELLIPTICITY            1 - B_IMAGE/A_IMAGE                                       
         1 -12.8932     38.5099     51.3091   8.9067181802e+01   6.3130205621e+01     1.049248    0.5717372 -50.13    0.0053929    1.748    0.428
         2 -12.1291     67.8442     38.9365   7.2367924479e+01   6.1027984967e+01    0.7392632    0.4740425 -12.10  0.003180386    1.782    0.439
         3 -11.3279     78.4461     31.8975   6.5730839850e+01   6.0109532584e+01    0.9442823    0.4261134 -12.86  0.003033873    4.773    0.790
         4 -12.4500     57.5833     34.4469   7.4419126321e+01   6.3412975337e+01    0.3763627    0.3182799 -50.78 0.0002774986    1.569    0.363
         5 -12.2753     13.2550      2.2528   7.9840058388e+01   7.3749213828e+01    0.3172227    0.2703279  22.87 0.0004605096    1.556    0.357
         6 -11.0084     32.5823      1.9170   6.9465857192e+01   7.1382446427e+01    0.2685218    0.1805264  41.20  0.001070132    1.655    0.396
         7 -10.5141     15.6103     15.8899   8.5609778771e+01   7.1604176324e+01    0.4145514     0.197707 -53.13  0.001990224    3.208    0.688
         8 -11.5311     22.2520     25.7076   8.6604632950e+01   6.9407469881e+01    0.5120355    0.2632792 -33.25  0.001958708    1.665    0.400
         9 -10.5909     26.5768      2.9002   7.2968203423e+01   7.2091640734e+01    0.2852848    0.1894092  48.26  0.001747111    2.274    0.560
        10 -11.1696     20.6092     15.3588   8.2652983744e+01   7.1171390044e+01    0.5025014    0.3069079 -23.69  0.002309779    1.393    0.282
        11 -11.6849     23.6225      7.9839   7.7275644183e+01   7.1840647200e+01    0.2542596    0.1924366  27.00  0.001789239    1.427    0.299
        12 -11.3141     21.1167      2.8412   7.5788343692e+01   7.2784595959e+01    0.3997694    0.2270128 -16.80  0.002460912    1.607    0.378
        13 -10.9188    111.4931     26.9255   5.4408048108e+01   5.3724262721e+01    0.4931019    0.2830588 -10.48  0.001610563    2.234    0.552
        14 -11.8682    129.5780     19.1390   4.7778900611e+01   5.0315459484e+01    0.4522822    0.2886137  -3.80 0.0004250255    2.023    0.506
        15 -10.9826    128.2320     11.4238   4.5364321099e+01   5.1379969247e+01    0.3534356    0.2251263  75.53 0.0002897795    1.581    0.367
        16 -10.6177    126.8847      8.1639   4.4472855255e+01   5.1988864403e+01    0.2060731    0.1753729  37.92 0.0002552154    1.171    0.146
        17 -11.7494    103.3750     19.7109   5.3607677841e+01   5.6353259930e+01    0.5868775    0.4522893  71.09  0.002791482    1.439    0.305
        18 -10.1805      5.4548     13.5151   9.0237417979e+01   7.2864302224e+01    0.1877595     0.152469 -37.41 0.0006898236    1.359    0.264
        19 -11.8231      4.1280     17.9932   9.3036964258e+01   7.2247463583e+01    0.3809638    0.3663562  75.69   0.00263301    1.749    0.428
        20 -11.3845      9.8454     15.5671   8.8671717715e+01   7.2181971064e+01    0.2688969    0.1568666 -18.41 0.0005939931    1.543    0.352
        21  -9.0594     43.5643      8.7361   6.8157050987e+01   6.9003719696e+01    0.3398989    0.2025347 -23.13  0.001116374    1.590    0.371
        22 -11.0825     34.2030     15.9099   7.6067272955e+01   6.9462338025e+01    0.3477635    0.1957781   9.57  0.001391628    2.063    0.515
        23 -11.2268     39.9188     12.7133   7.1804922687e+01   6.9080989387e+01     0.460003    0.2163842 -34.01   0.00149105    2.081    0.520
        24 -10.8439     63.6551     13.8002   6.2793442250e+01   6.5069923764e+01    0.3935905    0.2237896  21.67  0.001628768    1.901    0.474
        25 -11.3855    175.4872     11.7592   3.8712847272e+01   3.9839033909e+01    0.2649973    0.2311683 -75.90 0.0002949317    1.074    0.069
        26 -11.0627     80.5818      4.4883   5.3172428891e+01   6.2676848010e+01    0.3906873    0.2274957 -32.35  0.001310847    1.937    0.484
        27 -10.1112     74.4326     15.9963   6.0163034545e+01   6.2810592741e+01    0.4848178    0.3631666  86.67  0.002603151    2.340    0.573
        28 -10.7495     74.4562      3.0111   5.4241619405e+01   6.4040745861e+01    0.4602931    0.2472443 -17.85  0.002479012    1.969    0.492
        29 -11.5345     75.9395     10.6270   5.7275261093e+01   6.3061991726e+01    0.3874365    0.2830369  55.10  0.001227162    1.409    0.290
        30 -10.5041     79.3049     10.3413   5.6140737069e+01   6.2415424026e+01    0.2737336    0.1592192  23.13  0.001412671    1.847    0.459
        31 -10.2648    156.7631      9.6829   4.0431324590e+01   4.4608788276e+01    0.3022229   0.08473267 -28.27  0.001116805    3.533    0.717
        32 -10.1541    118.5414     12.5361   4.7566735198e+01   5.3575670044e+01    0.2495893    0.1821627  46.05 0.0005395614    1.240    0.193
        33 -10.2744    117.4090      9.2244   4.6582623595e+01   5.4136475071e+01    0.2472341    0.1833668 -44.42  0.001008823    1.554    0.357
        34  -9.8148    100.3208     12.2874   5.1412908293e+01   5.7766102462e+01     0.221436    0.1720474  13.95  0.000589592    1.336    0.251
        35 -11.2401    229.8600     10.0708   3.3274655289e+01   2.7411406886e+01    0.2271315    0.1326805 -70.62 0.0006165268    1.551    0.355
        36 -10.9524    164.4189      9.6109   3.9430203659e+01   4.2743857005e+01    0.2619873     0.186565 -33.99 0.0009117479    1.515    0.340
        37  -9.3010     59.2561      9.9889   6.2552233691e+01   6.6262761567e+01    0.1489331    0.0970732 -19.77 0.0008742333    1.515    0.340
        38 -11.4147      7.7775      8.8413   8.6582798099e+01   7.3376596709e+01    0.4001939    0.1882469  37.57  0.002168389    2.988    0.665
        39 -11.1056    248.8095      6.1665   3.1178747870e+01   2.3853989409e+01    0.1896224     0.125508 -64.90 0.0005867288    1.203    0.169
        40 -11.9541    216.4766      7.0087   3.3617015896e+01   3.0691820757e+01    0.4506002    0.2604917  60.76  0.002503551    1.800    0.445
        41 -12.3117    179.1097      4.4235   3.6339621850e+01   3.9665038160e+01    0.3597121    0.2468179 -71.94 0.0001506467    1.410    0.291
        42 -10.8314    147.4772      6.7652   4.0806206687e+01   4.7137571851e+01    0.5421994    0.1531051  48.28  0.001893298    3.611    0.723
        43 -10.4784     33.8351      7.4724   7.1897796242e+01   7.0578306349e+01    0.1918578    0.1379524 -15.87 0.0003153386    1.221    0.181
        44  -9.4170     37.3393      6.3047   6.9641537111e+01   7.0213017886e+01    0.1679933   0.09795304  22.44  0.000487436    1.605    0.377
        45 -11.1769    191.7851      6.2636   3.5567779245e+01   3.6467935713e+01    0.2744022    0.2225105 -17.89  0.001712119    1.540    0.351
        46 -11.7408    241.4517      9.6503   3.2364125665e+01   2.4989522389e+01    0.2350275     0.167621 -66.17 0.0004294943    1.124    0.111
        47 -10.3077     97.8473      4.2095   4.8739673940e+01   5.9010110785e+01    0.3315309    0.1731963  28.68   0.00143133    2.134    0.531
        48 -10.0729     91.3273      7.3030   5.1566320784e+01   6.0177360169e+01    0.2803949     0.154151  43.00  0.001185961    1.581    0.367
        49 -10.4594     93.4724      4.4910   4.9869907520e+01   5.9947276013e+01    0.2071139    0.1678157  46.49   4.4459e-05    1.064    0.060
        50  -9.2796     55.4527      9.5546   6.3756391278e+01   6.6972361366e+01    0.1233036   0.09849179  14.94 0.0003537253    1.028    0.027
        51  -9.8094    130.7113      6.0067   4.3090567923e+01   5.1256278191e+01    0.1735585    0.1637121  34.35 0.0005674895    1.133    0.118
        52 -11.6798     64.6780      4.0185   5.7760317763e+01   6.5848746447e+01    0.2364937    0.1819993  13.16 0.0003592862    1.159    0.137
        53 -11.1668     68.4710      3.5072   5.6290503654e+01   6.5172399367e+01    0.2253973    0.1756082  26.82 0.0005467246    1.073    0.068
        54 -11.3050    237.6360      2.9155   3.1223772570e+01   2.6513216848e+01    0.2762138    0.1899853   1.44   0.00152615    2.763    0.638
        55 -11.7051    213.1298      3.8838   3.3167199929e+01   3.1764479724e+01    0.3165416    0.1970252 -70.52  0.001827664    1.444    0.307
        56 -10.7691    203.1928      3.3214   3.3835478036e+01   3.4088650843e+01    0.2096416     0.169484 -56.58 0.0007764105    1.168    0.144
        57 -10.7397    243.1931      3.1405   3.0918723021e+01   2.5330102509e+01    0.1658247    0.1434906 -75.05 0.0005275245    1.179    0.152
        58  -9.5300    118.8921      3.4941   4.4230615509e+01   5.4261521800e+01    0.1867752    0.1119266  64.10 0.0003633429    1.454    0.312
        59 -10.2587    126.7572      3.4432   4.2862436753e+01   5.2407870839e+01    0.2637005    0.1312923 -37.39  0.001277153    2.218    0.549
        60  -9.3398     87.3150      2.3084   5.0450293557e+01   6.1444841207e+01    0.1335097   0.07788849  32.64    0.0007029    1.630    0.386
        61  -9.8333    165.9790      1.4508   3.6927943681e+01   4.3096308796e+01    0.1976787     0.109897  72.73 0.0004432015    1.556    0.357
        62  -9.5527    200.5325    176.4680   7.6227314714e+01   6.4902374855e+00    0.1411312    0.1285536  -6.77 0.0001645062    1.003    0.003
        63 -10.5459    238.3056    246.6569   8.2007327032e+01  -1.0071107462e+01     0.178779   0.09957442  32.68  0.001079652    1.639    0.390
        64 -12.0373    232.4812    245.5031   8.2831223803e+01  -9.1723463992e+00    0.5981935    0.1847394 -32.34  0.002596242    3.476    0.712
        65 -10.0406    142.2547    249.9955   1.0045059087e+02   3.3734842879e+00    0.1815914    0.1215056  21.98  0.001030332    1.623    0.384
        66 -11.0892     88.5311    249.7527   1.1093546128e+02   1.1403212830e+01    0.3120057    0.1926552  37.01  0.001126946    1.490    0.329
        67 -10.0832     72.5791    250.1262   1.1402426510e+02   1.3531185161e+01    0.1824922    0.1605941   9.95  0.001261079    1.664    0.399
        68 -12.7191     19.4637    238.7189   1.2307759115e+02   2.2114744890e+01     0.718413    0.3420147  48.46   0.00434169    1.670    0.401
        69 -12.1106     28.8843    248.2394   1.2193101833e+02   1.9266494453e+01    0.5188788    0.2679681  73.28  0.003141525    1.703    0.413
        70 -11.5921      4.2971    236.7972   1.2567134685e+02   2.4018336481e+01    0.4241339    0.2607666 -67.42   0.00288685    1.795    0.443
        71 -13.2642      5.9983    245.0141   1.2574886262e+02   2.2278293786e+01    0.8891408    0.5449704  46.33  0.004455719    1.443    0.307
        72 -12.2239     21.9635    248.7809   1.2317881166e+02   1.9923061307e+01    0.4077084    0.2401734  49.24  0.001691126    1.375    0.273
        73 -11.1641     17.2755    247.4118   1.2392348187e+02   2.0678965449e+01    0.2266152    0.1449693  62.55 0.0007877881    1.157    0.135
        74 -12.3659     34.3181    174.3542   1.1504866746e+02   3.4599118136e+01    0.2754128    0.2411014  36.75 0.0005195429    1.355    0.262
        75 -10.9609     18.1498    173.3075   1.1879269336e+02   3.6451099697e+01    0.3482912     0.200639  64.37  0.001729212    1.663    0.399
        76 -12.0578     37.0106    164.7070   1.1332128102e+02   3.6643828367e+01    0.7014203    0.5646233 -73.05  0.003333826    1.123    0.109
        77 -10.6162     36.9639    157.9541   1.1252622975e+02   3.8305060731e+01    0.2117866    0.1724828  75.23 0.0003678405    1.153    0.133
        78 -11.8242     50.7707    161.7941   1.0942229201e+02   3.5786064639e+01    0.6353334    0.4082046  75.82   0.00254011    1.685    0.406
        79  -9.3597      4.6723    168.7025   1.2155445942e+02   3.8681944005e+01    0.1164691    0.0802495 -53.07 0.0007026704    1.634    0.388
        80  -9.9279     68.0032    166.0964   1.0555578207e+02   3.2479442658e+01    0.3875198    0.1883451  62.68  0.001461803    2.880    0.653
        81 -11.0963     44.5580    162.7200   1.1115340676e+02   3.6291494711e+01    0.3652503    0.2075148 -62.95  0.001505626    1.568    0.362
        82  -9.7699     99.1593    164.9157   9.7292191981e+01   2.7957185237e+01    0.2186363    0.1876895  80.20 0.0003587923    1.182    0.154
        83  -9.0211    200.3325    162.6729   7.3367962571e+01   9.0969079803e+00     0.141266    0.1167219 -80.65 0.0007051485    1.714    0.417
        84  -9.4643      7.9479    162.0000   1.2023959928e+02   4.0003278861e+01    0.1718336   0.07016332  24.94 0.0006899604    2.951    0.661
        85 -12.2930     22.1194    156.9991   1.1624706084e+02   4.0002179870e+01      0.55483      0.50103  20.41  0.003716972    1.425    0.298
        86  -9.3514    216.3784    155.1895   6.8696815855e+01   7.4501267202e+00    0.1963815    0.1231514 -46.34 0.0004483976    1.608    0.378
        87 -10.0702     11.2141    153.4288   1.1866001160e+02   4.1795635125e+01    0.2011491    0.1285618  16.76  0.001142657    2.103    0.525
        88  -9.9597    177.5297    151.0506   7.5495903080e+01   1.5915053629e+01    0.2929122    0.2160145  62.01  0.001364654    1.655    0.396
        89 -10.8020     16.8660    146.9487   1.1653420452e+02   4.2910193135e+01    0.3862935    0.2073673  15.86  0.001638112    2.577    0.612
        90  -9.9613    207.0913    146.4862   6.8497071701e+01   1.0841375324e+01    0.2057004    0.1447531  44.76 0.0006648601    1.524    0.344
        91  -9.0144     41.3015    146.2904   1.0982033069e+02   4.0733023130e+01     0.132306   0.09519777 -42.93 0.0006984646    1.566    0.361
        92  -9.6653    220.4566    143.9666   6.5494331051e+01   8.7125705563e+00    0.2177321    0.1280099 -38.83 0.0007236421    1.539    0.350
        93  -9.8154      2.7693    143.8158   1.1992101748e+02   4.4732290137e+01    0.2110401   0.08707301 -46.80 0.0009484079    2.786    0.641
        94  -9.4263     29.9751    143.7437   1.1260512265e+02   4.2528706009e+01    0.1475025    0.1157982  30.55 0.0007630145    1.501    0.334
        95  -9.9381    239.5513    140.5273   6.1533285212e+01   5.7793486711e+00    0.1378868    0.1181111 -28.50 0.0002914257    1.012    0.012
        96  -9.7533     81.8799    140.1655   9.7302583133e+01   3.6875639249e+01    0.2060994    0.1723754 -35.43  0.001070529    1.332    0.249
        97 -10.1661     56.3501    139.2479   1.0446364989e+02   4.0729212012e+01    0.3485537    0.1999075  57.43  0.001558016    2.085    0.520
        98  -9.7143     15.0069    140.0000   1.1626287218e+02   4.4759569607e+01    0.1833591   0.07408013  23.04 0.0004747784    3.024    0.669
        99 -10.8116      2.6824    137.2128   1.1931128289e+02   4.6326440695e+01    0.2930584    0.1499744 -82.34   0.00090749    1.634    0.388
       100 -10.0095      9.3211    136.9119   1.1747666805e+02   4.5942243518e+01    0.1852078    0.1268406 -74.94 0.0003994021    1.163    0.140
       101  -9.8185     20.9777    135.4736   1.1405773120e+02   4.5385394280e+01    0.2131083    0.1402251 -72.59 0.0006596959    1.249    0.199
       102  -9.6102    122.5589    135.4707   8.5039514766e+01   3.0724918356e+01    0.1547236    0.1496506 -62.71 8.593529e-05    1.005    0.005
       103 -10.0086    249.4972    134.0166   5.8595776865e+01   5.1112881599e+00    0.2068143    0.1141432 -37.41 0.0005351825    1.530    0.346
       104 -10.3418     55.5731    133.0149   1.0360190580e+02   4.2393598310e+01    0.2692966    0.1843138  53.13 0.0008139279    1.614    0.380
       105 -11.2670     36.5779    130.1216   1.0876391203e+02   4.5271640716e+01    0.4687083    0.3300542 -36.78  0.002534828    1.634    0.388
       106 -10.1682    110.8041    130.5709   8.7064619821e+01   3.4182181153e+01    0.2167837    0.1444686  53.42  0.000605241    1.651    0.394
       107 -11.4798     73.8767    129.4151   9.7456081014e+01   4.0783354519e+01     0.350573    0.2718726  58.23   0.00179578    1.420    0.296
       108  -9.2194     29.6423    129.7050   1.1075837387e+02   4.6048494316e+01    0.1361024   0.08903292 -40.50 0.0007032215    1.697    0.411
       109  -9.1476      9.4565    129.4335   1.1659653297e+02   4.7752759697e+01    0.1270071    0.1014904 -74.41 0.0001440317    1.019    0.019
       110  -9.3230     62.9793    127.9516   1.0043287024e+02   4.2698394201e+01    0.1651369    0.1571746 -74.65 0.0003456339    1.063    0.059
       111 -11.4734     21.8621    121.1909   1.1184303487e+02   4.8833511667e+01    0.4261826     0.223824 -38.62            0    2.221    0.550
       112 -11.2057     24.9884    118.0175   1.1039367092e+02   4.9353424946e+01     0.455887    0.2703102 -89.73  0.002254873    1.882    0.469
       113 -11.0888     13.8619    126.1693   1.1492318730e+02   4.8233278295e+01    0.3508392    0.2254345  25.16  0.001230351    1.886    0.470
       114 -11.0028     10.7923    122.7988   1.1539943418e+02   4.9275591255e+01     0.278579    0.2050333 -84.04  0.001167692    1.189    0.159
       115 -10.0608     57.8325    125.4676   1.0151333503e+02   4.3997993035e+01    0.2661266    0.2033802 -23.71  0.001376805    1.623    0.384
       116  -9.9433     24.3020    126.0128   1.1180835688e+02   4.7440176301e+01    0.1889097    0.1461969 -68.59 0.0003584817    1.070    0.065
       117  -9.9119    220.2059    124.5703   6.1134514809e+01   1.2274138647e+01    0.1843732    0.1363958  34.93 0.0004552104    1.562    0.360
       118 -10.7462      2.8550    123.1833   1.1777645352e+02   4.9699371635e+01    0.2277693    0.1589024 -64.91 0.0007464971    1.171    0.146
       119 -10.0853      1.3964    119.0152   1.1772544615e+02   5.0789561631e+01    0.1948148    0.1248066 -87.66 0.0003550942    1.397    0.284
       120  -9.6594     15.5845    119.5217   1.1352115724e+02   4.9731697565e+01    0.1517848    0.1222379 -20.40 -4.548116e-06    1.534    0.348
       121 -10.7353     15.9549    115.9231   1.1289518481e+02   5.0582681506e+01    0.2183648    0.1959319 -70.37 0.0006212243    1.105    0.095
       122 -10.3570     72.3089    117.1782   9.5283449824e+01   4.4045316235e+01    0.3719424    0.1753236 -62.69  0.001438094    2.206    0.547
       123 -10.3946     86.0342    116.5162   9.0892959902e+01   4.2032093033e+01    0.2330686    0.1918218 -53.89  0.000423031    1.137    0.121
       124  -9.8270    213.9843    115.6804   6.0103935838e+01   1.5167601723e+01    0.1931841    0.1844564  45.23 0.0005463509    1.152    0.132
       125  -9.0768    179.3139    116.6583   6.6854206611e+01   2.2559626127e+01    0.1597463    0.1203484 -74.17 0.0007047259    1.704    0.413
       126 -10.8811    249.3693    112.2830   5.3899521399e+01   8.7383956182e+00    0.2540261    0.1980331 -49.93   0.00064957    1.189    0.159
       127  -9.8701     94.7931    112.7506   8.7307413872e+01   4.1411571677e+01    0.2121852    0.1803015 -87.17  0.001054709    1.357    0.263
       128 -12.4575     14.4462    108.8333   1.1231559727e+02   5.2412462915e+01    0.5462803    0.3185548 -47.45   0.00225007    1.577    0.366
       129 -11.6324     55.1756    110.4083   9.9252251453e+01   4.8061716403e+01    0.2727073     0.249087 -43.53 0.0004139365    1.085    0.079
       130  -9.8279     42.8654    111.1947   1.0344899845e+02   4.9309678506e+01    0.1950016    0.1434605 -41.31 0.0006744359    1.347    0.258
       131 -11.5582     36.8065    109.7465   1.0515722313e+02   5.0294811677e+01     0.413277    0.2653589  69.85  0.001276419    2.095    0.523
       132 -10.3914      5.4674    106.7622   1.1490579422e+02   5.3490841830e+01    0.4186215     0.165218 -57.35   0.00200676    1.914    0.478
       133 -10.1296      1.3256    109.2104   1.1654873696e+02   5.3142242854e+01    0.3072687     0.149399  84.81  0.001404798    2.440    0.590
       134 -10.0339      2.5040    105.4923   1.1568262588e+02   5.3963370435e+01    0.1934794    0.1552538 -54.99 0.0005229234    1.149    0.130
       135  -9.8830     82.5221    108.9479   9.0109100725e+01   4.4433039499e+01    0.2347587    0.1397508 -54.03  0.001027013    1.580    0.367
       136  -9.7943     70.7327    108.0422   9.3640350754e+01   4.6500242399e+01    0.2124721    0.1755773 -55.54 0.0004974253    1.113    0.102
       137 -10.6212     25.2293    107.2617   1.0852656318e+02   5.1963243087e+01     0.271237    0.1419894 -74.22   0.00128577    1.834    0.455
       138 -10.4741     25.9156    102.6485   1.0746207456e+02   5.3021481116e+01    0.4542213     0.235524 -86.30    0.0019302    2.652    0.623
       139 -10.8374    243.9354    104.7066   5.2972780336e+01   1.1019021436e+01    0.1854613    0.1698834 -48.35 0.0007405162    1.078    0.072
       140  -9.0553    223.2923    103.6982   5.5750823163e+01   1.5347136533e+01     0.143059    0.1031748 -64.31 0.0003302358    1.570    0.363
       141 -10.4871     36.7766    102.7654   1.0378367558e+02   5.1994553823e+01    0.2635473    0.1885382  35.63  0.001464757    1.603    0.376
       142 -10.8170    120.6944    100.0251   7.6361249152e+01   3.9199409029e+01    0.5398734     0.287199 -22.42  0.001629604    3.839    0.740
       143  -9.9266     66.4660     98.4098   9.2636503805e+01   4.9415019360e+01    0.2358643    0.1304704 -52.99 0.0004340816    1.637    0.389
       144 -11.0799     61.8582     98.8820   9.4315522519e+01   4.9954156832e+01    0.4185266    0.3726832  88.84  0.001973749    1.285    0.222
       145 -10.3528     57.4951     96.5210   9.5215834371e+01   5.1096837612e+01    0.2480214    0.1962799 -48.24 5.516857e-05    1.124    0.110
       146 -11.7274      2.6134     97.6922   1.1453653123e+02   5.5804830715e+01    0.4846618    0.2358003  86.10    0.0021951    2.683    0.627
       147 -11.3466    143.6174     98.3020   6.9931660902e+01   3.4474057933e+01    0.4814767    0.3867151  85.79  0.001964729    1.541    0.351
       148  -9.5157     91.6524    100.6808   8.5069172468e+01   4.4789574702e+01    0.1566854    0.1169542 -12.93 0.0007048806    1.733    0.423
       149  -9.8634     50.9403     99.3052   9.8155555206e+01   5.1264707466e+01    0.1805194    0.1722312 -29.64 0.0004597992    1.107    0.096
       150 -11.5770    161.9918     98.0377   6.5616156070e+01   3.0255588097e+01    0.2964355    0.2295898 -40.54 0.0007157974    1.260    0.206
       151 -11.2732    157.1080     82.4102   6.2266732856e+01   3.4397522376e+01    0.9077283    0.4495131  32.36  0.002888015    3.546    0.718
       152 -12.5029    158.6263     89.4900   6.3964913016e+01   3.2707728708e+01    0.5728294    0.4397742 -36.20  0.001608951    1.304    0.233
       153 -12.5292    165.7361     84.3385   6.1000645773e+01   3.1972086315e+01    0.8504734    0.7228899  65.48  0.004364702    1.208    0.172
       154 -11.1503     11.3964     90.9910   1.1038689858e+02   5.6865430931e+01    0.3262312     0.188809  12.22 0.0006369353    2.155    0.536
       155 -10.1716     39.8204     96.4863   1.0138155528e+02   5.3187991243e+01    0.3354852    0.1993465  60.04  0.001125367    2.527    0.604
       156 -11.2126     20.7966     93.7024   1.0754212731e+02   5.5568327868e+01    0.6260379   0.05997964 -60.85  0.001823055    4.672    0.786
       157 -10.7966     21.9700     87.1434   1.0578781616e+02   5.7013630356e+01    0.2739181    0.1847144 -42.16  0.001577571    1.331    0.249
       158  -9.6496    249.8587     95.8046   5.0215562682e+01   1.1330313917e+01    0.1838202      0.13688 -57.31 0.0004164451    1.296    0.229
       159 -10.1796     46.7900     92.7898   9.8046695623e+01   5.3293734161e+01    0.1748422    0.1546433  88.72  0.000369737    1.310    0.237
       160  -9.7567     27.9930     95.7449   1.0539726567e+02   5.4495488082e+01    0.1670101    0.1509189 -52.30  0.001070633    1.083    0.076
       161  -9.3564     77.5475     95.4624   8.8150211109e+01   4.8398465083e+01    0.1472379     0.134476 -36.49 0.0003620972    1.029    0.029
       162 -10.0674    135.1165     92.1179   7.0263077820e+01   3.7677670562e+01    0.4126979    0.1759249 -34.20  0.001370209    2.738    0.635
       163 -10.0119    108.6763     92.1178   7.7468358231e+01   4.3410862523e+01    0.3163755    0.1349916 -50.86  0.001096382    2.524    0.604
       164 -10.0374     31.3994     92.8841   1.0358165879e+02   5.4867444469e+01    0.1987531    0.1428966 -71.45 0.0004413313    1.364    0.267
       165  -9.2102     87.7847    104.0068   8.7176960699e+01   4.4705789347e+01    0.2005651    0.1160929 -50.77 0.0004440442    1.627    0.385
       166 -10.1158     36.8126     91.0090   1.0120850071e+02   5.4787191369e+01    0.3528868      0.24139 -19.31  0.001874087    1.735    0.424
       167 -10.5363     25.8731     91.1064   1.0519505503e+02   5.5771823228e+01    0.2790696    0.2180175 -64.13 0.0008212414    1.136    0.119
       168 -10.6864    152.5341     91.4917   6.5893975502e+01   3.3762925302e+01    0.3204312    0.1532823  51.25  0.001062923    2.122    0.529
       169 -10.9086     96.1270     89.9846   8.0612018571e+01   4.6344841984e+01    0.3910224    0.2803265  -3.04  0.001728918    1.964    0.491
       170 -10.4416     83.0312     88.9319   8.4483157103e+01   4.8948509902e+01    0.2239612    0.2009902 -27.07 0.0005444331    1.078    0.072
       171 -11.0021     78.4960     87.7141   8.5629807692e+01   4.9984276021e+01    0.3524394    0.2406855 -58.85  0.001678308    1.576    0.366
       172 -10.4888     46.6822     88.0760   9.6907976693e+01   5.4400260738e+01     0.291482    0.2381261 -73.94  0.001218471    1.351    0.260
       173 -10.9108     45.1113     83.8472   9.6387528027e+01   5.5547443591e+01    0.4982018    0.3670634  87.31   0.00256955    1.957    0.489
       174 -10.2576     65.0287     87.4751   9.0179972153e+01   5.2136612665e+01    0.2467875    0.2234529  -2.11   0.00103328    1.155    0.135
       175 -10.4867     67.5794     84.2265   8.8352450815e+01   5.2482664164e+01    0.3121019     0.199318 -31.55  0.001470241    1.670    0.401
       176  -8.9954    120.6875     87.2949   7.2624218141e+01   4.1876827773e+01    0.1519769    0.1228697 -84.87 0.0004695994    1.596    0.374
       177 -10.7166    115.8944     84.8039   7.3191638663e+01   4.3419989169e+01    0.3530516    0.2162236 -30.91  0.001483386    1.812    0.448
       178 -11.6960      5.5070     83.7038   1.1121010749e+02   5.8904293305e+01    0.7714939    0.3913663 -75.21  0.003945755    1.879    0.468
       179 -12.5705      3.6388     64.4546   1.0804281360e+02   6.3303547246e+01    0.9251741    0.3224966 -61.18  0.004330066    2.159    0.537
       180 -11.5294      4.9341     58.6143   1.0610541096e+02   6.4484004751e+01    0.3310122    0.2668603  54.93 0.0008430103    1.709    0.415
       181 -12.2490     13.1678     76.2055   1.0678877438e+02   6.0147413296e+01    0.5306842    0.2755443 -52.28  0.001437152    1.490    0.329
       182 -11.4955      8.3175     74.0048   1.0822648946e+02   6.0942550607e+01    0.3901482    0.2400909 -16.49  0.002007367    1.875    0.467
       183 -13.7610     16.2595     67.6633   1.0354218673e+02   6.1826461467e+01    0.7259092    0.2803673 -51.09 0.0007291212    1.940    0.484
       184 -11.5219     22.0998     66.8528   1.0090904343e+02   6.1557244475e+01    0.3721434    0.2464849  56.78  0.001175885    2.329    0.571
       185 -11.9573     30.7386     81.7796   1.0127603088e+02   5.7501470512e+01    0.2727228    0.2405397   5.74 0.0004217014    1.278    0.217
       186 -10.5284     34.9970     79.5157   9.9080015684e+01   5.7606467726e+01     0.337579    0.1992727 -36.69  0.001598896    1.625    0.385
       187 -11.0474     22.0000     73.9802   1.0277605363e+02   6.0004542475e+01    0.5522775    0.1879544 -62.12  0.002247003    2.627    0.619
       188 -10.5902     21.3054     81.3232   1.0477078813e+02   5.8405173921e+01    0.4482939    0.1859182 -33.39  0.001855117    2.923    0.658
       189 -10.3600     18.9746     79.0284   1.0515189310e+02   5.9103859072e+01    0.2613095    0.1577262 -60.07  0.001067729    1.374    0.272
       190 -10.0158     86.6203     80.2585   8.0668366608e+01   5.0175570188e+01    0.1918786    0.1825561  25.86 0.0005184416    1.100    0.091
       191  -9.9883    179.8391     79.1521   5.6818903921e+01   2.9506662610e+01    0.2164863    0.1860743 -64.30 0.0003017962    1.163    0.140
       192 -11.7410     50.1339     68.6616   9.0088567489e+01   5.8252566416e+01    0.4203225    0.3000007   3.28 0.0006454365    1.611    0.379
       193 -11.0216     51.6783     62.6079   8.7518666814e+01   5.9288800607e+01    0.3428275    0.2775634 -54.81  0.001628534    1.349    0.259
       194 -10.3557     53.9964     73.9560   9.0240798629e+01   5.6633322011e+01    0.2882713    0.2553967 -43.72  0.001003983    1.093    0.085
       195  -9.9462     57.8220     74.3409   8.8920622020e+01   5.6033989157e+01    0.2367977    0.2355681  47.57 0.0006785153    1.195    0.163
       196 -10.9892     60.9706     78.4339   8.9001938100e+01   5.4714876143e+01    0.3362433    0.2120093 -52.05 0.0003947335    1.500    0.333
       197 -12.1301     62.3975     71.5016   8.6328467918e+01   5.5977410998e+01    0.4015717    0.2732565 -17.56 8.592082e-05    1.724    0.420
       198 -10.7978     14.3599     96.9029   1.1039191803e+02   5.5276968510e+01    0.4752402    0.1379309 -66.45  0.001849329    2.734    0.634
       199 -12.7251     44.7347     75.2927   9.4176994930e+01   5.7494542608e+01    0.3018748    0.2572352  28.85  0.000566331    1.327    0.246
       200 -10.9972     41.7527     37.1238   8.2204973932e+01   6.5274192646e+01    0.6282325    0.4378839  28.47  0.003780877    1.481    0.325
       201 -11.8970     36.6792     66.8384   9.4897282460e+01   6.0203179500e+01    0.7899577    0.4948657  52.00  0.002973147    2.411    0.585
       202 -10.2502     31.8138     67.9690   9.7212464059e+01   6.0454260970e+01    0.2342957    0.1789162 -26.14   0.00043706    1.238    0.192
       203 -11.1767     28.2972     59.9369   9.6316828933e+01   6.2478257728e+01    0.5448043    0.4065058  38.87  0.003308561    1.675    0.403
       204 -11.6486     26.8302     49.8104   9.3709410043e+01   6.4648098179e+01    0.7875302    0.4887497 -34.17  0.004543642    1.385    0.278
       205 -11.5595    224.6222    247.4127   8.4519447525e+01  -8.3697355197e+00    0.4144849    0.1465176 -31.12  0.001880142    3.163    0.684
       206 -11.8177     33.4848     49.9399   9.0779614701e+01   6.3950460866e+01    0.4001904    0.2464856 -42.70   0.00108634    1.386    0.278
       207  -9.9312    112.0171     76.6873   7.1740892953e+01   4.5858351854e+01     0.239259    0.1242243  67.11 0.0007043643    4.228    0.763
       208 -11.0999     91.8219     74.1552   7.7024023430e+01   5.0451226874e+01    0.5885494    0.3281899 -29.24  0.002431441    2.100    0.524
       209 -11.6467     93.9076     66.5407   7.3810404211e+01   5.1512405654e+01    0.3945623     0.285324  17.10  0.001622951    1.637    0.389
       210 -11.0156     74.4411     75.3345   8.3225911718e+01   5.3305061516e+01    0.5252178    0.1666829 -48.43  0.001776091    3.050    0.672
       211 -11.2153     77.2784     69.7650   8.0418524722e+01   5.3958178028e+01    0.4473131    0.3191344  36.92   0.00163809    1.459    0.315
       212 -11.4387     77.2085     64.6952   7.8719057476e+01   5.4957827335e+01    0.4863891    0.3701889 -64.14  0.002482448    1.747    0.428
       213 -11.3485    208.1929     73.5701   5.0686223302e+01   2.3758369169e+01    0.2726246    0.2236945 -66.78  0.001491807    1.187    0.157
       214  -9.9134    137.4541     74.0017   6.4222013804e+01   4.0616176238e+01     0.224937    0.1488104 -35.71 0.0004214619    1.532    0.347
       215 -10.2428    102.8638     73.1903   7.3282627316e+01   4.8452598783e+01    0.2198846    0.2055323  78.05 0.0008456953    1.232    0.189
       216  -9.8215    167.9289     69.8377   5.6433293091e+01   3.3983666825e+01    0.2083828    0.1929905  34.98 0.0002758451    1.181    0.153
       217  -8.9933    194.6699     69.6627   5.1740961993e+01   2.7548657712e+01    0.1449558    0.1144631  19.89 0.0007052012    1.734    0.423
       218  -9.9009    149.0022     68.8073   5.9984017788e+01   3.8768919313e+01    0.1999029    0.1950205 -64.79 0.0004175791    1.022    0.022
       219  -9.2878    230.3157     68.6798   4.6519404142e+01   1.9599523721e+01    0.1445298   0.09164242 -63.77 0.0004571025    1.657    0.397
       220  -9.1614    189.3070     68.7134   5.2348742935e+01   2.8981765123e+01    0.1490993    0.1066531 -70.30 0.0002313486    1.569    0.363
       221  -9.3176    110.4741     68.5666   6.9528279555e+01   4.7717815524e+01     0.148799    0.1383134   8.60 -7.877475e-05    1.075    0.070
       222 -10.3851     10.9299     62.6036   1.0451202242e+02   6.3278631467e+01     0.213081    0.1311033 -47.31 0.0006601195    1.270    0.213
       223 -10.2443    144.9093     73.9307   6.2456196947e+01   3.8859466760e+01    0.3391658    0.2494424  46.65   0.00161886    1.369    0.270
       224  -9.2823    172.9646     61.9917   5.3263481944e+01   3.4024608096e+01    0.1783118    0.1623449  75.11 0.0004968806    1.075    0.070
       225 -10.9566     85.6927     60.3032   7.4289966584e+01   5.4237947809e+01    0.4113687     0.276948  -2.00  0.001876433    2.028    0.507
       226  -9.6316    167.9380     61.4595   5.4013585337e+01   3.5343108786e+01    0.2041848    0.1259695 -88.36 0.0006413099    2.377    0.579
       227 -10.0377    155.4930     60.8730   5.6219104230e+01   3.8495133069e+01    0.2226059    0.1452973 -35.14  0.001022622    1.559    0.359
       228 -10.0516    120.2213     61.2463   6.4420228776e+01   4.6841747373e+01    0.3013821    0.1986137  59.02  0.001386059    1.624    0.384
       229 -10.2377     98.1864     60.3968   7.0350509908e+01   5.1764184316e+01    0.2434101    0.1898015 -32.18 0.0001595171    1.268    0.211
       230 -11.6810     58.6660     58.4592   8.3352180167e+01   5.9122900595e+01     0.423893    0.2583638 -60.00  0.001960429    2.282    0.562
       231 -10.9628    147.3103     56.7245   5.6613344706e+01   4.1150545607e+01    0.2692873    0.2459991 -68.62 0.0004037497    1.133    0.117
       232 -11.5534     75.1948     56.0661   7.6353318359e+01   5.6904592250e+01    0.2399919    0.2034286 -31.65 0.0002868598    1.139    0.122
       233 -10.0823     47.5197     56.7434   8.7190063930e+01   6.0987138828e+01    0.2282863    0.1708688  13.89 0.0008854169    1.396    0.284
       234 -10.2330     98.4918     55.9967   6.8695854437e+01   5.2456226112e+01    0.2640188    0.1853084  31.40 0.0004984819    1.479    0.324
       235 -10.2098    132.3163     54.7701   5.9283110701e+01   4.5072374363e+01    0.4012018    0.1970602  44.78  0.001616499    2.064    0.516
       236 -11.5841    129.8873     49.3276   5.8033714286e+01   4.6475158761e+01    0.6088898    0.4034832 -16.54  0.002161186    1.832    0.454
       237  -9.5653    133.2827     43.6848   5.5380971701e+01   4.6471784996e+01    0.1895699    0.1436542  79.26 0.0003531965    1.501    0.334
       238 -10.7970      7.0271     41.1387   1.0018540172e+02   6.7903200702e+01    0.2605512    0.1212869 -46.77 0.0006186535    1.620    0.383
       239 -10.8091     11.1609     44.3404   9.9205073065e+01   6.7005654549e+01    0.4358024    0.1577507 -52.04  0.001346214    2.121    0.529
       240 -10.8699      4.0708     46.1061   1.0313905768e+02   6.7105578838e+01    0.3104547    0.1646997 -63.43 0.0003830933    1.824    0.452
       241 -10.8439     12.8618     51.9646   1.0075384176e+02   6.5369585412e+01    0.4647588    0.1932183 -56.96  0.001866886    2.017    0.504
       242 -11.9485      7.9439     51.6124   1.0290448791e+02   6.5764379098e+01    0.3518907    0.2618832  -6.60 0.0004821891    1.414    0.293
       243 -10.2768    120.1411     52.7855   6.1565706700e+01   4.8230589137e+01    0.2774002    0.2130558  21.06   0.00105989    1.484    0.326
       244 -11.6449    105.2383     52.4885   6.5461214775e+01   5.1603990345e+01    0.3565507    0.2540061  39.25 0.0008625606    1.375    0.273
       245 -11.0984     88.0007     51.5754   7.0354321816e+01   5.5303826147e+01    0.3223627    0.2529056  20.61 0.0008153838    1.299    0.230
       246 -10.1827     62.4601     52.9950   7.9906556743e+01   5.9562869061e+01    0.2034376    0.1226207 -39.98 0.0004145021    1.558    0.358
       247 -10.1184    238.0791     51.1454   4.1626016598e+01   2.0508765600e+01    0.1835677    0.1763469 -51.68 0.0005474771    1.237    0.192
       248  -9.9981     73.6188     51.2509   7.5121403433e+01   5.8023321530e+01    0.2340726    0.1573566  16.53 0.0005765819    1.716    0.417
       249 -11.3112     78.3935     47.1327   7.1871923513e+01   5.7853910227e+01    0.4566269    0.2383018 -40.13  0.001160046    1.928    0.481
       250 -11.4005     57.2171     46.5381   7.9494777039e+01   6.1507046110e+01    0.3315832    0.2185433  -5.67 0.0009503788    1.801    0.445
       251 -10.4526    151.9613     47.9567   5.2950747553e+01   4.1314394449e+01    0.2287081    0.1673006  28.14 0.0004913559    1.680    0.405
       252 -10.6706    112.4693     47.4368   6.1672232107e+01   5.0789523774e+01    0.3991285    0.2867049  60.95  0.001003786    1.485    0.326
       253  -9.1869    100.2807     47.6727   6.5134485312e+01   5.3419573600e+01    0.1346221    0.1115529 -69.12 0.0004799018    1.598    0.374
       254 -10.5639    142.9131     45.6361   5.3999226534e+01   4.3864238055e+01    0.3056864    0.2388049 -75.48  0.001039441    1.500    0.334
       255  -9.0135    163.3508     45.7081   5.0201964651e+01   3.8814107405e+01    0.1498555    0.1050937 -73.44 0.0007029073    1.674    0.403
       256 -10.2865     97.4837     31.1712   5.9641398322e+01   5.6324850174e+01    0.3069337    0.1996124  36.29  0.001578878    1.485    0.326
       257 -10.7738    101.8949     29.0904   5.7635194462e+01   5.5622811983e+01    0.3624613    0.2757827 -69.57 0.0008796011    1.878    0.467
       258 -10.3950     95.3031     35.4391   6.1931713013e+01   5.6234046500e+01    0.3547375    0.2553179 -61.31  0.001720918    2.036    0.509
       259 -11.0398     91.9065     43.0040   6.5878119796e+01   5.5868987304e+01    0.4548788    0.2378968 -37.62  0.002070156    1.956    0.489
       260 -10.3372     96.1224     41.9584   6.4208852146e+01   5.5150459032e+01    0.4159927    0.2450733  -4.38  0.001603309    2.615    0.618
       261 -11.6558    102.0129     36.5492   6.0468918941e+01   5.4645878670e+01    0.7813954    0.3220201  38.52  0.002967432    2.725    0.633
       262 -10.1362     51.1140     45.0159   8.1373721517e+01   6.2662061101e+01    0.1939743    0.1634592 -16.16 0.0003958153    1.017    0.017
       263 -11.2353     81.2966     35.3512   6.6213986382e+01   5.9085411606e+01    0.4626983    0.2698015 -21.88  0.002017845    1.844    0.458
       264 -11.9078     37.0773    243.7671   1.2017979162e+02   1.9185719165e+01    0.6366622    0.2827123 -87.03  0.003073957    2.330    0.571
       265 -11.1968     73.3607     37.5619   6.9815335401e+01   6.0258042354e+01    0.4032743    0.2304268 -17.87  0.001047341    2.063    0.515
       266 -10.3532    250.0068    246.9438   8.0068035670e+01  -1.1569790519e+01    0.1791943    0.1338973   3.21  0.001284813    1.015    0.014
       267 -10.4268     82.7380     40.9538   6.7991139518e+01   5.7996501370e+01    0.2333359    0.1911424 -15.09 0.0001858769    1.185    0.156
       268  -9.8155     85.6735     38.7575   6.6169491802e+01   5.7744197432e+01     0.184494    0.1613269 -11.47 0.0002057238    1.107    0.097
       269  -9.1440    197.6407     42.2577   4.4138484100e+01   3.0897080677e+01    0.1434196   0.09468807 -72.94 0.0006253996    1.621    0.383
       270 -10.4288    122.9653     41.6314   5.7008129076e+01   4.9206818155e+01    0.2881679    0.1836765  71.83  0.001316736    1.890    0.471
       271 -11.4585     53.3407     40.1587   7.8516557416e+01   6.3161665255e+01    0.4835838    0.3524269  35.91  0.001737055    1.463    0.317
       272 -12.8487     75.1834    238.5361   1.1248465434e+02   1.5366831871e+01    0.7079068    0.5545302 -89.85  0.004701126    1.261    0.207
       273 -10.6743     23.7697     41.5254   9.2206579335e+01   6.6510269731e+01    0.6370309    0.3766134  56.20  0.002747013    4.273    0.766
       274 -11.3561     30.1583     33.0383   8.5838731687e+01   6.7355610356e+01    0.2934389    0.1937048   3.64 0.0004407894    1.554    0.357
       275 -12.0289     28.4454     37.9004   8.8616939426e+01   6.6701830761e+01    0.4125023    0.2936893  14.68  0.001484116    1.429    0.300
       276 -11.8827     24.6606     34.9504   8.9266976288e+01   6.7607647617e+01    0.3272768    0.1990704  -0.57 0.0003841909    1.811    0.448
       277  -9.9095    138.2979     41.0762   5.3456375501e+01   4.5615008492e+01    0.1900861    0.1852999 -41.09 0.0005671185    1.081    0.075
       278 -10.8448     48.4225     31.6250   7.6970733929e+01   6.5235467892e+01    0.3512722    0.2008666  34.89 0.0006223988    1.758    0.431
       279 -10.5895    222.6466     38.2631   4.0271507791e+01   2.5629084029e+01    0.3050134    0.1970157  80.84   0.00151734    1.546    0.353
       280 -10.3497    152.7744     39.0030   5.0019385386e+01   4.2335904292e+01    0.2377747    0.1933688  66.36 0.0004858187    1.160    0.138
       281 -10.2637     50.2514     27.5976   7.4414450511e+01   6.5561543021e+01    0.2745429    0.1974995  24.33  0.001048101    1.309    0.236
       282 -10.0505    171.2144     36.8711   4.6348135298e+01   3.8044955160e+01     0.247689    0.1823309  53.28 0.0008331643    1.364    0.267
       283  -9.8149      1.9096     37.0877   1.0143837677e+02   6.8988848843e+01     0.190009    0.1372837  -7.44  0.001308449    1.389    0.280
       284  -9.1785     50.3080    240.3186   1.1746793419e+02   1.8268083503e+01    0.1001654   0.09160682 -41.17  0.000480462    1.636    0.389
       285 -10.1789    195.4305    238.7657   8.8509437104e+01  -3.0307421533e+00    0.2522489    0.1747682  17.79  0.001514462    1.334    0.250
       286 -10.3256    243.8607    237.3821   7.9533321573e+01  -9.6330909765e+00    0.1890722    0.1424037 -26.76 0.0007747951    1.391    0.281
       287 -12.0855      8.6111     32.5134   9.6411903251e+01   6.9413443865e+01    0.3890541    0.3342825 -43.96  0.001909241    1.279    0.218
       288 -10.9807     17.6794     31.2451   9.1259183056e+01   6.8912808439e+01    0.4261312    0.2656602   8.87  0.002534099    1.659    0.397
       289  -9.8892    135.3268    238.0147   1.0027601422e+02   6.4752058454e+00    0.1938961   0.09177219 -32.41 0.0007051293    4.388    0.772
       290 -10.0809     24.1197    232.4694   1.2186421972e+02   2.2853154550e+01    0.1887249    0.1596163 -72.92 0.0006995868    1.434    0.303
       291 -10.5741     29.5395    232.9972   1.2088386105e+02   2.2154938918e+01    0.2901131     0.147856  58.82  0.001691793    1.611    0.379
       292 -10.2816    159.7129    236.0250   9.5072885414e+01   2.9437839103e+00    0.1721706     0.157671  17.59  0.000470319    1.089    0.082
       293  -9.9214    177.3981    234.8295   9.1379211378e+01   3.3959593010e-01    0.1678286    0.1142283 -26.94 0.0009462087    1.674    0.403
       294 -10.0192    201.9253     34.0535   4.1516848067e+01   3.0949188442e+01    0.1981281    0.1789553 -73.33 0.0004013231    1.054    0.051
       295 -11.5614    234.7727     30.8846   3.7430713938e+01   2.3909306743e+01    0.3863523    0.2780955  34.60  0.001074661    2.190    0.543
       296  -9.8673    225.8968     33.2663   3.8789117039e+01   2.5549141641e+01    0.2076354    0.1440773 -64.77 0.0006211717    1.293    0.227
       297 -10.3585    166.0240     31.9719   4.5711860338e+01   3.9939716215e+01    0.2190558    0.1932537 -89.39 0.0005996533    1.068    0.063
       298 -10.1777     89.4565     31.5299   6.2103142940e+01   5.7968130026e+01    0.2367118    0.1961112  34.59 0.0006975802    1.106    0.096
       299  -9.2244    139.2326     30.6632   4.9841076698e+01   4.6704688390e+01    0.1347979     0.100214 -59.89 0.0003245622    1.538    0.350
       300 -11.2131    153.0987    232.1758   9.5846144131e+01   4.6544674691e+00    0.4536662    0.2391944 -69.37  0.001678191    4.280    0.766
       301  -9.7146     61.9353     28.6714   7.0221405025e+01   6.3535118119e+01    0.2147826    0.1408425  23.22  0.001179861    1.511    0.338
       302  -9.4224    154.5866     28.4761   4.6455032723e+01   4.3185747448e+01    0.1353356    0.1257461  73.55 -4.089075e-05    1.022    0.021
       303 -11.2464    130.5762     26.6141   5.0154727649e+01   4.9272336634e+01     0.549721      0.43072 -82.83   0.00258132    1.492    0.330
       304 -10.2858    109.5209    242.8902   1.0608558331e+02   9.5874923844e+00    0.2595706    0.1644289  62.99 0.0007932329    1.692    0.409
       305 -10.0634     38.2289    232.7918   1.1922270399e+02   2.1207860929e+01    0.1734106    0.1234163  68.41 0.0006546812    1.108    0.097
       306 -10.4148     88.8930    241.2434   1.1002681648e+02   1.2924879094e+01    0.2110047    0.1549628 -34.44  0.001225952    2.106    0.525
       307 -10.4980    118.6053     26.3606   5.2570672610e+01   5.2143326164e+01    0.3446451    0.2044638  -1.46  0.001006614    2.376    0.579
       308 -11.3602     10.1022     25.4583   9.2876598010e+01   7.0545529844e+01    0.4811018    0.2587903  30.61  0.002456228    2.194    0.544
       309 -12.0362    194.8137     25.8325   4.0237993492e+01   3.3644404840e+01    0.3862361    0.2608832  87.64  0.002088125    1.428    0.300
       310  -9.3452    224.2080     26.5446   3.7409197745e+01   2.6759342670e+01    0.1615201    0.1110744  64.31 0.0004136257    1.521    0.343
       311  -9.8719    218.6802     26.0164   3.7803332352e+01   2.8063266126e+01      0.20745    0.1643145  50.87 0.0004211757    1.541    0.351
       312 -10.1223    213.8224     26.1903   3.8314524851e+01   2.9147967146e+01    0.1708479     0.148281  59.42  0.001072844    1.330    0.248
       313  -9.7742      1.4474     25.9073   9.7768916666e+01   7.1074759209e+01    0.1616068   0.08756918 -47.38 0.0002975721    1.472    0.321
       314 -10.3040     59.3838     21.7471   6.8079378436e+01   6.4885019760e+01    0.1812675    0.1299352   9.44 0.0007447933    1.341    0.254
       315 -10.7246     62.8828     23.7434   6.7667502805e+01   6.4028900443e+01    0.3742877    0.2265253  19.56  0.001951295    1.801    0.445
       316  -9.8685     68.7552     22.0196   6.4769777134e+01   6.3194245557e+01    0.2147269    0.1634441  48.98 0.0006839719    1.421    0.296
       317 -10.8463     95.0934     23.0861   5.7081268583e+01   5.7802631036e+01     0.449344    0.3102326  45.04  0.002488182    1.301    0.231
       318 -10.5192    186.5423     22.3762   4.0289746274e+01   3.6031720362e+01    0.3247091    0.1345092 -39.80  0.001417277    2.272    0.560
       319  -9.4848    169.7079    229.3083   9.2051143126e+01   2.4595891061e+00     0.120842   0.09853853  63.91 0.0003017851    1.582    0.368
       320 -10.0050     54.9367     23.5119   7.0633745634e+01   6.5393723603e+01    0.1893052     0.112697  37.27   0.00103772    1.609    0.378
       321  -9.3133    227.6032     22.3196   3.6152284272e+01   2.6514413480e+01      0.14298   0.07519012 -65.51 0.0001599511    1.876    0.467
       322 -10.0726     81.0161     22.0444   6.0735625802e+01   6.0841046898e+01    0.1907125    0.1650212  26.19            0    1.029    0.028
       323  -9.4632    155.9838     21.7815   4.4188533143e+01   4.3590127452e+01    0.1779364    0.1010885  66.88 0.0002848559    1.596    0.373
       324 -10.1961    121.1073     20.4316   4.9899375320e+01   5.2199656589e+01    0.2363084    0.1779976  14.16   0.00102882    1.523    0.343
       325 -10.4219     89.6483     20.8477   5.7673493194e+01   5.9208178885e+01    0.2396678    0.1501571  41.93 0.0007492985    1.432    0.302
       326 -10.6940    155.4642    226.9178   9.4579388039e+01   5.1845321228e+00    0.2465591     0.231479 -66.68  0.001602171    1.265    0.210
       327  -9.6948    190.4896    226.5136   8.7484374934e+01  -4.0616649299e-01    0.2065529    0.1140052 -28.78 0.0007072476    2.097    0.523
       328 -11.1626    120.2388    226.4817   1.0186707819e+02   1.0988153800e+01    0.2229443    0.1875748 -67.03 0.0009875343    1.327    0.247
       329  -9.8693    139.8838     19.8878   4.6180950099e+01   4.7743179011e+01     0.234847    0.1590953  54.43 0.0006563474    1.338    0.252
       330  -9.6454    142.9496     16.9937   4.4729152557e+01   4.7288734149e+01    0.1784061    0.1659075  67.20  0.001113285    1.038    0.037
       331 -10.9924     69.8154     26.6376   6.6439444269e+01   6.2420121050e+01    0.3371979    0.2597947   7.34  0.001063982    1.234    0.190
       332 -10.7220     50.1676     15.1859   6.8621869738e+01   6.7215352605e+01    0.6696119     0.183403  48.55  0.002365331    4.572    0.781
       333  -9.9761     66.0580    226.3111   1.1317219171e+02   1.9043944257e+01    0.1895021    0.1597254 -75.23 0.0006270541    1.277    0.217
       334 -10.6497      4.4010    226.1103   1.2514431898e+02   2.6124577699e+01     0.264734    0.1184724  53.82  0.001542275    1.768    0.434
       335 -10.2561     31.1842     12.8063   7.5963340642e+01   7.0269797778e+01    0.1782284    0.1349482  -3.25 0.0003615127    1.060    0.056
       336 -11.1608     41.8428     19.1512   7.4124151257e+01   6.7974112858e+01    0.4249233    0.2256511  39.02  0.002177148    1.928    0.481
       337 -11.3960     20.9233    222.3455   1.2184427744e+02   2.5253454550e+01    0.2665295    0.1667913  84.64  0.001039105    1.326    0.246
       338  -9.3290     54.6815     19.2659   6.8757538274e+01   6.5983043739e+01    0.1038784    0.1008002  80.68   0.00039757    1.554    0.356
       339 -10.6915     60.1217     16.8450   6.5517145888e+01   6.5354537277e+01    0.1946323    0.1585571  -4.24 0.0003436971    1.119    0.106
       340  -9.4750    126.5426    221.5268   9.9854459672e+01   1.0925536337e+01    0.1342792    0.1161169  53.48  5.03588e-06    1.072    0.067
       341 -10.3042    177.9442     15.4939   3.9447965776e+01   3.8862953001e+01    0.2249971    0.1738224 -72.46 0.0003918272    1.239    0.193
       342  -9.8290    123.6880    221.6818   1.0048506732e+02   1.1359727081e+01    0.2131417    0.1635476 -26.68  0.001176844    1.740    0.425
       343  -9.4680     41.9782    220.9647   1.1760186551e+02   2.3197553225e+01    0.1494687    0.1177922  73.72 0.0007881623    1.015    0.015
       344 -10.0833    142.8137    220.6983   9.6277316033e+01   8.4003030551e+00    0.2733329    0.1122786  32.32  0.001072614    2.576    0.612
       345  -9.3353    175.0077    219.6586   8.9430668336e+01   3.2231896313e+00    0.2246225    0.1000721  21.44 0.0007051053    4.454    0.775
       346 -11.1550      9.6794    217.2102   1.2369075726e+02   2.7448264842e+01    0.3002492    0.1707201  64.38   0.00160044    1.420    0.296
       347 -11.4312     30.1010    215.9326   1.1960815655e+02   2.5617957342e+01    0.3479337    0.2673362  11.43   0.00219076    2.052    0.513
       348  -9.6738    233.6773     15.3503   3.4128459846e+01   2.6000494021e+01    0.1369877   0.07146498 -62.13 0.0007048523    1.749    0.428
       349 -11.5903    236.0473    214.7798   7.6969076218e+01  -5.5337292142e+00     0.350669    0.2220279  -9.80  0.001250219    1.612    0.380
       350 -10.1798     26.2832     14.1495   7.9095542408e+01   7.0699322433e+01    0.1710832    0.1181706 -10.42  0.000289098    1.234    0.189
       351 -11.1074    240.9906    211.3109   7.5480853779e+01  -5.7422236727e+00    0.2963275    0.2281989  26.73  0.001923995    1.309    0.236
       352  -9.2887    194.6603    215.2952   8.4763261108e+01   7.3110510361e-01    0.1217995    0.1036977  64.70 0.0002745028    1.655    0.396
       353  -9.8752     97.4636     13.4252   5.2561265084e+01   5.8289994916e+01    0.1992298     0.177226  77.70 0.0007218766    1.302    0.232
       354  -9.3747    137.0011    216.0000   9.6807450633e+01   1.0263762573e+01    0.2262133   0.07024343  38.52 0.0007966973    2.903    0.656
       355  -9.6018     55.2428     13.3425   6.5696824675e+01   6.6594470403e+01    0.1236138   0.08052672   7.29 0.0001815346    1.563    0.360
       356  -9.9301     66.9809    215.2189   1.1188540203e+02   2.1245757019e+01    0.1846429    0.1514214 -10.45 0.0009197732    1.949    0.487
       357 -10.6329     21.5418    212.6065   1.2108908811e+02   2.7240052582e+01    0.2904628    0.1496836  55.93  0.001654858    1.652    0.395
       358 -10.0623    208.9482    212.0396   8.1427530530e+01  -1.0349423919e+00    0.1994042    0.1655622   2.55 0.0005490355    1.063    0.060
       359  -9.4123     76.3425    212.2887   1.0955021703e+02   2.0576694001e+01    0.1185616    0.1035872 -17.56 0.0004285886    1.648    0.393
       360 -12.2471      4.1983    208.4068   1.2425326034e+02   2.9816435854e+01    0.5720851    0.3107032 -84.19   0.00349255    1.509    0.337
       361  -9.5291    184.8300    208.3692   8.5501590318e+01   3.5287156717e+00    0.1924005     0.115153  26.99 0.0004131519    1.700    0.412
       362  -9.2262    188.2390    205.3601   8.4273979033e+01   3.4745716077e+00    0.1347225   0.09706914  -9.27 0.0004361467    1.591    0.372
       363 -10.7993     19.6762    200.8370   1.2064789631e+02   2.9993069522e+01    0.2926506    0.1140411 -70.06  0.001147844    2.213    0.548
       364 -10.2731    175.3219    202.7436   8.6447979245e+01   6.1670217712e+00    0.2195076      0.19944  49.89 0.0005063934    1.218    0.179
       365  -9.7421    243.4524    202.4577   7.3426401868e+01  -4.8144061190e+00    0.1253482    0.1021989  -7.32 7.854056e-05    1.013    0.013
       366 -10.1680     11.0103    208.3092   1.2290853888e+02   2.9206140254e+01    0.1899088    0.1380621 -66.55 0.0006357935    1.495    0.331
       367  -9.1925    223.4718    201.4855   7.6778190088e+01  -1.6571127423e+00    0.1275963    0.1130399  -4.20 0.0001743435    1.098    0.089
       368  -9.0565     34.3352    201.3004   1.1757951106e+02   2.8345500428e+01    0.1133922   0.09185127 -46.28 0.0007034553    1.657    0.396
       369  -9.3553    238.6643    200.7145   7.3925292961e+01  -3.8551870985e+00    0.1301302   0.08554449   1.05 0.0007014453    1.626    0.385
       370  -9.4336    215.5131    194.5319   7.6930160936e+01   7.4140154280e-01     0.135534     0.114854  -2.20 7.935071e-05    1.049    0.047
       371 -11.0217     16.3241    193.3027   1.2080780497e+02   3.2003663449e+01    0.2632941    0.2331514  -2.77  0.001028841    1.702    0.413
       372  -9.4772    211.4828    188.4889   7.6517081639e+01   2.4315946327e+00     0.137722    0.1189757  -3.67 0.0008099824    1.042    0.040
       373  -9.2153    107.4754     10.4941   4.9088642010e+01   5.6319359467e+01    0.1310722     0.112897  43.85 -1.156339e-05    1.022    0.021
       374  -9.5805      1.9550    187.9955   1.2349721681e+02   3.4478338833e+01    0.1466543    0.1086523  85.22 0.0006284825    1.027    0.026
       375 -10.9457     16.5889    184.3055   1.2006551620e+02   3.4029084872e+01    0.3584746    0.1856193 -78.88  0.001940717    1.617    0.382
       376 -10.1670     14.7141    180.6535   1.2019566003e+02   3.5045667712e+01    0.1849855    0.1653762  85.83 0.0006334358    1.192    0.161
       377  -9.8248    167.5209    183.5032   8.4510365589e+01   1.1263626929e+01    0.1436335    0.1358305  11.20 0.0001442348    1.013    0.013
       378  -9.6447     58.8066    182.1631   1.1002927481e+02   2.9828184364e+01    0.1769478    0.1545102 -51.76 0.0007492466    1.336    0.251
       379  -9.3478      1.5441    180.5039   1.2309998309e+02   3.6205125646e+01    0.1206381   0.09149293  86.10  0.000142502    1.007    0.007
       380 -10.1040    244.2791    178.5465   6.8673216268e+01  -1.2953924143e+00    0.2331982    0.1371246 -18.40  0.001074703    1.815    0.449
       381 -10.6113     46.5374    177.7939   1.1247415196e+02   3.2398403392e+01    0.2821362    0.2216361  89.75  0.001390793    1.106    0.096
       382  -9.4152     69.6064    178.1844   1.0687760252e+02   2.9319530624e+01    0.1884845    0.1162346 -55.06 0.0005749907    1.642    0.391
