#   1 NUMBER                 Running object number                                     
#   2 MAG_AUTO               Kron-like elliptical aperture magnitude                    [mag]
#   3 X_IMAGE                Object position along x                                    [pixel]
#   4 Y_IMAGE                Object position along y                                    [pixel]
#   5 X_WORLD                Barycenter position along world x axis                     [deg]
#   6 Y_WORLD                Barycenter position along world y axis                     [deg]
#   7 A_WORLD                Profile RMS along major axis (world units)                 [deg]
#   8 B_WORLD                Profile RMS along minor axis (world units)                 [deg]
#   9 THETA_WORLD            Position angle (CCW/world-x)                               [deg]
#  10 FWHM_WORLD             FWHM assuming a gaussian core                              [deg]
#  11 ELONGATION             A_IMAGE/B_IMAGE                                           
#  12 ELLIPTICITY            1 - B_IMAGE/A_IMAGE                                       
         1 -13.9338     67.6159    144.0776   1.3244708343e+02   3.7737467153e+01     2.958232     1.337325 -85.32  0.004084054    5.062    0.802
         2 -13.1591    205.7402      1.9778   6.3780488816e+01   3.2500380258e+01     1.653803    0.7218331  74.71  0.004368067    2.197    0.545
         3 -14.1865    184.1094     24.2655   7.2791510535e+01   3.5761097390e+01     1.884332     1.381032  -6.61  0.005645295    1.575    0.365
         4 -14.0336    191.5361     17.3385   6.9719865105e+01   3.4601522612e+01      1.76361     1.135151 -34.37  0.006083874    1.556    0.358
         5 -12.7567    197.6709      9.4664   6.6708297649e+01   3.3830119375e+01    0.6447606    0.5362527  55.78  0.001179229    1.193    0.162
         6 -11.4490     40.0908      3.6521   1.0048868343e+02   6.9045365847e+01     0.350314    0.1437496 -31.33  0.001768351    2.114    0.527
         7 -11.6596    224.6902    244.9067   1.1699748002e+02  -5.1840815434e+00    0.2331333    0.1548935  23.97  0.001589826    1.225    0.184
         8 -11.8965    247.2217    246.7296   1.1367249524e+02  -8.6628679141e+00    0.5681797     0.250075  25.04  0.003074228    2.209    0.547
         9 -14.8450    102.0264    246.3307   1.3771412856e+02   1.3484095559e+01     5.455501     2.671469  30.25   0.01104992    3.229    0.690
        10 -10.8741    193.2739    195.0770   1.1440357662e+02   6.2917697855e+00    0.7983792    0.4160877 -62.17  0.002473032    6.609    0.849
        11 -11.9488     76.0739    193.0974   1.3701531747e+02   2.6358506579e+01    0.3597963    0.2396618 -47.45  0.001461985    1.993    0.498
        12 -11.9232     80.2343    186.3714   1.3541338862e+02   2.7098776494e+01    0.2634533    0.2172274 -59.98 0.0006150914    1.370    0.270
        13 -15.9005     16.9511    244.1348   1.5093618908e+02   2.4217750355e+01     2.824826     1.237075 -76.61     0.019545    2.107    0.525
        14  -8.9021    181.5127    192.4257   1.1614232089e+02   8.8500431561e+00    0.1322069    0.1141676  32.83 4.644497e-05    1.018    0.018
        15 -11.5233     87.9121    174.6775   1.3232584451e+02   2.8342256787e+01    0.2339351    0.2201502 -77.80 0.0004075646    1.195    0.163
        16 -13.4209     90.5938    165.2609   1.3039917048e+02   2.9887496549e+01     3.626459    0.7891048  49.52  0.002580654    6.125    0.837
        17 -11.1495    230.9780    249.5969   1.1667311681e+02  -6.5923461290e+00     0.329326   0.07787932  39.58  0.001385384    3.242    0.692
        18 -10.9501    137.8286    171.7083   1.2124094619e+02   2.0585417360e+01    0.3141792    0.2422952  38.32  0.001300517    1.279    0.218
        19 -17.0519      1.5000     99.4098   1.4303911465e+02   5.4002960208e+01     13.19343          nan -70.33   0.02687055   12.688    0.921
        20 -11.5165    203.0022    250.0000   1.2126698168e+02  -2.4272539654e+00     0.358476    0.1141213  42.29  0.001697062    2.425    0.588
        21  -9.6779    230.3110    166.6347   1.0219804604e+02   3.5812030007e+00    0.1258013    0.1079477 -67.61 0.0007038805    1.757    0.431
        22 -11.9042    182.8271    216.2188   1.1982002354e+02   5.0779894631e+00    0.5090593    0.2618884  26.47  0.002369039    2.450    0.592
        23  -9.8266     52.3833    157.6417   1.3781262869e+02   3.6686400826e+01    0.1898549    0.1212928  73.72 0.0008211593    1.586    0.369
        24 -14.4697     54.3702    226.4716   1.4400552833e+02   2.3030382004e+01     2.187704     1.055379 -47.00  0.004939456    4.464    0.776
        25 -10.5663     22.0567    155.2876   1.4415743533e+02   4.0359167505e+01    0.2558022    0.1636768  60.56 0.0007304574    1.487    0.328
        26 -10.6255    104.7923    149.2342   1.2454147013e+02   3.1010428905e+01    0.3241126    0.2923627 -18.98  0.001420032    1.391    0.281
        27  -9.6165    107.1928    145.2211   1.2323969615e+02   3.1461745002e+01    0.2950719    0.1907151 -34.07  0.001376667    2.073    0.518
        28 -12.3523     93.7958    149.0489   1.2707302465e+02   3.2843260823e+01    0.2633992    0.2561241  51.29 0.0004991769    1.173    0.148
        29 -11.9248     56.4804    145.1115   1.3523419392e+02   3.8922021933e+01    0.4136383    0.3413157  52.21  0.002702744    1.278    0.218
        30 -10.2146    133.8938    145.0105   1.1701114918e+02   2.6628413912e+01    0.9473649    0.1833398 -52.80  0.001933055    8.896    0.888
        31 -10.9193     45.3290    144.9581   1.3782188687e+02   4.0246927776e+01    0.2315325    0.1486144  66.96  0.001342086    1.610    0.379
        32 -10.2427     49.7348    151.8312   1.3768474803e+02   3.8250235365e+01    0.1798157     0.147431 -69.11 0.0007054688    1.174    0.148
        33 -10.2244    113.9309    135.4164   1.1969673949e+02   3.2381106131e+01    0.3282125    0.2507971 -12.21  0.001178648    1.928    0.481
        34 -11.0494    101.9797    132.3160   1.2197436960e+02   3.5147698685e+01    0.4004208    0.2919044  16.30   0.00196943    1.960    0.490
        35 -11.9568     42.5859    126.2483   1.3590193948e+02   4.4691924357e+01    0.3306006    0.2871921  58.26  0.002256832    1.257    0.204
        36  -9.3815    160.6788    127.3449   1.0702878362e+02   2.4665034186e+01    0.1535287    0.1201755 -83.24 0.0003077616    1.730    0.422
        37 -13.4482     76.0378    171.8421   1.3447026209e+02   3.0633963997e+01    0.4320746    0.2746701 -42.99  0.001572708    2.137    0.532
        38  -9.8748    109.7371    122.9496   1.1804382904e+02   3.5831731261e+01    0.2135243    0.1987872  48.39 0.0003949729    1.116    0.104
        39  -9.5912    118.9307    128.0714   1.1690902551e+02   3.3034725518e+01    0.2288195    0.1810328  -8.55  0.001128663    1.740    0.425
        40 -10.8829    168.2343    113.0376   1.0181228583e+02   2.5733710546e+01    0.3735452     0.299173 -79.95  0.001145808    1.641    0.391
        41  -9.6671    205.1803    110.2701   9.3726981767e+01   1.7743006055e+01    0.4122068    0.2212974  31.36  0.001564521    2.464    0.594
        42 -11.2315    144.2630    242.6994   1.3021548066e+02   7.6914697750e+00    0.1943077    0.1404124  55.46    0.0004401    1.222    0.182
        43 -15.6360      1.5460    228.7413   1.5254059415e+02   2.8233336499e+01     4.514441          nan -73.82   0.01355462   10.661    0.906
        44 -10.8977     21.8034     93.1842   1.3631979994e+02   5.3982254108e+01    0.3484267    0.1498669  36.04  0.001793277    2.703    0.630
        45  -8.9034    184.5443     77.4780   8.8689789291e+01   2.8183892110e+01    0.1525823    0.1467136   2.85 6.459335e-05    1.039    0.037
        46  -9.3299    153.5119     75.5234   9.4492086948e+01   3.6099493898e+01     0.152484    0.1482231  -2.32 0.0001426716    1.003    0.003
        47 -12.5268    140.0818    248.8641   1.3162250062e+02   7.4829880733e+00    0.4533187    0.2928749  56.34  0.002990186    1.384    0.277
        48 -16.1595     63.0843    215.0824   1.4159142384e+02   2.3958265132e+01     8.120017     4.083459  78.91   0.04424953    2.287    0.563
        49 -10.7611    230.0028    207.4937   1.1007438616e+02  -1.7990765995e+00    0.2041832    0.1819008   5.07 0.0003815732    1.190    0.160
        50 -11.6051    163.2148    248.5517   1.2770163995e+02   3.9410969993e+00    0.3576015    0.2897238  81.26  0.002569872    1.647    0.393
        51 -10.8503     33.0353     24.4653   1.1328063587e+02   6.6838202741e+01    0.1999417    0.1313199 -36.78  0.001186751    1.238    0.192
