#   1 NUMBER                 Running object number                                     
#   2 MAG_AUTO               Kron-like elliptical aperture magnitude                    [mag]
#   3 X_IMAGE                Object position along x                                    [pixel]
#   4 Y_IMAGE                Object position along y                                    [pixel]
#   5 X_WORLD                Barycenter position along world x axis                     [deg]
#   6 Y_WORLD                Barycenter position along world y axis                     [deg]
#   7 A_WORLD                Profile RMS along major axis (world units)                 [deg]
#   8 B_WORLD                Profile RMS along minor axis (world units)                 [deg]
#   9 THETA_WORLD            Position angle (CCW/world-x)                               [deg]
#  10 FWHM_WORLD             FWHM assuming a gaussian core                              [deg]
#  11 ELONGATION             A_IMAGE/B_IMAGE                                           
#  12 ELLIPTICITY            1 - B_IMAGE/A_IMAGE                                       
         1 -14.3154    205.8777     43.2746   3.6192731140e+01   2.8820627464e+01     1.628825     1.311084  18.53  0.006704608    1.864    0.463
         2 -14.2452    218.5212     32.2919   3.2439698152e+01   2.7523570882e+01    0.9532601    0.8074714  31.01  0.006213009    1.712    0.416
         3 -12.4316    248.0755      9.9980   2.5763059803e+01   2.4249497546e+01    0.4109845    0.3782695   8.12  0.002982564    1.719    0.418
         4 -12.6614    241.5710      8.0560   2.5751942392e+01   2.5675810798e+01    0.5962062    0.2818975 -43.42  0.003133284    1.674    0.402
         5 -12.5444    246.3237      3.3604   2.4596500769e+01   2.5269917896e+01    0.4968942    0.2846505 -79.06  0.003217693    1.537    0.349
         6 -11.3137     49.2243      3.0812   5.3921357929e+01   6.9018917846e+01    0.5341973    0.2768321  67.16  0.002248683    3.599    0.722
         7 -11.9611    192.9036    194.7398   7.2320944589e+01   5.2770973078e+00     1.084411    0.5802431 -61.77   0.00355304    5.317    0.812
         8 -11.5858    139.5793    248.1262   9.1958112225e+01   3.8591662278e+00    0.4944957     0.198939 -51.18  0.002280041    2.939    0.660
         9 -13.0831     65.6043    169.3025   9.8950316578e+01   3.1345654166e+01     1.291515    0.6191928 -29.59  0.002845665    5.076    0.803
        10 -15.5798     69.2196    149.8448   9.4785804083e+01   3.5815055182e+01     10.01894     4.935629  73.91   0.01001347    6.371    0.843
        11 -16.5442     40.5440    191.4717   1.0833497723e+02   2.8934981048e+01     9.520325     2.864092  52.84   0.01653942    4.105    0.756
        12 -11.2205     48.2991    170.7149   1.0398405612e+02   3.3172096745e+01     0.385387    0.2014637 -59.37  0.001419433    1.807    0.447
        13 -11.4958    230.6408    167.1189   6.0083752664e+01   4.2485064958e+00    0.4772972    0.1496317 -42.40  0.001839043    2.909    0.656
        14  -9.8014    110.8013    167.5109   8.6190107616e+01   2.4806614617e+01    0.2830445    0.1985951 -77.13  0.000985963    1.845    0.458
        15  -9.4503    145.6696    184.2985   8.0609548128e+01   1.5024626439e+01    0.1417999    0.1147408  68.64 0.0007029807    1.642    0.391
        16 -10.1212    186.9453    165.6949   6.7820033173e+01   1.1584493761e+01    0.1998091    0.1794646  15.02  0.001152731    1.117    0.105
        17 -10.4137     44.6526    165.6153   1.0437096396e+02   3.4888767770e+01    0.2788467    0.2064638  66.22 0.0006284496    1.369    0.270
        18  -9.6547     65.2712    191.9232   1.0206277367e+02   2.5832019470e+01    0.2108701    0.1671428  73.19 0.0005897966    1.264    0.209
        19  -9.5755    118.3133    190.3110   8.8298522414e+01   1.8306588734e+01    0.1458327      0.11094 -11.98 0.0004002834    1.631    0.387
        20 -12.2102     85.1080    151.7952   9.0409422517e+01   3.2926908974e+01    0.6637393    0.4739746 -20.31  0.002971838    1.870    0.465
        21  -8.8928    128.3303    153.6787   7.8790675705e+01   2.4916325101e+01    0.1560938    0.1228293  77.77 0.0007049012    1.694    0.410
        22 -11.3897    133.7238    144.5762   7.5400458469e+01   2.5982097067e+01     1.230775    0.3174026 -53.67  0.002904088    5.552    0.820
        23 -10.4980    174.6653    149.3533   6.6876273951e+01   1.7024395532e+01    0.2599492     0.227953  -9.09  0.000760352    1.144    0.126
        24 -11.7833     54.3344    147.4640   9.8926782052e+01   3.8423499369e+01    0.5183358    0.3185734 -56.26  0.002280626    1.524    0.344
        25 -11.1274     32.6170    143.6467   1.0509321484e+02   4.1849710012e+01    0.5391378    0.3250548  16.85  0.002579905    1.975    0.494
        26 -10.8754     99.9700    138.3191   8.3284347535e+01   3.3803210990e+01    0.5779365    0.3748715 -19.31  0.002256774    2.349    0.574
        27 -12.4620     87.0190    137.5953   8.7002514191e+01   3.6209390397e+01    0.3237322    0.2820799 -53.39 0.0003819643    1.116    0.104
        28 -10.6196    105.9694    130.7241   7.9801220908e+01   3.4566770898e+01    0.3755116     0.367283 -12.69  0.001363753    1.029    0.028
        29 -10.5091    109.6753    129.6230   7.8467244978e+01   3.4133385448e+01    0.3556029    0.2701079  -9.19  0.001281164    1.717    0.417
        30 -15.8225      9.5415    208.2358   1.1700171906e+02   2.8116999439e+01     1.661715     1.180997 -82.62  0.003968997    1.292    0.226
        31 -11.1014    135.3314    129.6769   7.1493681863e+01   2.9040471268e+01    0.4815141    0.2055377 -44.17  0.001701762    2.300    0.565
        32 -11.0310     67.0626    127.2700   9.1159573836e+01   4.1952906237e+01    0.5786358    0.3422433 -57.38  0.002538928    1.589    0.371
        33  -9.9012    160.8671    128.1477   6.4988609806e+01   2.4111411258e+01    0.2384123    0.2139818 -74.00  0.001242783    1.265    0.210
        34 -10.7815     97.1175    124.8734   8.1051982997e+01   3.7621770449e+01    0.3212997    0.2645701  -8.72   0.00094749    1.434    0.303
        35  -9.9328    116.4357    123.7060   7.5100473743e+01   3.4219493052e+01    0.2682742    0.1970596  12.97 0.0007458906    1.754    0.430
        36 -10.5902    161.5662    118.6173   6.2492747897e+01   2.5928318271e+01    0.5673917    0.3193699 -65.55  0.001940912    3.181    0.686
        37  -9.9746    106.8691    118.1497   7.6460815872e+01   3.7403643238e+01    0.2217254    0.2150812 -17.93 0.0003123265    1.029    0.028
        38 -10.6515    231.2885    113.9219   4.8987948568e+01   1.3003417690e+01    0.2656154    0.2194871 -38.67 0.0007714329    1.017    0.017
        39 -10.1535     99.3650    180.8861   9.1570079842e+01   2.3517434650e+01    0.2630189    0.2083446  26.63 0.0005959048    1.285    0.222
        40  -9.7717    156.0977    111.4770   6.1897988745e+01   2.8555681804e+01    0.2812689    0.2013812 -58.20 0.0005837437    1.550    0.355
        41  -9.6625    135.0000    111.9895   6.7089576551e+01   3.3013011190e+01    0.2649571   0.08734601 -44.31 0.0008062546    2.969    0.663
        42 -10.0891    205.4113    110.2389   5.2098701596e+01   1.8466760020e+01    0.2622222     0.199553  45.88 0.0008750982    1.479    0.324
        43 -10.2948     30.2934    107.9279   1.0022495403e+02   5.1359020592e+01    0.2239606    0.1867639  43.42 0.0005746423    1.340    0.254
        44 -17.1848     11.6040    242.7236   1.1833503815e+02   2.0659884549e+01     5.658511      1.84023  24.44   0.01569586    3.678    0.728
        45  -9.6202    134.4356    105.2197   6.5418640673e+01   3.4580937942e+01    0.2306567    0.1451445 -53.92 0.0009596023    1.722    0.419
        46 -10.6347    123.9747    201.7573   8.8787580690e+01   1.4920602077e+01    0.3143359    0.2068294 -68.85  0.001057293    1.987    0.497
        47 -12.6139    236.7748    175.1949   6.0645681524e+01   2.0571654205e+00    0.6663475    0.2763295  34.95  0.003078658    2.757    0.637
        48 -10.1571     52.9808     90.9939   8.7674625514e+01   5.2994641042e+01    0.1793951    0.1605922 -41.08 0.0004076573    1.031    0.030
        49  -9.9094     18.0115     90.2907   1.0163771810e+02   5.6830651260e+01    0.1800762    0.1646193 -35.40 0.0003841844    1.097    0.088
        50 -10.1492    160.5244     83.9748   5.3613504602e+01   3.2843805885e+01    0.2265397    0.1424755 -38.45  0.000642148    1.555    0.357
        51  -9.1824     71.9029     82.9772   7.8163027887e+01   5.1955664151e+01    0.2293154    0.1811423  70.29  0.001046387    1.739    0.425
        52  -9.0539     87.5834     63.7948   6.6261139459e+01   5.2940159176e+01    0.2043318    0.1366727 -51.57 0.0009411196    1.714    0.416
        53 -13.2292    196.2528     49.9686   3.8921303672e+01   3.0034162808e+01    0.7953455    0.5729349  54.31 0.0008764513    1.537    0.349
        54 -11.5861    120.0072    245.1418   9.5727395455e+01   7.0738567732e+00    0.1968536    0.1872894 -41.75 0.0007786459    1.239    0.193
        55 -14.7040     56.0593    235.0832   1.0861330776e+02   1.7419125639e+01     1.317571    0.6905936  84.78  0.006466583    2.406    0.584
        56  -9.7479    197.9901     23.6850   3.2340172798e+01   3.2950049983e+01    0.2419917     0.179462 -10.45  0.001273849    1.900    0.474
        57 -11.0626     13.5065     60.0811   9.6634111609e+01   6.4271179128e+01     0.259883    0.2083433 -54.51 0.0004648995    1.175    0.149
        58  -9.5489    189.5162     15.0179   3.1037137220e+01   3.5792536934e+01    0.1752074    0.1165804 -34.53 0.0006462347    1.550    0.355
        59 -10.1378    184.3406    205.3136   7.5966795847e+01   4.7287383417e+00    0.1406851   0.09361725  -3.62 0.0007047037    1.701    0.412
        60 -12.5247    240.2184    169.3868   5.8975970350e+01   2.4921641431e+00    0.3642168    0.2781403  40.73  0.001901453    1.625    0.385
        61 -15.5307      7.7245    145.7980   1.1290422750e+02   4.3380271761e+01     5.612318     1.604787 -81.00   0.01786296    3.588    0.721
